timestamps,TP9,AF7,AF8,TP10,Right AUX
1692141283.289,-13.672,-19.531,-28.809,10.254,-69.336
1692141283.293,-9.277,-23.438,-27.832,-0.488,-78.125
1692141283.297,-26.855,-28.809,-28.320,-20.020,-97.168
1692141283.301,-37.109,-20.508,-32.715,-16.602,-142.090
1692141283.305,-27.344,-17.578,-38.574,-3.418,-62.500
1692141283.309,-8.789,-28.809,-38.574,10.742,50.293
1692141283.313,-4.883,-37.598,-36.621,5.859,1.953
1692141283.316,-10.254,-34.668,-42.480,-11.719,15.137
1692141283.320,-15.137,-18.066,-44.434,-19.043,203.613
1692141283.324,-18.555,-3.906,-37.109,-15.137,-61.035
1692141283.328,-9.766,-11.230,-39.551,-2.441,-171.387
1692141283.332,-3.418,-24.414,-44.434,-7.324,20.508
1692141283.333,-15.137,-22.949,-40.527,-27.832,29.297
1692141283.337,-28.809,-15.625,-37.598,-43.457,-181.152
1692141283.341,-32.715,-15.625,-36.621,-30.273,-189.453
1692141283.345,-23.926,-20.996,-33.203,-5.859,-35.156
1692141283.349,-10.742,-20.508,-29.297,-6.836,89.355
1692141283.353,-15.137,-23.926,-33.691,-30.762,73.242
1692141283.357,-28.809,-33.203,-39.062,-45.410,-40.527
1692141283.360,-32.715,-38.574,-34.668,-29.297,140.137
1692141283.364,-23.438,-38.086,-39.062,1.953,276.855
1692141283.368,-5.859,-31.250,-34.180,3.418,-59.082
1692141283.372,-10.254,-19.531,-21.484,-19.531,-215.820
1692141283.376,-26.367,-7.812,-20.508,-31.250,-164.062
1692141283.378,-31.738,-15.625,-25.391,-21.484,-191.406
1692141283.382,-21.973,-26.367,-35.156,-11.719,-200.684
1692141283.386,-12.207,-25.391,-36.133,-16.602,-134.277
1692141283.390,-21.973,-23.438,-33.203,-37.109,-69.824
1692141283.394,-29.785,-29.785,-41.016,-50.781,-102.051
1692141283.398,-28.809,-37.598,-40.039,-34.180,-150.391
1692141283.402,-23.926,-35.645,-31.738,-15.137,17.578
1692141283.405,-6.348,-36.133,-27.344,-1.465,480.957
1692141283.409,-1.465,-24.414,-24.902,-14.648,191.895
1692141283.413,-23.438,-14.648,-20.020,-40.527,-250.000
1692141283.417,-41.504,-20.020,-14.648,-32.715,37.109
1692141283.421,-23.438,-18.555,-20.020,-4.395,148.926
1692141283.423,-4.395,-20.996,-32.227,-5.859,-145.996
1692141283.427,-11.230,-24.902,-38.086,-23.438,-187.012
1692141283.431,-24.414,-19.043,-40.039,-36.133,-70.801
1692141283.435,-31.738,-14.648,-38.086,-33.691,-136.719
1692141283.439,-26.367,-14.648,-34.668,-13.184,-151.367
1692141283.443,-20.020,-17.090,-33.691,4.395,33.203
1692141283.447,-26.367,-22.949,-37.109,0.000,293.457
1692141283.450,-29.297,-25.391,-36.133,-14.648,187.500
1692141283.454,-31.738,-26.855,-30.273,-29.297,-200.684
1692141283.458,-25.879,-29.785,-28.320,-21.973,-92.773
1692141283.462,-13.184,-29.785,-27.344,0.977,88.379
1692141283.466,-10.742,-26.855,-31.738,-11.719,-83.008
1692141283.470,-22.949,-24.902,-34.180,-25.391,-207.031
1692141283.474,-29.785,-24.414,-33.203,-26.367,-155.273
1692141283.478,-20.996,-19.043,-35.156,-19.531,-126.953
1692141283.482,-10.254,-24.902,-37.598,-3.418,-122.070
1692141283.486,-3.906,-33.203,-40.527,-10.254,-104.004
1692141283.490,-13.672,-27.832,-42.969,-33.203,-5.859
1692141283.494,-28.809,-30.762,-43.457,-37.598,142.578
1692141283.497,-30.762,-31.250,-41.504,-16.113,-29.785
1692141283.501,-20.996,-25.879,-35.645,0.488,-178.711
1692141283.505,-16.113,-30.762,-38.086,-3.906,40.039
1692141283.509,-17.578,-29.785,-45.410,-27.832,322.266
1692141283.513,-20.508,-6.348,-37.109,-35.645,0.000
1692141283.528,-20.996,-1.465,-29.785,-17.578,-185.547
1692141283.532,7.324,-11.719,-39.062,16.113,-18.555
1692141283.536,20.508,-20.508,-35.645,25.391,-90.332
1692141283.540,-12.695,-31.250,-20.508,-11.719,-195.801
1692141283.544,-35.156,-29.785,-33.691,-33.203,-211.426
1692141283.548,-18.555,-24.414,-45.898,-12.695,174.805
1692141283.552,-1.953,-28.320,-37.598,15.137,540.527
1692141283.555,2.930,-24.902,-30.273,10.742,67.383
1692141283.559,-3.418,-20.020,-31.738,-7.324,-208.008
1692141283.563,-20.508,-32.227,-39.551,-22.949,-92.285
1692141283.567,-15.625,-37.109,-40.527,-17.578,-147.461
1692141283.571,-5.371,-34.180,-29.297,13.672,-166.992
1692141283.573,-0.977,-38.086,-30.273,12.695,-111.816
1692141283.577,0.488,-42.969,-34.180,-8.301,-104.492
1692141283.581,1.465,-30.762,-32.227,-12.695,-77.637
1692141283.585,-6.348,-20.508,-34.668,-4.883,-132.812
1692141283.589,-10.254,-26.367,-30.762,17.578,-111.328
1692141283.593,1.953,-27.832,-32.715,26.367,88.867
1692141283.597,1.953,-26.855,-40.527,-4.395,72.266
1692141283.600,-5.371,-22.949,-39.551,-26.367,-79.590
1692141283.604,-10.742,-21.484,-39.062,-14.648,-49.805
1692141283.608,-8.789,-29.297,-40.039,8.301,273.438
1692141283.612,5.859,-27.344,-36.133,13.184,180.664
1692141283.616,11.719,-23.926,-30.762,3.418,-129.395
1692141283.618,-3.906,-24.902,-30.762,-4.883,-84.961
1692141283.622,-11.719,-22.949,-31.738,-4.395,-31.738
1692141283.626,-0.977,-25.391,-30.273,3.418,-193.359
1692141283.630,6.348,-28.809,-29.785,10.742,-155.273
1692141283.634,12.207,-21.973,-21.973,16.113,117.676
1692141283.638,11.230,-8.789,-21.973,-5.859,81.055
1692141283.642,-10.742,-11.719,-28.320,-19.043,-66.406
1692141283.645,-12.207,-19.531,-30.273,-4.395,-65.918
1692141283.649,2.930,-25.391,-35.645,11.230,164.062
1692141283.653,2.441,-20.996,-39.551,9.277,201.172
1692141283.657,-11.719,-20.020,-37.598,-19.531,-138.184
1692141283.661,-24.414,-19.531,-36.133,-22.461,-211.426
1692141283.663,-24.414,-20.508,-37.598,-0.488,-127.930
1692141283.667,-6.348,-11.719,-39.551,13.672,-104.004
1692141283.671,4.883,-2.441,-37.598,9.766,-111.816
1692141283.675,-10.254,-17.578,-42.480,-11.719,-115.234
1692141283.679,-32.227,-26.855,-47.363,-31.250,-125.977
1692141283.683,-32.715,-32.715,-47.852,-21.484,-93.262
1692141283.687,-12.695,-37.598,-50.781,0.488,-43.945
1692141283.690,-2.930,-31.738,-41.504,0.000,156.738
1692141283.694,-22.461,-34.180,-38.086,-19.531,318.359
1692141283.698,-43.457,-41.992,-42.480,-42.480,-37.109
1692141283.702,-45.410,-49.316,-47.363,-37.598,-202.148
1692141283.706,-19.531,-33.203,-49.316,-3.906,38.574
1692141283.708,2.930,-20.508,-41.992,2.441,279.785
1692141283.712,-11.719,-33.691,-40.039,-31.738,-88.379
1692141283.716,-24.902,-39.062,-40.039,-46.387,-288.574
1692141283.720,-27.832,-38.574,-41.504,-36.133,-133.789
1692141283.724,-17.090,-26.855,-44.922,-10.254,-87.891
1692141283.728,-4.395,-14.648,-35.156,6.836,-29.785
1692141283.732,-5.371,-13.672,-32.227,-8.301,-24.902
1692141283.735,-17.578,-14.648,-40.527,-27.832,150.879
1692141283.739,-27.832,-16.113,-40.527,-25.879,110.840
1692141283.743,-20.508,-20.020,-38.574,-3.418,-124.512
1692141283.747,-6.348,-27.832,-41.016,7.812,-83.008
1692141283.751,-2.441,-22.949,-36.621,-3.418,116.211
1692141283.753,-19.043,-14.160,-36.621,-24.902,-55.176
1692141283.757,-27.832,-18.555,-38.574,-15.625,-205.566
1692141283.761,-20.508,-15.625,-35.645,5.859,-98.633
1692141283.765,-16.602,-18.066,-34.180,3.906,-37.598
1692141283.769,-21.973,-33.203,-29.785,-9.277,-68.359
1692141283.773,-28.320,-34.668,-31.250,-28.320,-57.129
1692141283.777,-30.762,-22.949,-31.250,-30.762,113.281
1692141283.780,-27.832,-13.184,-23.926,-18.555,286.133
1692141283.784,-5.859,-11.719,-17.578,-5.371,3.906
1692141283.788,-4.883,-24.902,-24.414,-8.789,-159.180
1692141283.792,-44.434,-46.387,-42.969,-49.316,46.875
1692141283.796,-67.383,-54.688,-52.246,-74.219,28.320
1692141283.799,-54.199,-40.527,-50.781,-57.617,-182.129
1692141283.803,-31.738,-22.949,-41.016,-30.762,-191.406
1692141283.807,-31.250,-18.066,-36.133,-38.086,0.000
1692141283.811,-58.105,-13.672,-54.688,-78.125,-15.625
1692141283.815,-74.219,-10.742,-57.129,-89.355,-193.848
1692141283.819,-57.617,-11.719,-40.039,-62.988,-111.816
1692141283.823,-37.109,-10.742,-31.250,-29.785,235.352
1692141283.826,-32.227,-9.277,-40.039,-32.715,166.504
1692141283.830,-41.992,-6.348,-52.734,-55.664,-188.477
1692141283.834,-65.430,-5.371,-49.805,-76.172,-215.332
1692141283.838,-62.988,-10.742,-52.246,-68.848,-152.832
1692141283.842,-33.203,-10.742,-56.641,-38.086,-117.676
1692141283.888,-17.578,-24.902,-39.062,-23.926,-96.191
1692141283.892,-14.160,-40.527,-24.414,-36.133,-111.328
1692141283.896,-21.973,-37.109,-26.855,-48.828,-93.262
1692141283.900,-18.555,-19.043,-39.551,-32.227,-95.215
1692141283.904,-4.883,-14.648,-52.246,-6.348,-127.441
1692141283.908,1.953,-24.414,-48.340,6.348,23.438
1692141283.912,-9.277,-34.668,-40.527,3.906,395.996
1692141283.915,-17.578,-45.410,-33.203,-11.719,135.742
1692141283.919,-18.555,-38.086,-30.273,-4.395,-234.375
1692141283.923,-12.207,-32.227,-39.551,15.625,-63.477
1692141283.927,3.418,-29.297,-36.621,20.020,62.988
1692141283.931,4.883,-30.273,-26.855,5.371,-71.289
1692141283.892,-9.766,-42.480,-31.250,-10.742,-195.801
1692141283.896,-19.043,-52.246,-45.898,-2.930,-73.242
1692141283.900,-13.672,-46.387,-46.387,16.602,-11.719
1692141283.904,-1.465,-44.922,-38.086,20.020,-126.953
1692141283.908,-6.348,-43.457,-28.320,3.418,-76.660
1692141283.912,-16.602,-36.621,-29.297,-9.277,67.871
1692141283.916,-18.066,-32.227,-40.039,-7.324,58.594
1692141283.919,-7.812,-34.180,-43.945,13.184,-67.871
1692141283.923,7.812,-49.805,-38.086,27.832,-0.977
1692141283.927,6.348,-54.688,-32.715,10.742,120.605
1692141283.931,-4.883,-40.039,-35.156,-14.648,-57.617
1692141283.935,-19.043,-48.828,-46.387,-24.902,-187.500
1692141283.948,-18.066,-61.035,-44.922,-1.465,-70.801
1692141283.952,-6.836,-66.406,-42.480,8.789,52.734
1692141283.956,-8.301,-65.918,-50.293,-9.277,-15.625
1692141283.960,-18.066,-56.152,-44.922,-25.391,-118.652
1692141283.964,-29.785,-56.152,-47.852,-30.273,-104.980
1692141283.968,-30.762,-54.688,-59.082,-11.719,433.594
1692141283.972,-20.996,-46.387,-66.895,-1.953,551.270
1692141283.975,-21.484,-46.875,-64.453,-20.020,11.719
1692141283.979,-26.855,-43.945,-49.805,-34.668,-111.816
1692141283.983,-30.762,-41.992,-43.945,-39.551,-53.223
1692141283.987,-26.855,-46.875,-43.457,-27.832,-134.277
1692141283.991,-17.578,-43.945,-38.574,-4.395,-161.133
1692141283.993,-13.184,-44.434,-34.668,-7.812,-70.801
1692141283.997,-23.438,-45.410,-34.180,-28.809,-97.656
1692141284.001,-28.809,-32.227,-39.062,-29.297,-329.102
1692141284.005,-24.414,-29.297,-45.898,-11.719,-300.293
1692141284.009,-21.484,-52.246,-59.082,-2.930,-88.379
1692141284.013,-9.277,-53.223,-63.965,-3.906,40.527
1692141284.017,-3.418,-43.457,-50.293,-16.113,-76.660
1692141284.020,-11.719,-33.691,-41.504,-29.297,-166.016
1692141284.024,-13.672,-26.367,-38.086,-10.254,109.863
1692141284.028,-3.418,-34.180,-39.062,9.277,122.070
1692141284.032,15.625,-41.992,-42.969,16.113,-110.840
1692141284.036,13.672,-36.133,-45.898,1.465,-147.461
1692141284.038,-26.367,-26.367,-56.641,-43.945,-44.922
1692141284.042,-38.574,-32.715,-62.988,-54.199,-164.551
1692141284.046,-16.602,-46.875,-64.453,-21.973,-255.371
1692141284.050,-9.766,-41.992,-56.641,-19.043,-177.246
1692141284.054,-20.996,-38.086,-47.363,-35.645,-142.578
1692141284.058,-37.109,-51.270,-44.922,-48.828,-92.285
1692141284.062,-32.227,-43.945,-32.715,-30.273,-138.672
1692141284.065,-11.719,-37.598,-27.344,1.465,-66.895
1692141284.069,-8.301,-38.086,-38.574,6.836,211.426
1692141284.073,-16.602,-30.762,-40.039,-9.277,24.902
1692141284.077,-19.043,-32.227,-38.086,-27.832,-142.090
1692141284.081,-19.531,-28.809,-40.527,-21.973,16.602
1692141284.083,-16.602,-36.621,-43.457,-3.906,143.066
1692141284.087,-6.836,-40.527,-46.875,-0.488,-71.777
1692141284.091,-4.395,-38.086,-42.969,-19.043,-226.074
1692141284.095,-8.301,-41.992,-42.969,-37.109,-39.062
1692141284.099,-12.695,-26.855,-46.875,-28.320,-5.859
1692141284.103,-12.695,-19.043,-36.133,-14.160,24.414
1692141284.107,-6.836,-27.344,-27.344,-6.836,101.562
1692141284.110,-6.836,-26.855,-30.273,-11.719,250.977
1692141284.114,-15.625,-22.461,-36.133,-32.227,180.176
1692141284.118,-23.926,-26.367,-34.180,-36.621,-159.668
1692141284.122,-23.926,-35.156,-39.062,-16.602,-128.906
1692141284.126,-17.090,-35.645,-50.781,-3.906,-5.371
1692141284.128,-10.254,-22.461,-43.457,-9.277,-57.617
1692141284.132,-13.672,-25.391,-37.109,-23.926,-141.113
1692141284.136,-20.508,-28.320,-41.992,-27.832,-106.445
1692141284.140,-23.438,-18.555,-38.574,-11.719,-15.625
1692141284.144,-18.555,-15.625,-38.574,3.906,-48.828
1692141284.148,-15.137,-21.484,-45.410,-8.789,-53.711
1692141284.152,-22.461,-30.273,-47.852,-30.273,142.578
1692141284.155,-41.992,-40.527,-51.270,-35.156,447.266
1692141284.159,-36.621,-40.039,-48.828,-20.508,91.797
1692141284.163,-16.602,-35.645,-40.039,-0.977,-163.574
1692141284.167,-12.207,-40.527,-30.762,2.441,105.957
1692141284.171,-14.160,-27.832,-28.320,-12.695,67.383
1692141284.173,-28.809,-20.508,-36.133,-31.250,-194.824
1692141284.177,-23.926,-25.391,-31.738,-19.531,-193.359
1692141284.181,-13.184,-29.297,-35.156,-0.488,-64.941
1692141284.185,-23.438,-29.297,-54.199,-13.184,-83.984
1692141284.189,-26.855,-22.949,-55.664,-33.203,-155.273
1692141284.193,-32.227,-12.207,-48.340,-41.992,-108.398
1692141284.197,-33.203,-7.324,-41.992,-30.762,270.508
1692141284.200,-20.996,-11.719,-39.062,-12.207,314.941
1692141284.204,-20.996,-22.461,-44.434,-17.090,-101.562
1692141284.208,-30.762,-29.297,-40.527,-29.297,-163.086
1692141284.212,-35.645,-29.785,-30.762,-42.969,-14.160
1692141284.216,-33.203,-25.879,-33.203,-44.922,-100.586
1692141284.219,-21.484,-17.578,-34.180,-23.438,-132.324
1692141284.223,-14.648,-15.625,-32.227,-6.836,-71.289
1692141284.227,-27.344,-17.578,-30.273,-27.832,-105.469
1692141284.231,-43.945,-24.414,-29.297,-53.711,-163.574
1692141284.235,-42.969,-24.902,-38.574,-47.852,-169.922
1692141284.239,-22.949,-12.695,-34.180,-20.508,50.781
1692141284.243,-16.602,-19.531,-25.879,-0.977,312.988
1692141284.246,-26.367,-40.527,-34.668,-16.602,87.402
1692141284.250,-41.016,-48.340,-41.504,-39.062,-142.090
1692141284.254,-48.340,-36.621,-34.180,-29.785,8.301
1692141284.258,-40.039,-37.109,-30.273,-10.254,478.027
1692141284.262,-22.949,-45.410,-35.156,-8.789,179.199
1692141284.278,-25.391,-32.715,-31.738,-18.066,-179.688
1692141284.282,-41.504,-21.973,-35.645,-41.504,-39.062
1692141284.286,-45.898,-39.551,-41.016,-49.316,-79.590
1692141284.290,-37.598,-44.922,-42.969,-25.879,-173.828
1692141284.294,-18.066,-36.621,-46.387,-9.766,-142.090
1692141284.298,-11.719,-47.363,-45.898,-14.160,74.707
1692141284.302,-22.949,-47.363,-42.480,-32.227,86.914
1692141284.305,-36.133,-43.457,-44.434,-39.551,-162.598
1692141284.309,-25.879,-36.621,-43.457,-23.926,-172.852
1692141284.313,-6.836,-17.090,-33.203,-0.488,189.941
1692141284.317,-4.395,-16.602,-40.039,-10.254,136.719
1692141284.321,-10.254,-21.484,-45.410,-34.180,-164.062
1692141284.323,-20.020,-26.367,-40.527,-33.691,-129.883
1692141284.327,-27.344,-35.156,-50.293,-26.855,-27.832
1692141284.331,-19.043,-40.527,-52.734,-16.113,-69.824
1692141284.335,-11.719,-42.480,-36.621,-18.066,-140.625
1692141284.339,-29.297,-41.016,-36.621,-44.434,-118.652
1692141284.343,-55.664,-38.574,-57.617,-61.523,0.000
1692141284.347,-49.316,-32.227,-59.082,-49.316,-30.273
1692141284.350,-23.926,-24.414,-49.316,-31.250,-154.785
1692141284.354,-10.742,-19.531,-39.062,-20.508,-22.949
1692141284.358,-12.695,-18.066,-35.645,-30.762,299.805
1692141284.362,-19.531,-24.902,-34.668,-37.109,71.289
1692141284.366,-14.160,-24.414,-28.320,-8.301,-226.074
1692141284.368,0.000,-29.297,-38.574,14.160,-22.461
1692141284.372,1.953,-28.809,-40.039,5.371,110.840
1692141284.376,-8.301,-15.137,-30.273,-6.348,-160.156
1692141284.380,-28.320,-16.602,-33.203,-18.555,-232.422
1692141284.384,-38.086,-18.555,-33.203,-13.184,-42.969
1692141284.388,-28.320,-22.949,-31.250,11.719,12.695
1692141284.392,-23.438,-37.598,-35.645,10.254,-1.953
1692141284.395,-30.273,-40.039,-41.016,-13.184,-53.223
1692141284.399,-46.875,-42.969,-52.246,-35.156,156.250
1692141284.403,-53.711,-40.039,-50.293,-34.668,193.359
1692141284.407,-32.227,-41.504,-42.480,-13.184,-148.438
1692141284.411,-7.324,-38.086,-40.039,-1.953,-123.535
1692141284.413,-8.301,-23.926,-39.062,-15.137,-101.562
1692141284.417,-28.320,-33.691,-41.992,-41.504,-187.012
1692141284.421,-28.809,-36.133,-38.574,-39.551,-182.129
1692141284.425,-18.066,-30.273,-39.551,-19.043,-57.129
1692141284.429,-15.625,-40.039,-45.410,-15.137,85.938
1692141284.433,-22.461,-45.410,-48.340,-33.691,13.184
1692141284.437,-45.898,-44.922,-47.852,-53.711,-99.609
1692141284.440,-57.617,-40.527,-47.852,-55.176,-6.348
1692141284.444,-46.875,-43.945,-47.363,-38.574,246.094
1692141284.448,-26.367,-32.715,-40.527,-27.344,13.184
1692141284.452,-20.020,-24.414,-35.645,-38.086,-127.930
1692141284.456,-36.621,-35.645,-33.203,-52.734,-41.016
1692141284.458,-45.410,-29.297,-32.227,-44.434,-74.707
1692141284.462,-37.598,-27.832,-41.016,-25.879,-204.102
1692141284.466,-21.973,-40.527,-47.363,-14.648,-159.180
1692141284.470,-19.531,-48.828,-43.457,-26.367,-53.223
1692141284.474,-32.715,-52.246,-50.781,-45.898,-102.539
1692141284.478,-39.551,-42.969,-49.805,-43.457,-107.910
1692141284.482,-35.156,-32.227,-38.086,-21.973,-23.438
1692141284.485,-18.066,-35.645,-36.133,-3.906,252.930
1692141284.489,-15.625,-35.156,-36.621,-9.766,373.047
1692141284.493,-32.227,-25.879,-29.785,-30.762,-20.996
1692141284.497,-34.180,-30.762,-23.926,-35.645,-172.363
1692141284.501,-32.227,-36.133,-33.691,-21.973,-95.215
1692141284.503,-25.391,-38.086,-43.945,-7.324,-130.371
1692141284.507,-16.602,-32.715,-36.621,-8.301,-187.500
1692141284.511,-26.855,-26.367,-33.691,-35.156,-166.016
1692141284.515,-37.109,-21.973,-35.645,-47.363,-122.070
1692141284.519,-26.367,-20.996,-37.598,-27.344,-92.773
1692141284.523,-8.789,-23.438,-45.898,-14.648,-2.930
1692141284.527,-9.766,-22.949,-43.457,-22.949,101.074
1692141284.530,-20.508,-26.367,-33.203,-36.133,317.871
1692141284.534,-34.180,-21.973,-28.320,-42.969,59.570
1692141284.538,-43.945,-13.672,-34.668,-32.715,-197.754
1692141284.542,-36.621,-23.438,-41.504,-19.043,90.820
1692141284.546,-34.668,-35.645,-38.574,-17.578,281.738
1692141284.563,-41.992,-27.344,-40.527,-37.598,-83.008
1692141284.567,-42.480,-20.508,-44.434,-62.500,-225.586
1692141284.571,-40.039,-21.973,-46.387,-54.199,-129.883
1692141284.575,-27.344,-22.461,-42.480,-24.414,-127.930
1692141284.579,-17.578,-32.715,-35.156,-18.066,-123.047
1692141284.583,-23.438,-31.738,-30.273,-33.691,-38.086
1692141284.587,-32.715,-26.367,-27.344,-38.574,241.699
1692141284.590,-36.133,-24.414,-29.785,-39.551,146.484
1692141284.594,-27.832,-29.785,-32.715,-30.273,-152.344
1692141284.598,-11.719,-41.504,-30.273,-16.113,-143.066
1692141284.602,-12.695,-40.039,-35.645,-23.926,-65.430
1692141284.606,-28.809,-38.574,-38.086,-32.715,-77.148
1692141284.593,-35.645,-37.109,-40.039,-21.973,-257.812
1692141284.597,-20.508,-25.391,-34.668,-0.977,-158.691
1692141284.601,-11.230,-25.879,-34.180,1.953,109.375
1692141284.605,-9.277,-25.879,-41.504,-9.766,-68.848
1692141284.609,-19.043,-26.855,-47.852,-30.273,-217.773
1692141284.613,-33.691,-34.668,-44.922,-41.016,-10.254
1692141284.617,-26.367,-34.668,-47.852,-28.320,147.949
1692141284.620,-0.977,-32.227,-48.340,-3.418,3.906
1692141284.624,0.488,-30.273,-36.133,-5.371,-128.906
1692141284.628,-22.461,-39.062,-36.133,-26.367,70.312
1692141284.632,-38.574,-45.898,-45.898,-29.785,395.996
1692141284.636,-31.250,-32.227,-47.363,-15.625,81.543
1692141284.639,-7.812,-22.461,-39.062,4.883,-166.504
1692141284.643,-1.465,-26.855,-25.879,8.301,170.410
1692141284.647,-17.090,-30.762,-28.809,-15.625,340.820
1692141284.651,-30.273,-26.855,-41.504,-37.598,-76.660
1692141284.655,-22.461,-26.367,-37.109,-18.555,-222.168
1692141284.659,-5.371,-28.809,-26.367,10.742,-10.254
1692141284.663,2.930,-28.809,-25.391,5.371,-32.227
1692141284.666,-7.324,-19.043,-35.156,-22.949,-160.156
1692141284.670,-15.625,-9.277,-41.992,-35.156,-192.871
1692141284.674,-10.254,-12.207,-27.832,-10.254,58.594
1692141284.678,-3.418,-21.484,-18.066,9.766,65.430
1692141284.682,7.324,-15.137,-15.137,-8.301,-143.555
1692141284.698,-11.230,-23.438,-27.344,-42.480,-168.457
1692141284.702,-43.945,-37.109,-42.969,-60.547,-127.930
1692141284.706,-41.992,-38.574,-38.086,-46.387,-132.812
1692141284.710,-21.973,-29.297,-32.227,-19.531,-165.527
1692141284.714,-15.625,-17.578,-34.180,-16.113,-1.465
1692141284.718,-20.996,-17.578,-33.691,-36.133,267.578
1692141284.722,-37.598,-32.227,-38.086,-58.594,109.863
1692141284.725,-40.527,-28.809,-36.133,-48.828,-160.645
1692141284.729,-21.484,-17.090,-26.855,-18.555,-45.410
1692141284.733,-10.254,-21.973,-32.227,-5.371,249.512
1692141284.737,-19.043,-27.344,-36.621,-23.438,124.512
1692141284.741,-34.668,-19.043,-36.621,-35.645,-144.043
1692141284.743,-41.016,-14.160,-40.527,-23.926,-112.793
1692141284.747,-31.250,-18.555,-38.574,-5.371,-31.738
1692141284.751,-9.766,-14.160,-31.250,4.883,-144.043
1692141284.755,-4.883,-7.324,-26.367,-1.465,-172.852
1692141284.759,-20.508,-7.324,-29.785,-18.066,-86.426
1692141284.763,-22.949,-14.160,-37.598,-22.461,-41.992
1692141284.767,-11.230,-26.367,-44.922,-11.719,-26.367
1692141284.770,-6.836,-33.203,-52.246,-4.883,0.488
1692141284.774,-13.672,-36.133,-50.293,-13.672,186.523
1692141284.778,-23.926,-35.156,-38.086,-29.297,219.727
1692141284.782,-31.738,-35.156,-37.598,-37.109,-198.242
1692141284.786,-19.043,-28.809,-35.156,-15.625,-286.621
1692141284.788,0.977,-21.973,-21.484,-1.465,-166.016
1692141284.792,-1.465,-25.391,-19.043,-8.789,-190.918
1692141284.796,-16.113,-27.832,-34.180,-31.738,-252.930
1692141284.800,-26.855,-25.879,-39.551,-36.621,-225.586
1692141284.804,-17.090,-32.227,-29.297,-8.789,-150.391
1692141284.808,1.465,-41.504,-24.902,9.277,-85.938
1692141284.812,4.883,-36.621,-25.391,-2.441,-7.812
1692141284.815,-5.859,-29.785,-24.902,-23.926,34.180
1692141284.819,-19.043,-19.043,-20.996,-17.578,255.371
1692141284.823,-10.254,-7.324,-14.648,3.906,101.074
1692141284.827,7.812,-11.230,-27.832,17.090,-76.660
1692141284.831,-3.906,-17.090,-47.852,9.766,13.184
1692141284.834,-22.461,-25.391,-40.039,-14.160,133.789
1692141284.838,-31.250,-27.832,-23.926,-32.227,-119.141
1692141284.842,-32.227,-26.367,-22.461,-17.578,-227.539
1692141284.846,-13.184,-28.809,-28.320,1.953,-94.727
1692141284.850,-6.836,-33.691,-25.879,3.418,-75.195
1692141284.854,-23.926,-25.391,-21.484,-13.672,-145.020
1692141284.858,-35.156,-16.113,-24.414,-32.715,-139.160
1692141284.861,-32.227,-26.367,-25.879,-17.090,197.754
1692141284.865,-17.578,-26.367,-30.762,-5.371,186.035
1692141284.869,6.348,-21.484,-40.527,5.371,-142.090
1692141284.873,15.625,-20.508,-31.250,5.859,-104.492
1692141284.877,-37.598,-26.855,-19.531,-44.434,38.086
1692141284.878,-58.105,-32.227,-37.598,-56.641,-79.590
1692141284.882,-28.320,-25.879,-45.898,-23.926,-133.789
1692141284.886,-33.203,-20.020,-31.738,-25.879,-22.949
1692141284.890,-57.617,-30.762,-32.227,-58.105,-2.930
1692141284.894,-76.172,-39.551,-33.691,-68.359,-93.750
1692141284.898,-73.730,-35.156,-38.086,-58.105,-63.965
1692141284.902,-58.594,-27.344,-38.086,-36.621,90.332
1692141284.905,-49.805,-29.785,-22.949,-15.625,379.883
1692141284.909,-57.617,-33.691,-28.320,-37.598,157.715
1692141284.913,-67.871,-32.227,-37.109,-65.918,-236.328
1692141284.917,-51.270,-25.879,-29.785,-46.875,-49.805
1692141284.921,-37.598,-14.160,-36.133,-18.555,105.957
1692141284.939,-16.113,-8.789,-41.992,-4.883,-111.816
1692141284.943,-12.695,-15.625,-39.551,-11.230,-154.785
1692141284.947,-25.879,-36.621,-34.180,-22.949,-8.789
1692141284.951,-22.949,-34.668,-22.461,-18.555,-84.961
1692141284.955,-8.789,-26.367,-24.902,-10.742,-233.398
1692141284.959,3.906,-37.109,-28.809,7.324,-107.422
1692141284.963,6.348,-43.457,-30.762,10.742,304.199
1692141284.966,-5.859,-44.922,-38.574,-8.301,209.473
1692141284.970,-14.160,-30.762,-35.156,-7.812,-177.246
1692141284.974,0.977,-25.391,-27.344,14.160,-117.188
1692141284.978,19.043,-33.203,-30.273,23.926,-30.273
1692141284.982,13.672,-26.855,-36.133,10.254,-68.848
1692141284.968,3.418,-7.812,-29.785,-4.883,-134.766
1692141284.972,-3.418,-5.371,-24.902,-6.348,-143.066
1692141284.976,-0.488,-14.648,-29.297,-0.977,-91.309
1692141284.980,7.812,-13.184,-27.832,14.648,-61.523
1692141284.984,2.930,-6.836,-26.855,5.371,-0.488
1692141284.988,-8.789,-10.742,-31.738,-19.043,66.406
1692141284.992,-17.578,-17.090,-25.391,-18.555,122.559
1692141284.995,-20.508,-21.973,-30.273,-7.324,-23.926
1692141284.999,-14.160,-27.344,-37.109,6.348,-155.273
1692141285.003,-0.977,-27.344,-27.344,15.625,-43.457
1692141285.007,-3.418,-20.996,-24.902,1.465,402.832
1692141285.011,-15.137,-10.254,-28.320,-18.555,285.645
1692141285.028,-10.742,-12.207,-32.715,-13.184,-175.293
1692141285.032,4.395,-4.883,-31.738,4.883,-137.207
1692141285.036,12.207,-1.953,-34.180,18.555,-89.355
1692141285.040,-3.906,-13.184,-32.715,1.953,-195.312
1692141285.044,-19.043,-21.484,-28.809,-17.090,-226.074
1692141285.048,-10.742,-23.438,-31.250,0.977,-15.137
1692141285.052,-4.883,-20.996,-31.738,21.973,78.613
1692141285.055,7.812,-18.066,-30.273,24.902,-13.184
1692141285.059,24.902,-19.043,-23.438,23.926,-117.676
1692141285.063,6.348,-16.113,-19.043,4.883,107.422
1692141285.067,-29.785,-6.348,-35.156,-23.926,173.340
1692141285.071,-22.949,-16.113,-46.387,-12.207,-89.844
1692141285.073,-23.926,-15.625,-37.109,-1.953,-108.398
1692141285.077,-38.574,-7.812,-36.133,-31.250,-99.121
1692141285.081,-41.016,-14.648,-46.387,-50.781,-185.547
1692141285.085,-42.480,-8.301,-45.410,-42.969,-222.656
1692141285.089,-29.297,4.395,-41.504,-16.113,-177.246
1692141285.093,-1.465,-7.324,-36.133,0.000,41.016
1692141285.097,0.977,-16.113,-27.832,-12.207,122.070
1692141285.100,-11.230,-5.371,-37.598,-33.203,-105.469
1692141285.104,-20.020,-13.672,-47.363,-35.156,-47.363
1692141285.108,-17.578,-21.484,-42.480,-9.277,439.453
1692141285.112,-1.465,-10.254,-37.598,8.301,240.723
1692141285.116,-7.324,-9.766,-35.645,-4.395,-199.219
1692141285.118,-24.414,-20.996,-35.645,-20.508,-125.488
1692141285.122,-31.250,-21.484,-39.062,-17.578,-99.121
1692141285.126,-16.113,-17.578,-29.785,4.883,-201.660
1692141285.130,-4.395,-31.250,-40.039,16.602,-170.410
1692141285.134,-4.883,-39.062,-45.898,4.395,-93.262
1692141285.138,-19.043,-39.551,-36.133,-20.020,-10.742
1692141285.142,-23.438,-36.621,-32.715,-19.043,-66.406
1692141285.145,-11.230,-20.508,-32.227,10.742,-162.109
1692141285.149,1.953,-18.066,-37.598,27.832,130.371
1692141285.153,13.184,-20.020,-34.668,17.578,145.020
1692141285.157,4.883,-17.090,-26.367,-4.883,-210.938
1692141285.161,-2.930,-22.461,-28.320,-13.184,-184.082
1692141285.163,-5.859,-31.250,-36.133,-4.395,-10.742
1692141285.167,0.000,-34.180,-41.016,14.160,-95.703
1692141285.171,7.324,-34.180,-43.457,8.301,-134.277
1692141285.175,-5.859,-32.227,-46.387,-17.090,-141.113
1692141285.179,-23.926,-26.855,-45.898,-18.555,-145.996
1692141285.183,-28.809,-22.949,-41.504,-5.371,-49.316
1692141285.187,-14.648,-22.461,-40.527,7.324,-15.625
1692141285.190,0.977,-26.367,-36.133,10.254,90.332
1692141285.194,-6.836,-31.250,-38.086,-15.625,289.062
1692141285.198,-30.273,-37.598,-43.945,-39.551,22.949
1692141285.202,-30.273,-35.156,-35.156,-27.344,-133.789
1692141285.206,-8.301,-26.367,-32.715,-5.859,-18.555
1692141285.209,-3.418,-17.090,-42.969,-2.930,-29.297
1692141285.213,-11.719,-8.789,-36.621,-24.414,-112.305
1692141285.217,-21.484,-19.043,-27.832,-35.156,-137.695
1692141285.221,-33.203,-39.551,-29.297,-14.160,49.316
1692141285.225,-28.320,-27.344,-31.738,12.695,193.359
1692141285.229,-12.207,-30.273,-29.785,17.578,42.480
1692141285.233,-19.531,-42.969,-30.762,-0.977,-57.129
1692141285.236,-30.762,-30.273,-34.180,-15.137,87.891
1692141285.240,-21.484,-19.531,-32.715,-5.859,92.285
1692141285.244,-7.324,-11.230,-23.438,14.648,-170.898
1692141285.248,5.859,-14.160,-18.066,25.879,-141.602
1692141285.252,6.836,-16.602,-29.785,10.254,-40.039
1692141285.253,-5.371,-17.578,-41.016,-13.184,-130.859
1692141285.257,-5.859,-11.719,-41.016,-11.719,-206.055
1692141285.261,0.488,-7.812,-43.945,10.742,-143.066
1692141285.265,6.836,-29.297,-48.340,19.043,-62.012
1692141285.269,8.301,-20.020,-39.551,12.695,-44.434
1692141285.273,-3.418,0.000,-27.832,-5.371,-52.246
1692141285.277,-13.672,-11.719,-28.320,-13.184,16.602
1692141285.280,2.930,-18.555,-31.250,15.625,356.934
1692141285.284,16.113,-7.812,-31.250,27.832,183.105
1692141285.288,2.930,-7.812,-37.598,0.977,-191.406
1692141285.292,-5.371,-10.254,-35.156,-12.695,-78.125
1692141285.296,-8.789,-14.160,-37.109,-15.137,13.184
1692141285.298,0.488,-20.020,-43.945,-8.789,-131.348
1692141285.302,3.418,-23.926,-34.180,2.441,-145.996
1692141285.306,3.418,-14.160,-26.855,3.906,-28.809
1692141285.310,-7.812,-17.090,-27.344,-19.531,-74.707
1692141285.314,-22.461,-21.973,-20.020,-31.250,-158.203
1692141285.318,-21.484,-27.344,-26.367,-16.113,-70.801
1692141285.322,-15.625,-32.715,-42.969,-1.465,306.641
1692141285.325,-8.301,-8.789,-40.527,-2.930,346.680
1692141285.329,-13.672,4.395,-33.691,-26.367,-112.793
1692141285.333,-24.414,-9.766,-37.109,-36.621,-191.895
1692141285.337,-23.926,-22.949,-40.039,-14.648,16.602
1692141285.341,-14.648,-17.090,-42.969,11.230,-94.238
1692141285.343,-9.277,-14.160,-44.922,3.418,-191.895
1692141285.347,-9.766,-14.160,-33.691,-22.949,-149.414
1692141285.351,-20.996,-9.277,-27.832,-25.391,-141.602
1692141285.355,-19.531,-9.277,-27.344,-5.859,-133.301
1692141285.359,-2.441,-12.695,-25.391,12.695,-142.090
1692141285.363,5.371,-27.832,-27.344,13.672,22.949
1692141285.367,0.977,-29.785,-23.926,8.301,245.117
1692141285.370,-3.906,-17.578,-27.344,-1.465,-5.859
1692141285.374,3.906,-13.672,-36.133,8.301,-229.492
1692141285.378,23.438,-7.812,-32.715,31.738,-7.812
1692141285.382,39.062,-4.883,-41.016,35.645,246.582
1692141285.386,48.340,3.418,-42.969,26.855,29.785
1692141285.403,20.508,-0.977,-25.391,3.906,-200.195
1692141285.407,-17.090,-22.949,-22.949,-12.695,-60.547
1692141285.411,-2.930,-29.785,-24.902,10.254,45.898
1692141285.415,16.113,-27.832,-32.227,19.531,-117.676
1692141285.419,8.301,-22.949,-37.109,1.953,-153.809
1692141285.423,-0.488,-22.949,-32.715,-10.742,15.625
1692141285.427,-8.789,-24.414,-31.738,-8.789,64.941
1692141285.430,8.301,-13.184,-30.762,11.230,-97.168
1692141285.434,31.738,-9.277,-26.855,22.949,-121.582
1692141285.438,3.906,-22.461,-30.762,0.000,157.227
1692141285.442,-28.320,-23.926,-42.969,-29.297,16.602
1692141285.446,-17.578,-17.578,-34.668,-36.133,-269.043
1692141285.436,-5.371,-15.137,-21.973,-12.207,-100.098
1692141285.440,-8.301,-25.879,-30.762,2.441,70.801
1692141285.444,-5.859,-37.598,-40.039,-19.531,-93.262
1692141285.448,-17.090,-35.156,-36.133,-37.598,-185.059
1692141285.452,-27.832,-24.414,-36.133,-27.832,-141.602
1692141285.456,-14.648,-14.160,-39.551,-3.906,-0.977
1692141285.460,0.977,-10.742,-33.203,11.719,59.082
1692141285.463,-4.883,-19.531,-36.621,-8.789,-110.840
1692141285.467,-12.695,-30.273,-40.527,-36.133,-69.336
1692141285.471,-11.719,-22.949,-28.320,-26.367,211.426
1692141285.475,-18.066,-7.324,-29.785,-7.324,40.527
1692141285.479,-14.648,-17.578,-40.039,11.230,-108.887
1692141285.494,-5.859,-33.203,-39.062,18.555,9.766
1692141285.498,-17.578,-34.668,-34.668,-2.441,-8.789
1692141285.502,-22.461,-29.785,-29.297,-7.324,-77.637
1692141285.506,-4.395,-22.949,-26.855,15.137,-103.027
1692141285.510,10.742,-17.578,-28.809,37.109,131.836
1692141285.514,16.602,-8.301,-26.367,33.691,369.629
1692141285.518,14.648,-8.789,-26.367,9.277,-29.785
1692141285.521,4.395,-5.371,-26.367,9.766,-192.383
1692141285.525,7.812,-3.418,-18.555,36.133,24.414
1692141285.529,12.695,-17.578,-20.996,41.016,-37.109
1692141285.533,11.230,-22.461,-32.227,32.227,-199.219
1692141285.537,12.207,-11.230,-34.180,20.996,-111.328
1692141285.538,0.977,-15.625,-28.809,0.488,26.367
1692141285.542,1.465,-20.020,-34.668,9.277,-101.562
1692141285.546,22.461,-15.625,-31.738,34.180,-150.391
1692141285.550,26.855,-13.672,-24.902,30.273,-125.488
1692141285.554,14.160,-13.672,-31.738,8.301,-104.004
1692141285.558,3.906,-20.020,-33.203,-5.859,-23.926
1692141285.562,2.441,-18.555,-26.367,-3.418,-27.832
1692141285.565,12.207,-5.371,-20.996,21.484,72.754
1692141285.569,10.254,-7.812,-23.438,27.344,361.328
1692141285.573,2.441,-6.348,-27.344,9.277,221.680
1692141285.577,-3.906,-4.395,-30.273,-9.766,-88.867
1692141285.581,-15.137,-18.555,-35.156,-8.789,-78.125
1692141285.583,-6.348,-22.949,-38.574,9.766,17.090
1692141285.587,6.348,-9.766,-36.621,15.625,-126.953
1692141285.591,-0.488,-10.254,-28.809,-0.977,-186.523
1692141285.595,-17.090,-18.555,-26.367,-25.391,-115.234
1692141285.599,-20.508,-15.625,-28.809,-18.066,-104.492
1692141285.603,-19.043,-13.672,-39.551,0.977,-59.082
1692141285.607,-23.438,-25.879,-51.270,-4.395,-13.184
1692141285.610,-19.531,-27.832,-48.340,-12.207,297.852
1692141285.614,-20.996,-20.508,-42.480,-20.020,383.301
1692141285.618,-23.926,-25.391,-37.109,-19.531,-113.770
1692141285.622,-16.602,-32.715,-25.391,5.371,-187.500
1692141285.626,0.977,-27.344,-22.949,27.344,-0.488
1692141285.629,10.254,-29.297,-36.621,13.672,-130.371
1692141285.633,-8.789,-39.062,-52.246,-11.719,-253.906
1692141285.637,-24.902,-29.785,-46.875,-10.254,-210.449
1692141285.641,-15.137,-16.602,-37.598,11.719,-122.070
1692141285.645,7.812,-21.484,-37.109,26.367,-69.336
1692141285.649,14.648,-9.277,-36.133,20.508,-102.539
1692141285.653,1.465,1.953,-28.320,-3.418,11.719
1692141285.656,-8.301,-0.977,-20.996,-5.859,294.922
1692141285.660,-0.488,-5.371,-21.484,14.160,32.227
1692141285.664,9.766,-11.719,-25.879,25.879,-180.664
1692141285.668,22.461,-12.695,-23.926,20.020,90.820
1692141285.672,17.090,-7.324,-32.227,-2.441,205.078
1692141285.673,0.488,-8.789,-41.504,-16.602,-136.719
1692141285.677,1.953,-15.137,-37.109,0.977,-253.418
1692141285.681,14.160,-20.996,-25.879,25.391,-1.953
1692141285.685,22.461,-26.855,-20.020,17.090,28.320
1692141285.689,9.277,-19.043,-30.273,-7.812,-154.785
1692141285.693,-8.301,-18.066,-41.992,-20.996,-47.852
1692141285.697,-7.324,-30.273,-36.133,-5.859,221.191
1692141285.700,-7.324,-25.391,-31.738,5.859,95.215
1692141285.704,-9.766,-20.020,-38.574,-0.488,-174.805
1692141285.708,-14.648,-24.902,-36.621,-18.555,-181.152
1692141285.712,-24.414,-15.625,-32.227,-35.645,29.297
1692141285.716,-29.785,-9.277,-27.832,-20.996,-12.695
1692141285.719,-21.484,-34.668,-36.621,-2.441,-132.812
1692141285.723,-8.789,-48.340,-46.875,-0.977,-71.289
1692141285.727,-10.254,-36.133,-42.480,-10.742,-13.184
1692141285.731,-15.625,-23.926,-43.945,-23.438,-158.691
1692141285.735,-12.207,-24.414,-39.551,-13.672,-219.238
1692141285.739,-7.324,-43.945,-31.250,10.742,11.230
1692141285.743,-6.348,-43.945,-34.668,12.207,227.539
1692141285.746,0.977,-29.785,-37.109,2.441,55.176
1692141285.750,-11.230,-33.203,-38.574,-20.020,-215.820
1692141285.754,-30.762,-52.246,-36.133,-21.973,-60.547
1692141285.758,-20.020,-49.805,-34.180,10.742,318.359
1692141285.762,4.883,-25.879,-30.762,22.461,50.293
1692141285.778,5.859,-18.066,-22.949,1.465,-150.879
1692141285.782,-9.766,-18.066,-20.020,-8.789,-98.145
1692141285.786,-20.020,-20.508,-44.434,-5.859,-79.590
1692141285.790,-14.648,-34.180,-58.594,2.930,-47.852
1692141285.794,-0.488,-25.879,-37.598,13.184,-105.469
1692141285.798,-3.906,-15.137,-28.320,8.301,196.777
1692141285.802,-21.973,-15.625,-30.762,-15.625,331.055
1692141285.805,-14.160,-8.789,-28.809,-16.602,-88.379
1692141285.809,1.953,-7.324,-26.367,5.859,-200.195
1692141285.813,5.371,-12.207,-27.832,15.625,1.465
1692141285.817,6.836,-20.020,-28.320,2.441,-93.750
1692141285.821,-2.930,-25.879,-27.344,-16.602,-254.395
1692141285.823,-13.184,-19.531,-29.785,-18.066,-234.375
1692141285.827,0.488,-11.719,-31.250,0.488,-75.684
1692141285.831,22.461,-18.555,-34.180,23.926,-58.594
1692141285.835,26.367,-14.160,-32.715,16.113,-107.910
1692141285.839,9.277,-6.836,-25.391,-10.254,-93.262
1692141285.843,-5.371,-28.320,-22.949,-21.973,-59.570
1692141285.847,-3.418,-36.621,-25.879,-8.789,17.578
1692141285.850,6.836,-24.414,-27.832,10.254,26.367
1692141285.854,12.695,-22.461,-22.949,11.719,-43.457
1692141285.858,-1.465,-23.926,-22.949,-1.465,315.430
1692141285.862,-14.160,-17.578,-31.250,-8.789,219.727
1692141285.866,-11.230,-7.324,-26.855,11.230,-200.195
1692141285.868,0.488,-6.836,-27.832,30.273,-73.730
1692141285.872,17.578,-9.766,-33.691,31.250,-29.785
1692141285.876,9.277,-18.555,-35.156,12.695,-175.293
1692141285.880,-11.719,-34.180,-33.203,-5.371,-169.434
1692141285.884,-7.324,-25.391,-25.879,8.301,-81.055
1692141285.888,7.812,-7.812,-20.020,31.738,36.621
1692141285.892,19.531,-11.719,-22.461,28.320,133.301
1692141285.895,17.578,-12.695,-25.879,10.254,28.809
1692141285.899,-14.160,-15.137,-38.086,-6.836,173.340
1692141285.903,-25.391,-26.367,-41.992,-0.488,249.023
1692141285.907,-12.207,-41.016,-39.551,11.230,-108.398
1692141285.911,-4.883,-37.598,-40.039,2.441,-120.605
1692141285.913,-7.324,-18.066,-36.621,-14.648,-118.652
1692141285.917,-14.160,-10.254,-41.016,-27.832,-217.285
1692141285.921,-19.531,-19.531,-45.410,-30.762,-214.844
1692141285.925,-5.859,-14.160,-40.527,-9.766,-145.020
1692141285.929,11.230,-4.883,-37.109,8.789,-3.418
1692141285.933,-6.348,-24.902,-43.457,-3.906,5.859
1692141285.937,-32.715,-26.855,-44.922,-24.902,-68.359
1692141285.940,-42.969,-17.578,-41.016,-22.949,-0.488
1692141285.944,-32.715,-14.648,-36.133,1.953,231.934
1692141285.948,-13.672,-9.766,-40.039,10.254,91.309
1692141285.952,-12.207,-4.395,-41.016,-12.207,-126.465
1692141285.956,-22.461,-0.977,-29.785,-29.785,-26.855
1692141285.958,-27.344,-12.695,-32.227,-25.391,140.137
1692141285.962,-19.531,-15.137,-40.039,-10.742,-120.605
1692141285.966,-6.348,-7.812,-35.156,5.859,-191.895
1692141285.970,-1.953,-5.859,-38.086,-0.488,-93.750
1692141285.974,-13.672,-8.301,-44.922,-23.438,-168.457
1692141285.978,-20.996,-12.207,-41.504,-31.250,-104.980
1692141285.982,-7.324,-9.277,-32.715,-14.160,-30.762
1692141285.985,10.254,-4.395,-28.320,15.137,176.270
1692141285.989,6.348,-10.254,-32.715,12.695,125.977
1692141285.993,-9.766,-27.344,-44.922,-17.578,-185.547
1692141285.997,-11.719,-24.902,-39.062,-17.090,-231.445
1692141286.001,-2.930,-15.625,-31.250,10.254,-183.105
1692141286.004,10.742,-28.809,-31.250,21.973,-70.801
1692141286.008,13.672,-39.551,-30.273,15.625,-63.965
1692141286.012,0.977,-37.109,-30.762,-3.418,-91.309
1692141286.016,-20.508,-31.250,-37.598,-17.578,14.648
1692141286.020,-23.926,-27.832,-44.922,-8.301,-36.133
1692141286.024,-11.230,-36.133,-40.039,6.836,-28.809
1692141286.028,-9.277,-37.598,-33.691,9.277,121.582
1692141286.031,-17.090,-30.273,-39.551,-10.742,321.289
1692141286.035,-24.902,-29.785,-41.504,-31.250,43.945
1692141286.039,-18.066,-36.621,-30.762,-18.555,-170.898
1692141286.043,-7.324,-36.133,-31.738,4.883,106.934
1692141286.047,-3.418,-30.273,-41.992,17.090,197.266
1692141286.048,-7.812,-20.020,-42.969,8.789,-90.820
1692141286.052,-16.602,-20.508,-36.133,-12.695,-220.703
1692141286.056,-13.184,-34.668,-29.297,-5.859,-139.160
1692141286.060,5.859,-27.344,-30.273,10.254,-10.742
1692141286.064,12.695,-20.996,-26.367,15.625,-31.250
1692141286.068,0.977,-31.738,-27.832,-5.859,-81.055
1692141286.072,-11.719,-39.062,-37.109,-33.691,135.742
1692141286.075,-14.648,-29.785,-41.992,-24.902,272.461
1692141286.079,0.000,-16.113,-46.387,-1.465,-94.238
1692141286.083,9.766,-18.066,-41.992,2.441,-187.012
1692141286.087,2.441,-22.949,-29.297,-13.184,-82.520
1692141286.091,-13.184,-32.227,-19.043,-27.832,-198.242
1692141286.093,-14.160,-34.668,-22.949,-20.996,-233.887
1692141286.097,0.000,-25.391,-28.809,1.953,-140.137
1692141286.101,-2.930,-22.461,-28.320,6.348,-27.832
1692141286.105,-0.977,-23.926,-33.203,-7.812,-65.430
1692141286.109,-5.859,-19.043,-37.598,-23.926,-166.504
1692141286.113,-22.949,-24.902,-39.062,-27.344,0.000
1692141286.117,-13.672,-35.156,-36.621,-10.742,153.320
1692141286.120,8.301,-29.297,-32.227,12.207,76.660
1692141286.124,2.441,-24.414,-31.250,-0.488,-57.617
1692141286.128,-21.973,-34.180,-44.922,-26.367,9.277
1692141286.132,-28.320,-28.320,-45.410,-23.438,427.734
1692141286.136,-27.832,-21.973,-41.992,-11.230,137.695
1692141286.168,-16.113,-22.461,-47.363,4.883,-224.121
1692141286.172,-5.371,-22.461,-41.016,1.465,-26.367
1692141286.176,-22.461,-35.645,-32.715,-24.902,3.906
1692141286.180,-35.156,-32.227,-34.668,-36.621,-240.723
1692141286.184,-23.926,-8.789,-33.691,-16.602,-214.355
1692141286.188,-5.371,-26.367,-32.715,13.672,75.684
1692141286.192,0.488,-38.086,-43.457,2.441,83.984
1692141286.195,-3.418,-33.691,-37.598,-33.203,-145.508
1692141286.199,-12.695,-22.461,-26.367,-37.109,-170.410
1692141286.203,-14.160,-20.996,-33.203,-18.066,129.395
1692141286.207,-9.766,-32.715,-41.992,-4.395,159.180
1692141286.211,-9.766,-27.832,-40.527,-4.883,-154.297
1692141286.186,-17.090,-26.855,-28.320,-18.555,-188.477
1692141286.190,-32.227,-21.973,-20.020,-28.809,-125.000
1692141286.194,-34.180,-27.832,-33.691,-21.973,-185.547
1692141286.198,-21.484,-39.062,-45.410,-11.719,-185.547
1692141286.202,-12.695,-33.203,-36.133,-0.977,-78.125
1692141286.206,-12.695,-26.855,-27.344,-7.812,55.664
1692141286.210,-28.809,-32.715,-34.180,-24.414,13.184
1692141286.213,-33.691,-31.738,-45.410,-20.020,-122.070
1692141286.217,-18.066,-32.715,-39.551,6.836,-43.945
1692141286.221,-3.906,-21.484,-26.855,21.484,54.688
1692141286.225,-5.859,-26.367,-29.297,-0.977,-24.902
1692141286.229,-19.531,-38.574,-43.457,-23.438,-89.844
1692141286.243,-25.879,-31.738,-43.945,-14.160,9.766
1692141286.247,-16.113,-30.273,-33.691,16.602,321.777
1692141286.251,-1.953,-26.367,-40.039,19.043,78.613
1692141286.255,-11.719,-21.973,-42.969,-2.930,-262.207
1692141286.259,-20.996,-20.508,-25.879,-9.277,-15.137
1692141286.263,-19.531,-19.531,-29.785,-9.766,302.246
1692141286.267,-8.789,-18.555,-43.945,4.883,50.781
1692141286.270,2.441,-24.414,-39.551,15.137,-165.527
1692141286.274,-16.113,-32.227,-42.480,-11.230,62.012
1692141286.278,-29.785,-26.367,-48.340,-32.227,19.531
1692141286.282,-28.809,-29.785,-45.898,-33.691,-232.910
1692141286.286,-20.996,-27.344,-33.203,-8.789,-155.273
1692141286.289,-0.977,-11.230,-19.531,6.836,-47.852
1692141286.293,-8.301,-21.484,-28.809,-12.695,-74.707
1692141286.297,-27.832,-29.297,-46.875,-39.551,-184.082
1692141286.301,-29.785,-20.508,-47.363,-40.039,-149.414
1692141286.305,-20.020,-21.484,-42.969,-15.137,5.859
1692141286.309,-9.277,-24.902,-41.992,-3.906,5.371
1692141286.313,-12.207,-23.926,-38.574,-16.113,-79.590
1692141286.316,-26.855,-20.508,-38.086,-35.156,-77.148
1692141286.320,-38.574,-23.926,-43.945,-40.527,139.160
1692141286.324,-36.133,-23.926,-41.992,-26.855,30.273
1692141286.328,-33.691,-38.086,-47.363,-20.020,2.441
1692141286.332,-28.809,-37.109,-46.875,-20.996,105.469
1692141286.333,-25.391,-21.973,-34.180,-23.926,39.062
1692141286.337,-39.551,-22.949,-39.062,-38.574,-160.645
1692141286.341,-36.133,-25.391,-45.898,-29.297,-182.617
1692141286.345,-13.672,-28.809,-36.621,-4.395,-29.785
1692141286.349,-8.789,-24.414,-30.762,-3.906,-28.809
1692141286.353,-18.066,-12.695,-34.180,-14.160,-50.781
1692141286.357,-26.855,-12.695,-35.645,-21.484,-71.777
1692141286.360,-18.555,-22.461,-34.180,-6.348,172.852
1692141286.364,-3.906,-30.273,-34.668,16.113,353.516
1692141286.368,0.488,-26.367,-30.762,8.301,-40.527
1692141286.372,-12.695,-21.973,-33.203,-20.996,-171.875
1692141286.376,-16.113,-26.367,-40.527,-25.879,-130.859
1692141286.378,-13.184,-20.996,-36.621,-9.277,-178.711
1692141286.382,-9.277,-23.926,-39.551,4.883,-172.363
1692141286.386,1.465,-23.438,-50.293,6.348,-88.379
1692141286.390,-2.930,-23.438,-41.016,-11.719,-23.926
1692141286.394,-20.996,-30.273,-28.320,-22.949,-83.496
1692141286.398,-26.367,-33.691,-34.180,-15.625,-13.184
1692141286.402,-12.695,-48.828,-45.898,0.000,153.320
1692141286.405,-5.859,-37.598,-39.062,6.836,459.473
1692141286.409,-0.977,-19.531,-29.785,-6.348,177.246
1692141286.413,-4.395,-19.531,-28.809,-17.578,-236.816
1692141286.417,-16.602,-26.855,-31.738,-14.160,-50.781
1692141286.421,-13.672,-28.320,-37.109,-0.488,70.801
1692141286.423,-4.883,-32.227,-37.109,4.883,-155.273
1692141286.427,-10.254,-39.062,-35.645,-6.836,-212.891
1692141286.431,-22.461,-41.992,-33.203,-22.949,-124.023
1692141286.435,-20.996,-37.109,-31.738,-20.508,-161.133
1692141286.439,-10.254,-32.227,-33.203,-9.277,-175.781
1692141286.443,-1.465,-32.227,-36.621,4.883,-65.430
1692141286.447,-2.930,-33.203,-39.551,3.906,231.445
1692141286.450,-17.578,-30.762,-36.621,-20.996,206.055
1692141286.454,-28.320,-25.391,-31.250,-27.344,-123.047
1692141286.458,-17.090,-22.461,-38.086,-15.137,-143.555
1692141286.462,-8.301,-26.855,-46.875,-6.348,30.273
1692141286.466,-4.395,-33.203,-45.898,-15.137,-12.207
1692141286.468,-18.555,-37.598,-42.480,-38.574,-171.875
1692141286.472,-33.203,-34.180,-42.480,-42.480,-159.668
1692141286.476,-27.344,-23.438,-44.434,-22.949,-76.660
1692141286.480,-20.020,-26.855,-46.387,-8.789,-79.102
1692141286.484,-17.578,-39.551,-47.852,-18.555,-115.723
1692141286.488,-29.785,-40.039,-41.992,-42.969,35.156
1692141286.492,-33.203,-32.715,-38.086,-36.133,142.090
1692141286.495,-16.602,-28.809,-44.922,-13.672,-51.270
1692141286.499,-12.207,-27.832,-49.316,-7.812,-192.383
1692141286.503,-13.184,-31.250,-42.969,-9.766,-33.203
1692141286.507,-21.973,-39.062,-41.504,-27.832,359.375
1692141286.511,-35.156,-43.945,-41.504,-48.828,90.332
1692141286.528,-30.273,-35.156,-40.527,-35.645,-271.973
1692141286.532,-16.602,-35.645,-38.574,-7.324,-62.012
1692141286.536,-4.883,-32.715,-41.992,-1.465,51.270
1692141286.540,-15.625,-36.621,-43.457,-25.879,-155.762
1692141286.544,-37.598,-41.992,-42.480,-41.992,-212.891
1692141286.548,-36.621,-25.391,-40.039,-30.273,-22.461
1692141286.552,-25.879,-30.273,-35.156,-9.766,1.953
1692141286.555,-20.508,-37.598,-40.527,-11.719,-96.191
1692141286.559,-23.438,-21.973,-38.574,-30.762,-136.230
1692141286.563,-34.180,-36.621,-36.133,-37.109,87.402
1692141286.567,-35.156,-40.039,-41.016,-27.832,47.852
1692141286.571,-11.230,-23.926,-31.250,-0.488,-177.734
1692141286.574,-1.953,-22.949,-29.785,10.254,-125.488
1692141286.578,-22.949,-29.297,-45.410,-13.672,32.227
1692141286.582,-35.645,-41.992,-43.945,-18.555,-28.809
1692141286.586,-17.578,-46.387,-35.645,5.371,-170.410
1692141286.590,-6.836,-26.855,-41.016,15.137,-59.082
1692141286.594,-23.926,-22.461,-47.363,-7.812,150.879
1692141286.598,-29.785,-31.738,-50.293,-31.738,84.961
1692141286.601,-31.250,-28.320,-47.363,-48.340,-170.898
1692141286.605,-38.086,-15.625,-42.969,-45.410,-137.695
1692141286.609,-27.344,-12.207,-34.668,-22.949,255.859
1692141286.613,-10.254,-15.625,-31.250,-13.672,100.586
1692141286.617,-12.695,-14.160,-39.062,-23.438,-190.430
1692141286.618,-33.691,-26.367,-44.434,-53.223,-88.867
1692141286.622,-42.480,-36.133,-50.293,-66.406,-18.066
1692141286.626,-20.508,-39.551,-51.270,-40.527,-159.668
1692141286.630,3.418,-37.109,-43.457,-19.043,-135.254
1692141286.634,3.418,-28.320,-41.992,-18.555,33.691
1692141286.638,-5.859,-14.160,-40.039,-32.715,-8.301
1692141286.642,-16.602,-19.531,-32.227,-29.785,-61.523
1692141286.645,-7.812,-27.832,-25.879,-1.953,-60.547
1692141286.649,4.883,-29.785,-26.855,17.578,93.262
1692141286.653,2.441,-44.434,-40.039,5.371,27.344
1692141286.657,-11.230,-50.293,-42.969,-21.973,-158.691
1692141286.661,-20.996,-37.598,-34.668,-35.645,-147.949
1692141286.663,-3.418,-29.785,-27.832,-12.207,135.254
1692141286.667,4.395,-42.480,-31.738,0.000,94.727
1692141286.671,-5.371,-42.969,-39.062,-16.602,-131.348
1692141286.675,-17.090,-20.996,-32.227,-25.879,-151.367
1692141286.679,-14.648,-13.184,-25.391,-29.297,-150.391
1692141286.683,-10.742,-29.785,-27.832,-18.066,-4.395
1692141286.687,-3.906,-41.504,-34.180,8.789,94.727
1692141286.690,10.254,-27.832,-39.551,14.648,161.621
1692141286.694,1.953,-21.484,-37.598,-4.395,297.363
1692141286.698,-9.277,-31.250,-37.109,-15.625,41.504
1692141286.702,0.488,-39.551,-38.574,-6.348,-225.098
1692141286.706,11.719,-36.621,-34.668,10.742,-87.891
1692141286.708,3.906,-15.625,-36.133,13.184,19.043
1692141286.712,-18.066,-22.949,-45.898,-17.578,-137.207
1692141286.716,-30.762,-45.410,-50.781,-34.668,-231.934
1692141286.720,-18.555,-38.574,-42.969,-6.348,-138.672
1692141286.724,3.906,-32.715,-34.668,18.555,-98.145
1692141286.728,11.719,-34.180,-38.086,13.672,-50.293
1692141286.732,-1.465,-37.109,-47.852,-11.719,-4.395
1692141286.735,-9.766,-41.016,-49.316,-17.578,101.074
1692141286.739,-1.465,-21.973,-37.598,3.418,162.598
1692141286.743,9.277,-21.973,-34.180,12.695,41.504
1692141286.747,10.254,-43.457,-44.434,5.859,-37.109
1692141286.751,7.324,-49.316,-45.898,-5.371,63.965
1692141286.753,-10.254,-44.922,-41.992,-23.438,-73.730
1692141286.757,-19.043,-36.621,-39.551,-15.625,-274.414
1692141286.761,-2.441,-26.367,-33.691,9.766,-131.836
1692141286.765,7.812,-14.160,-24.902,14.648,47.852
1692141286.769,4.883,-8.301,-31.250,-3.418,-29.297
1692141286.773,-2.930,-15.625,-37.598,-23.438,-74.707
1692141286.777,-12.695,-23.438,-32.715,-23.438,72.754
1692141286.780,-9.766,-36.133,-36.621,-10.742,301.270
1692141286.784,-0.977,-43.457,-47.852,-9.277,40.527
1692141286.788,2.441,-38.086,-43.457,-18.066,-187.012
1692141286.792,-9.277,-38.574,-35.645,-32.227,-23.926
1692141286.796,-23.926,-32.715,-46.875,-26.855,72.266
1692141286.798,-3.906,-10.254,-37.598,1.953,-111.816
1692141286.802,19.043,-17.090,-16.602,21.973,-141.113
1692141286.806,27.344,-38.574,-27.832,24.414,-16.113
1692141286.810,20.996,-35.645,-34.668,9.766,-60.059
1692141286.814,-17.578,-42.480,-31.738,-25.879,-203.125
1692141286.818,-37.109,-39.551,-31.738,-35.156,-123.047
1692141286.822,-25.391,-25.391,-33.203,-11.719,214.844
1692141286.825,-35.645,-19.043,-39.551,-27.832,180.664
1692141286.829,-59.570,-10.254,-35.156,-67.383,-188.965
1692141286.833,-66.406,-14.160,-22.949,-68.848,-218.262
1692141286.837,-69.824,-23.438,-31.738,-56.152,-104.980
1692141286.841,-72.266,-15.137,-40.527,-49.805,-55.176
1692141286.858,-66.895,-18.555,-41.504,-48.340,-118.164
1692141286.862,-64.941,-40.039,-44.434,-54.688,-97.168
1692141286.866,-72.266,-45.898,-54.199,-64.941,9.277
1692141286.870,-63.477,-39.062,-57.617,-51.758,-119.629
1692141286.874,-36.133,-28.320,-44.922,-25.391,-153.809
1692141286.878,-22.461,-24.902,-39.551,-13.184,31.250
1692141286.882,-31.738,-26.855,-44.922,-23.926,350.586
1692141286.885,-38.086,-25.391,-41.016,-40.039,120.605
1692141286.889,-36.133,-27.344,-38.574,-32.227,-236.328
1692141286.893,-23.438,-28.809,-47.363,-6.348,-112.305
1692141286.897,-2.930,-27.832,-42.969,-2.930,62.012
1692141286.901,-6.348,-22.949,-37.598,-21.973,-90.820
1692141286.903,-27.832,-15.137,-32.715,-35.645,-242.676
1692141286.907,-28.809,-12.695,-20.508,-28.320,-32.715
1692141286.911,-18.066,-22.949,-26.855,-14.160,188.965
1692141286.915,-8.301,-30.273,-36.133,-15.625,-79.590
1692141286.919,-14.160,-40.039,-37.109,-33.203,-182.129
1692141286.923,-28.809,-48.828,-39.062,-49.805,120.117
1692141286.927,-26.855,-40.039,-39.062,-42.969,188.477
1692141286.930,-7.812,-25.879,-37.109,-16.602,-103.027
1692141286.934,1.465,-17.578,-41.016,-4.395,-168.945
1692141286.938,-1.953,-26.367,-38.574,-16.113,125.977
1692141286.942,-9.277,-34.668,-33.203,-38.086,53.711
1692141286.946,-12.695,-36.133,-38.574,-37.598,-289.062
1692141286.948,-0.488,-31.738,-45.898,-1.465,-176.758
1692141286.952,9.277,-42.969,-38.086,17.090,-40.039
1692141286.956,2.930,-47.852,-31.738,4.395,-64.453
1692141286.960,-8.301,-41.504,-37.598,-15.137,-158.691
1692141286.964,-9.766,-35.156,-39.062,-11.230,-157.715
1692141286.968,-4.883,-35.156,-41.016,4.883,27.344
1692141286.972,-2.441,-32.227,-45.898,9.766,-3.418
1692141286.975,0.000,-23.926,-40.039,5.859,-118.164
1692141286.979,-14.648,-19.531,-32.227,-9.277,-64.941
1692141286.983,-27.832,-23.926,-44.922,-20.508,258.789
1692141286.987,-18.555,-39.062,-60.547,-7.812,242.676
1692141286.991,8.789,-45.898,-51.270,22.461,-150.391
1692141286.993,20.996,-42.969,-29.297,20.508,-126.465
1692141286.997,-16.602,-43.945,-32.227,-28.809,-75.195
1692141287.001,-55.176,-39.062,-44.434,-56.641,-197.266
1692141287.005,-43.457,-29.297,-46.875,-34.180,-186.523
1692141287.009,-25.391,-34.180,-44.922,-15.625,-90.332
1692141287.013,-20.996,-27.344,-30.273,-15.137,29.297
1692141287.017,-31.738,-27.832,-26.855,-38.086,-20.508
1692141287.020,-55.176,-42.480,-42.480,-56.152,-174.805
1692141287.024,-51.270,-44.922,-42.969,-32.227,52.246
1692141287.028,-25.391,-43.945,-37.598,-10.742,181.641
1692141287.032,-25.879,-44.922,-38.086,-16.602,-71.777
1692141287.036,-36.621,-55.176,-40.527,-34.180,-142.090
1692141287.038,-46.387,-59.082,-46.387,-44.922,0.977
1692141287.042,-50.293,-46.875,-41.504,-34.180,-99.609
1692141287.046,-35.156,-43.945,-32.227,-15.137,-179.199
1692141287.050,-28.320,-44.922,-36.133,-14.160,-76.660
1692141287.054,-37.109,-42.969,-40.527,-35.645,-40.527
1692141287.058,-42.480,-47.363,-39.062,-51.270,-14.160
1692141287.062,-41.992,-42.969,-37.109,-34.668,-10.742
1692141287.065,-27.344,-35.645,-36.621,-11.230,64.941
1692141287.069,-8.301,-36.621,-35.156,3.906,324.219
1692141287.073,-13.184,-32.715,-40.527,-18.066,73.730
1692141287.077,-23.926,-39.551,-25.391,-34.668,-152.344
1692141287.081,-21.973,-40.039,-18.066,-14.648,6.348
1692141287.083,-5.859,-18.555,-26.855,10.742,164.062
1692141287.087,3.906,-20.996,-33.691,7.324,-79.102
1692141287.091,-5.859,-51.270,-41.016,-16.602,-169.922
1692141287.095,-18.555,-51.270,-39.551,-28.320,-93.262
1692141287.099,-23.926,-31.250,-38.574,-24.902,-142.578
1692141287.103,-8.301,-28.320,-44.434,-0.488,-111.816
1692141287.107,7.324,-29.297,-42.480,17.090,-15.625
1692141287.110,6.836,-16.113,-33.203,9.277,184.570
1692141287.114,-7.324,-11.719,-35.156,-11.719,157.227
1692141287.118,-20.508,-20.996,-37.598,-19.531,-135.742
1692141287.122,-18.066,-29.297,-37.109,8.789,-125.488
1692141287.126,-9.766,-27.832,-36.621,20.020,-50.293
1692141287.129,-16.602,-26.367,-36.133,-5.859,-139.160
1692141287.133,-28.809,-33.691,-33.203,-30.273,-221.680
1692141287.137,-31.738,-26.367,-26.855,-31.250,-114.746
1692141287.141,-29.297,-25.391,-29.297,-9.277,36.133
1692141287.145,-20.020,-34.180,-37.109,-6.348,-65.430
1692141287.149,-17.090,-25.879,-38.574,-18.066,-69.824
1692141287.153,-27.344,-27.832,-41.992,-34.180,119.629
1692141287.156,-40.527,-40.039,-45.898,-37.598,313.965
1692141287.160,-37.109,-45.410,-41.504,-24.902,2.441
1692141287.164,-24.414,-54.688,-41.992,-18.066,-207.520
1692141287.168,-21.973,-53.223,-42.480,-18.555,45.410
1692141287.172,-27.832,-32.227,-38.574,-32.715,93.262
1692141287.173,-30.273,-20.020,-31.250,-38.086,-165.039
1692141287.177,-26.855,-34.180,-32.715,-18.066,-228.516
1692141287.181,-13.184,-32.227,-32.715,1.953,-76.172
1692141287.185,-11.719,-21.973,-42.480,-8.301,-77.148
1692141287.189,-15.137,-40.039,-45.410,-21.484,-171.387
1692141287.193,-1.465,-51.758,-29.785,-9.277,-50.781
1692141287.197,16.113,-27.344,-30.762,15.137,337.891
1692141287.200,15.625,-11.719,-38.086,18.066,433.594
1692141287.204,-2.930,-9.766,-49.316,-18.066,-11.230
1692141287.208,-5.859,-0.488,-53.223,-28.809,-179.199
1692141287.212,-2.930,-3.906,-46.387,-22.949,-151.855
1692141287.216,-0.977,-9.277,-47.363,-17.090,-195.312
1692141287.218,6.348,-12.207,-49.316,4.395,-161.621
1692141287.222,13.672,-14.160,-45.410,22.949,-95.215
1692141287.226,1.953,-18.066,-49.805,-0.977,-75.684
1692141287.230,-9.766,-17.090,-53.711,-20.020,-113.770
1692141287.234,1.953,-10.254,-42.480,0.000,-118.164
1692141287.238,17.090,-18.066,-41.992,19.043,31.250
1692141287.242,24.902,-14.648,-51.758,21.484,209.961
1692141287.245,24.902,-0.977,-46.875,12.695,91.797
1692141287.249,12.695,-7.324,-34.668,-0.977,-145.508
1692141287.253,7.812,-21.973,-32.227,8.301,-65.430
1692141287.257,7.324,-24.414,-36.133,20.996,377.930
1692141287.261,13.184,-14.648,-39.551,4.395,187.012
1692141287.278,12.207,-15.625,-36.621,-12.695,-198.242
1692141287.282,-6.836,-32.227,-31.250,-21.484,-182.129
1692141287.286,-21.484,-39.062,-33.691,-23.926,-142.090
1692141287.290,-20.996,-37.109,-32.715,-2.930,-179.199
1692141287.294,-3.906,-38.086,-33.203,14.648,-163.574
1692141287.298,0.488,-38.086,-38.574,1.465,72.266
1692141287.302,-12.207,-29.785,-35.156,-14.648,50.293
1692141287.305,-20.020,-26.367,-27.832,-14.160,-120.605
1692141287.309,-17.090,-37.109,-36.133,-2.441,-141.113
1692141287.313,-1.953,-37.598,-42.969,9.766,166.016
1692141287.317,7.812,-31.250,-35.156,3.906,167.480
1692141287.321,-5.859,-32.715,-28.809,-16.602,-172.852
1692141287.323,-22.461,-46.875,-38.086,-24.414,-175.781
1692141287.327,-13.184,-51.758,-45.410,-0.488,-16.113
1692141287.331,4.883,-42.480,-43.945,19.531,-63.477
1692141287.335,3.906,-35.156,-36.133,8.301,-138.184
1692141287.339,-5.859,-31.250,-30.273,-13.672,-105.957
1692141287.343,-20.996,-35.156,-38.086,-26.855,-14.648
1692141287.347,-19.043,-40.527,-46.875,-15.625,-5.859
1692141287.350,3.906,-36.621,-47.363,1.465,-107.910
1692141287.354,3.418,-40.527,-49.316,-9.766,-32.227
1692141287.358,-19.043,-43.945,-51.270,-33.691,257.324
1692141287.362,-34.180,-50.293,-47.852,-49.805,42.969
1692141287.366,-26.367,-45.898,-43.457,-30.762,-221.191
1692141287.368,-3.418,-32.715,-33.691,4.883,109.863
1692141287.372,0.977,-29.785,-24.902,4.395,346.191
1692141287.376,-8.789,-24.414,-24.902,-22.461,-65.918
1692141287.380,-18.066,-14.648,-27.832,-31.250,-227.539
1692141287.384,-21.484,-25.391,-29.785,-16.113,-85.938
1692141287.388,-13.184,-45.898,-36.133,-3.418,4.395
1692141287.392,-7.812,-50.293,-41.504,-4.395,-20.508
1692141287.395,-14.160,-47.363,-35.645,-23.438,-100.586
1692141287.399,-33.691,-49.316,-32.227,-33.203,81.055
1692141287.403,-39.062,-50.293,-31.250,-20.996,112.793
1692141287.407,-20.996,-36.133,-26.367,-4.395,-162.598
1692141287.411,-6.836,-14.648,-21.484,6.348,-174.316
1692141287.413,-10.742,-21.973,-20.508,-7.324,-108.887
1692141287.417,-22.461,-40.039,-23.926,-32.715,-144.043
1692141287.421,-27.344,-34.668,-29.297,-30.762,-151.855
1692141287.425,-19.043,-38.086,-37.109,-8.301,-32.715
1692141287.429,-5.859,-37.598,-33.203,7.324,76.172
1692141287.433,-10.742,-33.691,-24.902,-2.441,10.254
1692141287.437,-19.531,-41.504,-23.926,-23.438,-121.094
1692141287.440,-21.484,-39.062,-33.203,-18.066,-96.191
1692141287.444,-14.160,-31.738,-34.668,5.859,238.770
1692141287.448,0.488,-34.668,-35.645,1.465,76.660
1692141287.452,-7.324,-45.898,-39.551,-12.695,-105.957
1692141287.456,-26.855,-55.664,-39.062,-27.344,-0.977
1692141287.458,-32.227,-55.176,-39.062,-36.621,-1.465
1692141287.462,-23.438,-45.410,-34.180,-10.254,-146.484
1692141287.466,-10.742,-41.016,-30.762,11.230,-140.137
1692141287.470,-13.672,-49.316,-29.785,-8.789,-51.270
1692141287.474,-31.738,-50.293,-32.715,-43.457,-136.719
1692141287.478,-28.320,-42.480,-31.250,-41.992,-146.973
1692141287.482,-17.090,-40.039,-34.668,-20.508,-71.289
1692141287.485,-26.855,-62.500,-42.969,-10.254,232.910
1692141287.489,-32.715,-78.613,-50.781,-17.090,432.129
1692141287.493,-27.344,-77.637,-54.199,-32.715,-43.457
1692141287.497,-34.668,-74.219,-52.734,-43.457,-222.168
1692141287.501,-44.922,-63.477,-47.363,-44.434,-101.074
1692141287.503,-29.297,-49.805,-34.668,-22.949,-141.602
1692141287.507,-17.578,-40.527,-24.414,-17.578,-147.949
1692141287.511,-27.832,-44.434,-23.926,-39.062,-97.168
1692141287.515,-39.062,-41.016,-30.762,-48.340,-53.223
1692141287.519,-41.504,-40.039,-41.504,-36.621,-52.734
1692141287.523,-29.785,-51.270,-43.945,-20.996,14.160
1692141287.527,-16.113,-46.875,-36.621,-12.695,100.098
1692141287.530,-20.020,-41.016,-34.180,-28.809,324.707
1692141287.534,-34.180,-41.504,-39.551,-45.898,109.375
1692141287.538,-29.785,-45.410,-40.527,-36.133,-188.965
1692141287.542,-12.695,-48.828,-38.086,-9.766,74.707
1692141287.546,1.465,-40.039,-32.227,0.977,328.125
1692141287.548,1.465,-40.527,-37.598,-27.344,-52.734
1692141287.552,-14.648,-41.504,-35.156,-30.273,-277.344
1692141287.556,-17.090,-40.527,-31.738,-10.254,-161.133
1692141287.560,-6.348,-49.805,-45.898,-8.789,-124.023
1692141287.564,-4.395,-44.922,-45.898,-6.348,-122.559
1692141287.568,-6.348,-31.250,-37.598,-20.996,-115.723
1692141287.572,-17.090,-43.457,-38.574,-39.062,108.398
1692141287.575,-22.949,-47.852,-42.969,-27.832,164.062
1692141287.579,-4.883,-42.480,-40.527,-7.324,-140.137
1692141287.583,9.766,-40.039,-31.250,3.418,-124.023
1692141287.587,0.977,-34.668,-22.949,-3.418,112.305
1692141287.591,-12.207,-33.203,-16.113,-15.137,-52.734
1692141287.593,-20.020,-31.250,-25.391,-16.602,-215.820
1692141287.597,-24.902,-43.457,-35.156,-3.906,-134.277
1692141287.601,-19.043,-48.340,-38.574,2.930,-67.383
1692141287.605,-23.926,-45.898,-49.316,-14.160,-115.234
1692141287.609,-35.156,-47.363,-36.621,-36.133,-215.332
1692141287.613,-41.016,-56.152,-25.391,-37.598,-42.480
1692141287.617,-35.156,-68.848,-35.156,-17.578,216.309
1692141287.620,-22.949,-59.570,-40.039,-7.812,-3.418
1692141287.624,-17.090,-43.457,-35.645,-19.531,-196.777
1692141287.628,-27.344,-52.734,-31.250,-34.180,-92.773
1692141287.632,-39.551,-62.988,-28.809,-38.574,92.285
1692141287.636,-25.391,-51.270,-29.297,-25.391,-65.430
1692141287.654,-9.277,-53.223,-29.785,-6.348,-140.137
1692141287.658,-6.836,-57.129,-26.855,-6.348,70.312
1692141287.662,-23.438,-43.457,-30.762,-31.250,119.629
1692141287.666,-37.598,-35.645,-38.086,-40.527,-144.043
1692141287.670,-29.785,-48.340,-38.574,-20.996,-214.844
1692141287.674,-16.602,-57.617,-34.180,-1.465,3.418
1692141287.678,-6.836,-52.734,-32.227,-5.371,99.121
1692141287.681,-13.184,-51.270,-36.621,-38.086,-60.547
1692141287.685,-24.902,-55.664,-39.062,-44.922,-170.410
1692141287.689,-14.648,-53.223,-45.898,-17.578,71.777
1692141287.693,3.418,-42.480,-44.434,4.395,66.895
1692141287.697,7.324,-42.480,-34.180,-3.418,-143.066
1692141287.698,-6.348,-46.387,-33.691,-25.391,-106.934
1692141287.702,-21.484,-42.480,-39.062,-28.320,-50.781
1692141287.706,-18.555,-30.273,-46.387,-16.602,-58.105
1692141287.710,-2.930,-32.715,-47.852,-4.395,-31.738
1692141287.714,0.488,-49.805,-44.434,-12.207,13.672
1692141287.718,-18.066,-57.617,-39.551,-34.180,68.359
1692141287.722,-26.367,-60.059,-42.480,-42.480,48.340
1692141287.725,-17.578,-56.641,-48.828,-27.344,-64.941
1692141287.729,-9.277,-51.270,-44.922,-1.465,-60.547
1692141287.733,-7.324,-59.570,-39.551,4.395,336.914
1692141287.737,-9.766,-45.898,-36.133,-13.672,270.996
1692141287.741,-26.367,-37.109,-34.180,-30.273,-197.266
1692141287.743,-34.180,-52.246,-34.668,-24.902,-133.301
1692141287.747,-23.438,-47.852,-36.621,-8.789,15.625
1692141287.751,-8.789,-50.781,-28.809,-0.488,-122.559
1692141287.755,-20.996,-61.035,-27.344,-15.625,-181.152
1692141287.759,-33.691,-59.082,-47.363,-34.180,-87.402
1692141287.763,-11.719,-44.434,-60.059,-6.348,-54.199
1692141287.767,1.465,-46.387,-38.086,31.738,-34.180
1692141287.770,-22.949,-66.406,-27.832,7.324,-50.781
1692141287.774,-44.434,-73.242,-29.785,-25.391,186.523
1692141287.778,-45.898,-65.430,-28.320,-37.598,351.074
1692141287.782,-46.387,-70.801,-35.645,-39.062,-85.938
1692141287.786,-43.457,-77.637,-37.109,-24.414,-205.078
1692141287.788,-26.367,-75.195,-37.598,-4.395,-36.621
1692141287.792,-22.949,-76.660,-35.645,-7.324,-120.605
1692141287.796,-35.156,-80.078,-35.645,-31.250,-208.984
1692141287.800,-39.062,-76.660,-33.203,-30.762,-174.316
1692141287.804,-26.855,-69.824,-28.809,-5.859,-91.309
1692141287.808,-17.578,-69.336,-26.367,8.301,-28.320
1692141287.812,-11.719,-61.523,-18.066,2.441,1.953
1692141287.815,-28.320,-56.641,-20.020,-20.996,54.688
1692141287.819,-43.945,-60.059,-26.855,-29.297,375.977
1692141287.823,-33.203,-61.035,-27.832,-6.836,212.891
1692141287.827,-27.832,-60.547,-29.297,6.348,-61.035
1692141287.831,-20.508,-63.477,-22.949,1.465,-13.184
1692141287.833,-35.156,-68.359,-23.926,-14.160,-86.914
1692141287.837,-52.246,-65.918,-27.344,-25.391,-267.090
1692141287.841,-42.969,-63.965,-15.137,-2.930,-228.516
1692141287.845,-37.109,-74.219,-11.230,7.324,-69.336
1692141287.849,-39.062,-77.148,-22.949,-13.184,-60.059
1692141287.853,-44.922,-70.801,-23.438,-26.367,-54.199
1692141287.857,-58.594,-68.359,-20.508,-39.062,-98.145
1692141287.860,-57.617,-66.895,-13.184,-18.555,144.043
1692141287.864,-44.922,-61.523,-7.324,4.883,214.355
1692141287.868,-32.227,-52.734,-8.301,1.953,-143.066
1692141287.872,-37.598,-63.477,-11.230,-12.695,-105.469
1692141287.876,-53.711,-78.613,-17.578,-25.879,119.629
1692141287.878,-48.828,-75.684,-22.949,-21.484,-81.543
1692141287.882,-31.250,-75.195,-23.438,7.324,-214.844
1692141287.886,-27.832,-86.914,-26.367,8.301,-157.227
1692141287.890,-27.344,-89.355,-28.809,-15.625,-145.020
1692141287.894,-25.879,-77.148,-22.461,-17.090,-147.461
1692141287.898,-23.926,-74.219,-16.113,-3.418,-110.840
1692141287.902,-18.555,-72.754,-20.508,14.648,42.480
1692141287.905,-8.301,-77.148,-22.461,22.461,267.578
1692141287.909,-13.184,-68.848,-19.531,3.418,-17.090
1692141287.913,-28.320,-64.941,-22.461,-17.090,-258.789
1692141287.917,-31.250,-78.613,-26.367,-17.578,-94.727
1692141287.921,-21.484,-74.707,-24.902,0.488,2.930
1692141287.924,-10.742,-56.641,-27.344,3.906,-125.000
1692141287.928,-10.254,-44.922,-28.809,-6.348,-135.742
1692141287.932,-20.508,-52.734,-30.273,-20.996,-61.035
1692141287.936,-21.484,-62.988,-33.691,-19.043,-78.613
1692141287.940,-9.766,-58.105,-30.273,7.812,-149.414
1692141287.944,0.488,-50.781,-27.832,16.113,-55.176
1692141287.948,-1.465,-47.363,-26.367,6.348,224.121
1692141287.951,-11.719,-41.504,-30.762,-16.602,180.664
1692141287.955,-22.461,-43.457,-44.922,-27.832,-188.477
1692141287.959,-14.160,-54.199,-42.480,-6.348,-177.246
1692141287.963,1.953,-57.617,-29.297,11.719,-47.852
1692141287.967,5.371,-55.176,-32.227,-3.418,-110.352
1692141287.968,-9.277,-54.199,-35.156,-30.762,-181.152
1692141287.972,-21.973,-49.316,-28.320,-24.902,-156.738
1692141287.976,-10.742,-40.039,-22.949,1.953,-117.188
1692141287.980,-1.953,-40.527,-26.855,8.789,-82.520
1692141287.984,-10.742,-45.410,-32.715,-4.883,-76.660
1692141287.988,-24.414,-45.898,-35.156,-20.508,29.297
1692141287.992,-35.645,-46.875,-33.691,-12.695,428.711
1692141287.995,-36.133,-43.945,-31.250,-6.348,195.801
1692141287.999,-18.555,-43.945,-28.809,0.488,-217.285
1692141288.003,-7.324,-46.387,-32.227,5.859,-123.047
1692141288.007,-20.020,-45.898,-33.203,-15.137,-18.555
1692141288.011,-39.062,-46.387,-35.645,-35.156,-99.121
1692141288.028,-31.250,-37.109,-43.945,-18.555,-171.875
1692141288.032,-5.859,-33.203,-37.109,12.207,-45.898
1692141288.036,-3.906,-45.898,-31.250,10.254,0.000
1692141288.040,-21.973,-52.246,-33.691,-17.090,-152.832
1692141288.044,-38.086,-47.852,-35.156,-30.762,-202.148
1692141288.048,-36.133,-48.828,-35.645,-23.438,5.371
1692141288.052,-18.066,-48.828,-39.551,-6.348,82.031
1692141288.055,-5.859,-41.504,-38.086,-0.488,82.031
1692141288.059,-11.719,-38.574,-28.809,-22.461,0.488
1692141288.063,-31.738,-35.645,-27.832,-34.668,153.809
1692141288.067,-37.598,-32.227,-38.086,-20.508,226.074
1692141288.071,-18.555,-40.527,-41.504,-4.883,-42.480
1692141288.073,-9.277,-50.293,-44.922,-4.395,-67.871
1692141288.077,-14.160,-59.082,-44.922,-24.902,-70.312
1692141288.081,-21.484,-57.617,-44.434,-50.293,-127.930
1692141288.085,-33.691,-49.316,-47.363,-39.062,-172.363
1692141288.089,-23.926,-40.039,-44.434,-14.160,-115.234
1692141288.093,-3.418,-29.297,-33.691,-1.953,43.945
1692141288.097,-3.418,-23.438,-27.832,-16.113,47.852
1692141288.100,-24.414,-35.645,-31.250,-45.410,-134.277
1692141288.104,-35.645,-45.410,-34.180,-34.668,-100.586
1692141288.108,-15.625,-41.992,-36.621,6.348,347.656
1692141288.112,0.000,-43.945,-45.410,13.672,265.137
1692141288.116,-9.277,-39.062,-49.805,-18.066,-139.160
1692141288.118,-31.738,-37.109,-43.457,-45.898,-92.285
1692141288.122,-46.387,-35.156,-42.480,-54.199,-47.852
1692141288.126,-36.133,-30.273,-43.457,-35.156,-173.828
1692141288.130,-18.066,-31.738,-35.645,-10.254,-138.672
1692141288.134,-19.043,-26.367,-31.738,-16.113,-31.250
1692141288.138,-34.668,-31.250,-35.156,-31.738,-43.945
1692141288.142,-42.480,-43.457,-34.180,-30.762,-65.430
1692141288.145,-39.551,-43.457,-38.574,-17.578,-79.590
1692141288.149,-24.414,-42.480,-37.109,-2.930,145.020
1692141288.153,-20.996,-42.969,-29.785,-9.766,201.660
1692141288.157,-34.668,-43.945,-32.227,-31.738,-171.387
1692141288.161,-41.992,-48.828,-35.645,-41.016,-163.086
1692141288.163,-32.227,-45.410,-30.762,-15.137,42.969
1692141288.167,-12.695,-29.297,-25.391,6.836,-49.805
1692141288.171,-11.719,-25.879,-21.973,-6.348,-130.859
1692141288.175,-24.414,-31.738,-30.273,-32.715,-132.324
1692141288.179,-41.992,-33.203,-37.598,-41.504,-111.328
1692141288.183,-41.992,-31.250,-32.715,-33.691,-35.156
1692141288.187,-14.160,-25.879,-29.785,-21.484,-37.109
1692141288.190,-2.930,-22.461,-31.738,-17.090,8.789
1692141288.194,-22.461,-20.020,-41.016,-36.133,274.414
1692141288.198,-39.062,-20.508,-45.898,-50.781,72.754
1692141288.202,-40.527,-30.762,-48.828,-31.738,-134.766
1692141288.206,-30.273,-38.574,-49.316,-11.230,-14.648
1692141288.209,-18.066,-36.133,-37.109,-16.602,69.824
1692141288.213,-27.344,-35.645,-32.227,-39.062,-61.523
1692141288.217,-49.316,-48.340,-39.551,-53.223,-161.621
1692141288.221,-45.410,-50.781,-40.039,-36.133,-58.105
1692141288.225,-20.996,-31.250,-33.203,-8.789,43.457
1692141288.229,-14.160,-26.367,-26.855,-16.602,62.500
1692141288.233,-20.020,-42.480,-26.855,-33.203,11.719
1692141288.236,-32.715,-51.270,-29.785,-41.016,99.121
1692141288.240,-28.809,-34.180,-28.320,-33.691,88.867
1692141288.244,-10.742,-25.391,-29.785,-8.789,-153.809
1692141288.248,-4.395,-35.645,-27.832,3.418,-144.043
1692141288.252,-15.625,-41.992,-24.902,-14.648,-80.078
1692141288.253,-31.250,-44.922,-28.320,-33.691,-165.527
1692141288.257,-32.227,-48.828,-31.738,-30.273,-202.148
1692141288.261,-24.414,-48.828,-31.250,-13.672,-137.207
1692141288.265,-16.113,-41.504,-34.668,-13.184,-33.691
1692141288.269,-20.020,-35.156,-35.645,-21.484,-15.137
1692141288.273,-37.598,-32.227,-34.180,-29.297,-60.547
1692141288.277,-44.434,-34.180,-33.203,-40.527,8.789
1692141288.280,-34.668,-29.785,-30.762,-24.902,329.590
1692141288.284,-26.855,-24.902,-30.273,-11.719,222.656
1692141288.288,-28.809,-34.668,-28.320,-33.691,-128.906
1692141288.292,-38.574,-38.574,-28.809,-58.105,5.371
1692141288.296,-47.363,-33.691,-36.621,-57.129,90.332
1692141288.298,-30.273,-34.668,-42.969,-34.180,-119.141
1692141288.302,-19.531,-38.086,-42.969,-23.926,-130.371
1692141288.306,-29.297,-43.945,-40.039,-31.738,-37.598
1692141288.310,-30.762,-36.133,-33.203,-41.504,-79.102
1692141288.314,-31.738,-32.715,-30.762,-40.039,-122.070
1692141288.318,-24.902,-35.645,-28.809,-20.508,17.090
1692141288.322,-8.789,-40.527,-24.414,-1.953,347.168
1692141288.325,1.465,-32.227,-20.508,-5.859,377.930
1692141288.329,-10.254,-21.973,-23.926,-31.250,-91.797
1692141288.333,-28.320,-29.297,-30.273,-40.039,-255.371
1692141288.337,-27.832,-35.645,-34.180,-15.137,13.672
1692141288.341,-13.184,-33.203,-34.180,2.930,-8.301
1692141288.343,-5.371,-42.480,-30.762,-6.836,-155.273
1692141288.347,-15.625,-48.340,-33.691,-21.484,-135.742
1692141288.351,-20.020,-38.086,-33.203,-29.785,-93.750
1692141288.355,-19.531,-39.062,-28.320,-18.066,-131.836
1692141288.359,-12.207,-46.387,-26.367,1.953,-133.301
1692141288.363,2.441,-51.758,-26.855,9.277,9.766
1692141288.367,-9.766,-46.875,-19.531,-6.348,197.266
1692141288.370,-29.785,-30.762,-16.602,-23.926,-34.180
1692141288.374,-27.344,-28.320,-22.949,-13.184,-201.660
1692141288.378,-19.531,-36.133,-30.762,5.371,36.133
1692141288.382,-8.789,-38.574,-27.344,9.766,419.922
1692141288.386,-14.648,-34.180,-32.715,-17.578,97.656
1692141288.403,-36.133,-42.969,-40.527,-46.875,-232.910
1692141288.407,-40.527,-51.758,-39.551,-39.551,-128.418
1692141288.411,-27.344,-45.898,-33.691,-8.301,-93.750
1692141288.415,-10.742,-36.621,-30.762,1.953,-125.000
1692141288.419,-8.301,-37.109,-41.504,-11.719,-129.395
1692141288.423,-20.508,-39.551,-41.016,-27.832,46.387
1692141288.427,-23.438,-33.691,-35.156,-26.367,12.207
1692141288.430,-9.277,-26.855,-40.039,-12.695,-145.020
1692141288.434,3.906,-32.715,-39.551,-4.883,-83.496
1692141288.438,1.953,-35.645,-38.574,-15.137,187.500
1692141288.442,-13.672,-30.762,-37.109,-39.551,115.723
1692141288.446,-26.855,-35.156,-33.203,-41.504,-144.043
1692141288.448,-22.461,-48.340,-33.203,-16.113,-55.176
1692141288.452,-2.441,-47.363,-29.297,3.418,64.941
1692141288.456,-0.977,-36.133,-30.762,-13.184,-88.379
1692141288.460,-21.973,-37.109,-29.785,-35.645,-226.562
1692141288.464,-33.203,-41.992,-30.273,-35.156,-154.297
1692141288.468,-32.715,-39.062,-33.691,-24.902,29.785
1692141288.472,-22.461,-38.086,-36.621,-13.672,21.973
1692141288.475,-28.809,-37.109,-42.480,-16.602,-126.953
1692141288.479,-47.363,-30.762,-42.480,-42.480,-134.766
1692141288.483,-56.641,-41.504,-41.992,-54.199,208.496
1692141288.487,-50.781,-41.992,-42.969,-39.062,131.348
1692141288.491,-26.367,-42.480,-37.598,-8.789,-128.418
1692141288.494,13.672,-54.688,-25.879,17.578,31.250
1692141288.498,-2.441,-40.039,-30.762,-14.160,96.680
1692141288.502,-62.012,-12.695,-54.199,-78.125,-101.562
1692141288.506,-78.125,-12.207,-59.082,-85.938,-171.387
1692141288.510,-76.172,-23.926,-50.293,-64.453,10.742
1692141288.514,-88.379,-30.762,-57.129,-89.844,103.516
1692141288.518,-104.980,-14.648,-50.781,-128.418,-24.902
1692141288.521,-122.070,-6.836,-48.340,-145.508,-166.504
1692141288.525,-129.395,-13.672,-59.570,-139.160,-15.137
1692141288.529,-124.512,-3.906,-57.129,-136.230,113.770
1692141288.533,-121.582,2.441,-62.988,-153.320,-163.574
1692141288.537,-129.395,4.883,-72.754,-168.457,-210.938
1692141288.538,-134.766,6.348,-66.895,-162.598,-117.188
1692141288.542,-120.117,8.301,-60.547,-152.832,-107.910
1692141288.546,-100.586,12.207,-59.082,-136.719,-117.188
1692141288.550,-77.148,19.043,-61.523,-112.305,-94.727
1692141288.554,-69.336,25.879,-64.453,-112.793,49.805
1692141288.558,-84.473,34.668,-62.988,-123.535,25.391
1692141288.562,-68.848,29.785,-53.711,-104.492,-63.965
1692141288.565,-40.527,16.113,-48.340,-77.637,-38.086
1692141288.569,-36.133,1.953,-57.129,-69.336,274.902
1692141288.573,-40.039,0.977,-60.059,-78.125,140.625
1692141288.577,-44.922,1.953,-51.758,-83.984,-117.188
1692141288.581,-39.062,-9.766,-53.223,-68.848,-83.496
1692141288.598,-26.855,-19.531,-68.359,-45.898,-47.852
1692141288.602,-12.695,-16.602,-55.176,-30.273,-124.512
1692141288.606,-7.812,-13.184,-37.598,-33.203,-197.754
1692141288.610,-26.367,-13.672,-40.039,-45.898,-150.391
1692141288.614,-32.715,-22.461,-39.551,-42.480,-110.352
1692141288.618,-22.949,-30.273,-36.621,-19.531,-57.129
1692141288.622,-17.578,-32.715,-37.109,-16.113,-66.895
1692141288.625,-19.531,-39.062,-43.457,-31.250,180.176
1692141288.629,-32.227,-38.086,-45.898,-48.340,415.039
1692141288.633,-37.109,-35.156,-39.551,-51.758,-33.203
1692141288.637,-24.902,-37.598,-34.180,-21.484,-166.992
1692141288.641,-10.254,-41.016,-32.715,-1.465,25.391
1692141288.628,-9.766,-34.668,-34.668,-16.602,-76.172
1692141288.632,-24.902,-31.738,-35.156,-37.598,-204.102
1692141288.636,-41.504,-44.434,-40.527,-43.457,-155.273
1692141288.640,-32.227,-43.945,-44.922,-26.367,-91.309
1692141288.644,-14.160,-36.133,-40.039,-9.277,-121.094
1692141288.648,-19.531,-37.598,-38.574,-23.926,-30.273
1692141288.652,-35.645,-35.645,-41.992,-50.293,-25.879
1692141288.655,-41.016,-26.855,-44.922,-50.781,-91.797
1692141288.659,-24.902,-28.320,-44.922,-31.250,-134.277
1692141288.663,-16.113,-44.434,-36.621,-16.113,-93.750
1692141288.667,-19.531,-55.664,-25.391,-27.832,74.707
1692141288.671,-27.344,-47.852,-20.996,-40.039,383.789
1692141288.673,-36.133,-22.949,-21.484,-42.480,286.621
1692141288.677,-28.320,-14.648,-20.508,-32.715,-156.738
1692141288.681,-7.324,-29.785,-18.066,-3.906,-167.969
1692141288.685,0.977,-34.668,-23.926,0.000,-118.164
1692141288.689,-18.066,-42.969,-37.109,-38.574,-201.660
1692141288.693,-33.691,-42.480,-39.062,-54.199,-166.992
1692141288.697,-30.762,-24.414,-31.250,-19.043,100.586
1692141288.700,-16.113,-24.902,-32.715,-0.488,167.480
1692141288.704,-8.789,-34.180,-36.621,-11.719,-169.434
1692141288.708,-16.113,-32.715,-33.691,-32.227,-260.742
1692141288.712,-25.391,-26.855,-34.668,-36.133,-136.230
1692141288.716,-26.367,-27.344,-38.086,-19.531,-128.418
1692141288.720,-11.230,-21.973,-36.621,2.441,-127.441
1692141288.724,1.953,-29.297,-29.785,3.906,-46.875
1692141288.728,-2.441,-26.855,-33.691,-17.090,118.652
1692141288.732,3.418,-17.090,-31.250,-11.719,-6.348
1692141288.736,-0.488,-39.551,-17.090,3.418,-133.301
1692141288.740,-19.043,-44.922,-23.926,-7.324,2.441
1692141288.744,-26.855,-41.504,-33.203,-19.531,218.262
1692141288.747,-26.855,-42.969,-34.668,-26.855,29.297
1692141288.751,-41.016,-48.828,-32.227,-45.410,-255.371
1692141288.755,-54.199,-64.941,-32.227,-38.086,-133.301
1692141288.759,-36.621,-62.988,-27.832,-4.883,153.320
1692141288.763,-15.137,-59.082,-23.438,5.859,-21.484
1692141288.778,-17.090,-72.754,-23.926,-4.883,-230.957
1692141288.782,-29.785,-78.125,-23.926,-21.973,-145.020
1692141288.786,-29.297,-72.754,-18.066,-12.695,-9.766
1692141288.790,-9.766,-59.082,-18.066,16.113,-37.598
1692141288.794,11.719,-54.688,-19.043,32.715,-116.699
1692141288.798,0.977,-76.660,-21.973,24.902,117.676
1692141288.802,-8.789,-74.707,-23.926,11.719,497.559
1692141288.805,-9.766,-55.176,-21.973,7.324,73.242
1692141288.809,-4.395,-57.129,-18.555,22.461,-205.078
1692141288.813,6.836,-67.871,-27.832,35.156,30.273
1692141288.817,7.812,-71.777,-31.738,22.461,-31.250
1692141288.821,2.441,-64.453,-22.949,6.348,-165.527
1692141288.823,-12.207,-59.570,-33.691,0.977,-131.836
1692141288.827,-19.531,-65.918,-39.062,11.719,-43.945
1692141288.831,-4.883,-61.523,-37.598,23.438,-41.016
1692141288.835,4.883,-51.270,-39.062,23.438,-100.586
1692141288.839,-4.883,-48.828,-39.551,-0.488,-97.168
1692141288.843,-18.066,-45.410,-40.039,-11.719,87.891
1692141288.847,-9.766,-37.109,-38.574,5.371,145.508
1692141288.850,8.301,-37.109,-42.480,22.461,43.457
1692141288.854,17.090,-40.527,-30.762,19.531,-11.230
1692141288.858,9.277,-39.551,-15.137,10.254,253.418
1692141288.862,-0.977,-30.273,-16.602,2.441,179.199
1692141288.866,-5.371,-31.738,-21.484,2.441,-134.766
1692141288.868,-3.906,-41.016,-23.438,13.184,-65.918
1692141288.872,-2.441,-36.621,-18.066,11.719,26.855
1692141288.876,-13.184,-35.156,-18.066,-10.254,-200.195
1692141288.880,-21.484,-36.621,-22.461,-29.297,-313.965
1692141288.884,-15.137,-31.250,-27.344,-8.301,-176.270
1692141288.888,-3.418,-27.832,-32.227,17.578,-18.555
1692141288.892,5.371,-26.855,-35.645,8.789,59.570
1692141288.895,-2.441,-30.273,-35.156,-12.695,8.789
1692141288.899,-12.207,-32.227,-37.109,-22.461,145.020
1692141288.903,-15.137,-32.227,-35.645,-23.438,289.062
1692141288.907,-8.789,-40.039,-26.855,-14.648,-70.801
1692141288.911,-1.953,-31.738,-24.414,-1.465,-145.020
1692141288.913,-17.090,-27.344,-35.156,-18.066,-57.617
1692141288.917,-33.691,-33.203,-43.457,-32.715,-191.895
1692141288.921,-33.691,-38.574,-36.133,-27.344,-229.980
1692141288.925,-22.949,-40.039,-35.156,-8.301,-134.766
1692141288.929,-1.953,-24.902,-34.668,10.742,-45.410
1692141288.933,-7.812,-24.414,-35.156,-3.418,-40.039
1692141288.937,-31.738,-36.133,-39.062,-32.715,-90.332
1692141288.940,-38.574,-39.551,-33.203,-32.715,-33.691
1692141288.944,-25.391,-38.574,-31.738,-4.883,231.934
1692141288.948,-11.230,-38.086,-38.086,6.836,90.820
1692141288.952,-7.324,-30.762,-31.250,-4.883,-117.188
1692141288.956,-18.066,-26.367,-28.320,-19.531,26.367
1692141288.958,-35.645,-32.715,-34.668,-20.508,122.559
1692141288.962,-23.438,-29.785,-35.645,-2.930,-84.473
1692141288.966,-7.324,-31.250,-32.227,4.395,-182.617
1692141288.970,-15.625,-35.645,-32.715,-12.695,-34.668
1692141288.974,-30.762,-37.109,-38.086,-31.738,-1.465
1692141288.978,-25.391,-24.414,-36.133,-21.484,-104.004
1692141288.982,-18.555,-10.742,-33.203,-4.883,-27.344
1692141288.985,-13.184,-27.344,-35.645,8.789,170.410
1692141288.989,-5.371,-32.227,-31.250,9.277,184.082
1692141288.993,-21.484,-39.062,-33.691,-28.809,-100.098
1692141288.997,-41.504,-42.480,-35.156,-42.969,-167.969
1692141289.001,-37.109,-33.203,-25.879,-16.113,-104.492
1692141289.004,-12.695,-32.227,-34.668,7.324,-94.727
1692141289.008,8.789,-24.902,-42.969,12.207,-158.203
1692141289.012,-16.602,-22.461,-39.062,-22.461,-140.625
1692141289.016,-55.176,-32.715,-29.785,-60.547,-22.461
1692141289.020,-41.992,-26.855,-21.484,-36.621,-82.031
1692141289.024,-16.602,-28.320,-28.320,-4.883,-41.504
1692141289.028,-16.602,-35.156,-33.203,-15.625,47.852
1692141289.031,-32.715,-20.508,-29.297,-38.086,237.305
1692141289.035,-44.434,-11.719,-31.738,-45.410,37.598
1692141289.039,-43.457,-29.785,-40.039,-45.898,-219.727
1692141289.043,-34.668,-33.203,-45.898,-30.273,23.438
1692141289.047,-22.949,-30.273,-48.340,-19.531,163.574
1692141289.048,-20.996,-36.133,-42.480,-34.668,-90.820
1692141289.052,-34.668,-34.668,-39.062,-48.340,-206.543
1692141289.056,-35.645,-29.297,-38.574,-37.109,-71.777
1692141289.060,-16.113,-22.949,-35.156,-5.371,-20.508
1692141289.064,-5.371,-24.902,-32.715,2.441,-99.609
1692141289.068,-16.113,-32.227,-40.039,-22.949,-77.148
1692141289.072,-20.996,-33.691,-51.270,-35.156,191.895
1692141289.075,-30.273,-27.344,-38.086,-19.531,404.785
1692141289.079,-24.902,-16.602,-21.484,-0.977,13.184
1692141289.083,-7.812,-8.301,-21.484,6.836,-157.715
1692141289.087,-17.090,-17.090,-22.949,-14.648,-84.473
1692141289.091,-33.203,-27.344,-26.367,-36.133,-199.707
1692141289.093,-33.691,-29.785,-32.227,-31.738,-245.605
1692141289.097,-23.926,-37.598,-35.156,-14.160,-143.555
1692141289.101,-18.066,-38.086,-32.227,-7.812,-46.387
1692141289.105,-16.602,-36.133,-32.715,-25.879,-105.957
1692141289.109,-28.320,-39.551,-38.574,-44.922,-217.773
1692141289.113,-30.273,-44.434,-46.875,-33.691,-114.258
1692141289.117,-6.836,-44.434,-45.898,1.465,168.945
1692141289.120,-2.441,-30.762,-37.109,-0.977,95.215
1692141289.124,-22.949,-14.648,-38.086,-32.715,-104.492
1692141289.128,-38.574,-7.812,-49.805,-55.176,-57.617
1692141289.132,-53.223,-16.602,-49.805,-57.617,242.188
1692141289.136,-44.434,-18.555,-37.598,-44.922,35.645
1692141289.153,-16.113,-18.555,-40.039,-29.785,-219.238
1692141289.157,-6.348,-19.531,-45.410,-30.762,-122.070
1692141289.161,-14.648,-19.043,-44.434,-36.133,-100.098
1692141289.165,-22.949,-20.996,-39.062,-30.273,-169.434
1692141289.169,-20.508,-23.438,-33.691,-12.207,-127.441
1692141289.173,-7.812,-29.297,-34.668,7.812,140.137
1692141289.177,-1.465,-29.297,-31.250,-0.488,159.668
1692141289.180,-13.672,-21.484,-30.762,-23.438,-9.277
1692141289.184,-25.391,-26.855,-36.133,-31.738,-25.391
1692141289.188,-25.879,-27.832,-38.086,-18.066,35.156
1692141289.192,-15.625,-27.832,-38.086,5.371,6.836
1692141289.196,-13.672,-37.109,-27.832,4.395,-114.258
1692141289.198,-34.180,-40.527,-20.020,-31.738,-147.949
1692141289.202,-41.016,-30.273,-21.973,-39.551,144.531
1692141289.206,-31.738,-21.484,-31.250,-25.391,150.391
1692141289.210,-28.320,-30.273,-40.039,-19.531,-166.016
1692141289.214,-22.461,-35.156,-38.086,-21.973,-95.215
1692141289.218,-31.250,-32.715,-38.574,-44.922,47.852
1692141289.222,-43.457,-32.715,-42.969,-59.570,-40.039
1692141289.225,-38.574,-36.133,-46.387,-37.598,-191.406
1692141289.229,-15.625,-27.344,-39.062,-5.371,-91.797
1692141289.233,-4.395,-24.414,-34.180,-3.418,286.621
1692141289.237,-15.625,-31.738,-36.133,-27.832,123.535
1692141289.241,-34.668,-35.645,-34.668,-49.805,-159.668
1692141289.243,-39.062,-36.621,-36.621,-38.574,-41.016
1692141289.247,-23.438,-33.691,-28.320,-14.160,230.957
1692141289.251,-17.578,-33.691,-32.715,-17.090,-9.766
1692141289.255,-24.414,-38.086,-48.828,-29.297,-206.055
1692141289.259,-27.832,-32.227,-43.945,-35.645,-101.562
1692141289.263,-36.133,-34.668,-40.527,-39.551,-53.711
1692141289.267,-28.320,-34.180,-48.340,-19.531,7.812
1692141289.270,-8.301,-32.227,-44.434,-0.488,-81.055
1692141289.274,-11.230,-32.715,-36.133,-14.648,38.086
1692141289.278,-20.508,-10.742,-33.203,-30.273,90.820
1692141289.282,-35.156,-17.090,-39.551,-36.621,-184.082
1692141289.286,-31.250,-38.574,-41.992,-19.043,-164.551
1692141289.288,-8.789,-35.645,-37.109,6.836,-38.574
1692141289.292,-10.742,-31.738,-37.598,-0.977,-98.633
1692141289.296,-29.297,-34.180,-38.574,-32.227,-244.141
1692141289.300,-31.738,-30.762,-32.227,-31.738,-216.797
1692141289.304,-20.020,-24.414,-26.855,0.000,-41.992
1692141289.308,-6.348,-18.555,-26.367,14.160,-27.344
1692141289.312,-1.465,-25.391,-35.156,4.883,-117.188
1692141289.315,-16.602,-38.574,-42.969,-17.090,-62.012
1692141289.319,-34.180,-41.016,-46.875,-35.156,213.867
1692141289.323,-30.762,-28.809,-41.504,-20.020,89.844
1692141289.327,-17.090,-29.297,-38.574,-2.930,-44.922
1692141289.331,-15.625,-36.133,-42.480,-9.766,44.922
1692141289.333,-19.043,-32.227,-37.598,-30.762,48.828
1692141289.337,-22.461,-25.391,-31.738,-38.086,-138.184
1692141289.341,-25.879,-28.320,-32.227,-16.602,-198.242
1692141289.345,-7.812,-24.414,-31.738,-3.418,-25.879
1692141289.349,1.953,-23.926,-27.344,-10.254,-9.766
1692141289.353,-17.578,-28.809,-39.062,-35.156,-81.543
1692141289.357,-30.762,-34.180,-47.363,-49.316,-112.305
1692141289.360,-30.273,-41.016,-39.062,-36.621,93.750
1692141289.364,-22.461,-37.109,-39.062,-19.043,286.621
1692141289.368,-16.602,-33.691,-43.945,-20.508,-26.855
1692141289.372,-26.367,-34.668,-41.992,-44.434,-123.047
1692141289.376,-30.762,-37.109,-32.227,-42.969,44.434
1692141289.378,-20.996,-40.039,-30.273,-19.043,-46.875
1692141289.382,-16.602,-43.945,-44.922,-16.113,-155.762
1692141289.386,-14.648,-41.016,-47.363,-31.738,-85.449
1692141289.390,-27.344,-27.344,-42.480,-48.340,-75.684
1692141289.394,-43.457,-29.785,-40.039,-57.129,-141.602
1692141289.398,-45.898,-38.574,-40.039,-40.039,-107.422
1692141289.402,-24.902,-27.344,-36.133,-7.324,63.477
1692141289.405,0.488,-25.879,-35.156,11.719,465.820
1692141289.409,-7.812,-32.227,-35.645,-7.812,240.723
1692141289.413,-28.320,-28.809,-33.203,-29.785,-229.004
1692141289.417,-27.344,-26.855,-36.133,-16.602,-98.633
1692141289.421,-15.137,-25.879,-38.574,4.395,40.527
1692141289.423,-0.977,-19.531,-38.574,4.883,-161.133
1692141289.427,-12.695,-10.742,-39.551,-13.184,-223.633
1692141289.431,-34.668,-15.137,-39.062,-31.250,-102.539
1692141289.435,-32.715,-33.691,-36.621,-30.762,-118.652
1692141289.439,-12.207,-38.086,-33.203,-1.465,-104.004
1692141289.443,1.465,-29.785,-34.180,9.766,65.918
1692141289.447,0.000,-24.902,-28.809,-6.348,300.781
1692141289.450,-14.648,-20.020,-24.414,-26.367,214.355
1692141289.454,-22.461,-17.578,-31.738,-22.461,-115.723
1692141289.458,-14.160,-25.391,-39.551,-4.395,-175.293
1692141289.462,-8.301,-34.180,-37.109,5.859,-6.348
1692141289.466,-11.230,-34.668,-40.039,-13.184,-47.363
1692141289.468,-24.414,-36.133,-43.945,-37.598,-201.172
1692141289.472,-35.156,-32.715,-38.574,-39.551,-147.949
1692141289.476,-27.344,-20.020,-31.738,-20.508,-59.082
1692141289.480,-9.277,-16.602,-34.180,-4.395,-96.680
1692141289.484,-8.789,-21.973,-40.039,-14.648,-177.246
1692141289.488,-30.273,-32.715,-41.992,-42.480,-48.828
1692141289.492,-40.527,-36.133,-37.598,-41.016,254.883
1692141289.495,-32.227,-32.227,-35.645,-19.531,102.539
1692141289.499,-17.090,-41.016,-35.645,-12.207,-185.547
1692141289.503,-17.090,-43.945,-36.133,-16.602,-62.012
1692141289.507,-34.668,-42.480,-40.527,-31.738,281.250
1692141289.511,-45.410,-37.109,-43.457,-51.270,-1.465
1692141289.543,-35.156,-34.668,-45.898,-34.668,-284.180
1692141289.547,-18.066,-42.969,-45.410,-6.836,-49.805
1692141289.551,-14.160,-52.734,-43.457,-9.277,104.980
1692141289.555,-21.484,-52.734,-44.922,-29.297,-153.809
1692141289.559,-30.273,-43.945,-43.945,-42.969,-250.977
1692141289.563,-20.020,-25.879,-37.109,-26.367,71.289
1692141289.567,-5.859,-15.625,-32.715,-1.465,127.930
1692141289.570,-8.301,-36.621,-41.016,-9.766,-55.176
1692141289.574,-23.438,-49.805,-41.992,-32.227,-141.602
1692141289.578,-40.527,-44.434,-35.156,-44.922,24.414
1692141289.582,-39.551,-38.086,-35.645,-37.109,32.227
1692141289.586,-28.320,-36.621,-38.086,-11.230,-183.594
1692141289.573,-17.090,-36.621,-32.227,0.000,-95.215
1692141289.577,-18.066,-44.434,-30.762,-20.996,94.727
1692141289.581,-34.180,-46.875,-43.945,-40.527,-65.430
1692141289.585,-39.062,-40.039,-45.410,-29.785,-213.379
1692141289.589,-25.879,-40.039,-39.551,-10.742,-91.309
1692141289.593,-10.254,-36.621,-41.016,-8.789,38.086
1692141289.597,-10.742,-34.180,-42.969,-23.926,-22.461
1692141289.600,-21.973,-28.809,-37.109,-32.227,-173.340
1692141289.604,-24.902,-32.715,-36.621,-27.832,-188.477
1692141289.608,-17.090,-38.574,-41.992,-17.090,-26.367
1692141289.612,-8.301,-28.809,-41.016,2.930,59.082
1692141289.616,-10.254,-27.344,-40.527,-10.742,-97.656
1692141289.618,-28.809,-38.086,-30.273,-37.109,-96.680
1692141289.622,-46.875,-35.156,-20.020,-34.668,293.945
1692141289.626,-39.551,-28.320,-34.180,-15.625,106.934
1692141289.630,-20.020,-27.344,-45.410,-5.859,-166.992
1692141289.634,-16.602,-26.855,-34.668,-10.742,7.324
1692141289.638,-36.133,-23.438,-32.227,-24.902,21.973
1692141289.642,-45.410,-20.996,-40.527,-37.109,-84.961
1692141289.645,-25.391,-31.738,-38.086,-20.996,-171.875
1692141289.649,-6.836,-40.039,-31.738,-0.488,50.293
1692141289.653,-14.648,-40.527,-31.250,-10.742,143.066
1692141289.657,-18.555,-31.738,-36.133,-24.414,-184.082
1692141289.661,-10.254,-33.691,-36.621,-24.902,-237.793
1692141289.663,-23.926,-42.480,-32.227,-21.484,-111.816
1692141289.667,-32.715,-42.480,-32.227,-17.578,-95.215
1692141289.671,-24.902,-35.645,-30.273,-16.602,-70.801
1692141289.675,-32.715,-27.344,-38.574,-38.086,-91.797
1692141289.679,-48.340,-32.715,-48.828,-57.129,-88.379
1692141289.683,-41.504,-31.738,-49.316,-35.156,30.273
1692141289.687,-23.438,-18.555,-40.039,-16.113,49.805
1692141289.690,-22.949,-16.113,-36.133,-27.832,56.641
1692141289.694,-41.016,-23.926,-40.527,-44.434,313.965
1692141289.698,-62.500,-30.273,-43.945,-58.105,179.688
1692141289.702,-57.129,-27.832,-41.016,-52.734,-86.426
1692141289.706,-34.180,-29.785,-45.410,-30.273,5.371
1692141289.708,-21.973,-31.738,-45.898,-24.414,69.336
1692141289.712,-27.832,-31.738,-38.574,-37.109,-172.852
1692141289.716,-41.016,-38.086,-37.109,-49.805,-288.086
1692141289.720,-41.992,-37.109,-38.574,-41.992,-163.086
1692141289.724,-28.809,-29.785,-38.574,-12.207,-129.883
1692141289.728,-24.902,-33.691,-38.574,-5.371,-82.520
1692141289.732,-27.344,-28.809,-34.180,-25.391,-22.461
1692141289.735,-43.945,-27.832,-39.551,-42.480,149.414
1692141289.739,-43.945,-27.832,-39.551,-27.832,318.848
1692141289.743,-20.508,-21.484,-30.762,-8.789,-16.602
1692141289.747,-11.719,-27.344,-31.738,0.000,-163.086
1692141289.751,-20.996,-37.109,-36.621,-14.648,16.602
1692141289.753,-35.645,-38.574,-36.621,-35.645,-121.582
1692141289.757,-33.691,-29.785,-33.691,-23.926,-269.043
1692141289.761,-15.137,-28.809,-29.785,0.977,-164.062
1692141289.765,-6.836,-34.180,-30.762,7.324,-82.520
1692141289.769,-7.812,-17.578,-30.762,-9.277,-143.555
1692141289.773,-19.043,-10.254,-28.809,-28.809,-130.371
1692141289.777,-26.367,-25.879,-31.738,-26.855,-3.906
1692141289.780,-20.020,-29.785,-30.273,-4.395,274.414
1692141289.784,-6.836,-30.273,-26.855,8.789,107.910
1692141289.788,-6.836,-27.832,-31.738,-4.395,-134.766
1692141289.792,-26.855,-31.738,-38.086,-37.109,66.406
1692141289.796,-36.133,-38.086,-37.109,-45.410,196.289
1692141289.798,-35.156,-34.668,-39.551,-25.391,-31.250
1692141289.802,-22.461,-22.461,-33.203,-7.812,-144.043
1692141289.806,-21.484,-19.531,-31.738,-18.555,-52.246
1692141289.810,-41.016,-28.320,-41.992,-42.480,-62.500
1692141289.814,-50.781,-32.227,-42.480,-51.758,-163.574
1692141289.818,-43.457,-39.062,-43.457,-40.039,-104.492
1692141289.822,-28.809,-45.410,-45.898,-20.020,148.926
1692141289.825,-28.809,-51.758,-41.016,-24.414,204.590
1692141289.829,-37.109,-49.805,-38.086,-50.293,-149.902
1692141289.833,-38.086,-42.480,-39.062,-52.734,-215.820
1692141289.837,-42.969,-45.410,-39.062,-36.621,-97.656
1692141289.841,-24.414,-39.062,-40.527,-15.625,-54.688
1692141289.858,-16.602,-25.879,-43.457,-19.531,-84.473
1692141289.862,-33.203,-30.273,-40.039,-46.387,-99.121
1692141289.866,-43.945,-39.062,-38.574,-51.270,54.688
1692141289.870,-38.574,-40.527,-41.992,-30.762,-63.477
1692141289.874,-24.902,-44.922,-43.945,-12.695,-193.359
1692141289.878,-22.461,-43.945,-42.480,-11.719,16.113
1692141289.882,-30.273,-37.598,-43.945,-29.785,217.773
1692141289.885,-33.203,-32.227,-43.457,-45.410,-8.301
1692141289.889,-27.832,-21.484,-40.039,-31.250,-222.656
1692141289.893,-18.555,-23.926,-43.945,-12.207,-62.988
1692141289.897,-14.160,-43.945,-41.504,-7.812,252.441
1692141289.901,-16.113,-39.551,-37.109,-22.949,-2.441
1692141289.903,-31.250,-33.691,-37.598,-43.457,-248.535
1692141289.907,-34.180,-40.527,-38.574,-31.250,-128.418
1692141289.911,-9.766,-36.133,-30.273,-0.977,-53.711
1692141289.915,7.812,-29.297,-25.879,2.441,-119.141
1692141289.919,-0.488,-26.367,-36.621,-25.391,-19.043
1692141289.923,-23.438,-30.273,-46.387,-44.922,122.070
1692141289.927,-43.457,-38.574,-48.340,-41.504,80.566
1692141289.930,-30.273,-31.250,-45.410,-18.555,-55.664
1692141289.934,-11.719,-32.227,-41.992,-6.836,-137.207
1692141289.938,-22.461,-43.945,-34.668,-22.461,95.703
1692141289.942,-38.086,-41.992,-32.715,-42.969,221.680
1692141289.946,-41.992,-46.875,-38.574,-44.922,-117.676
1692141289.948,-29.785,-43.945,-36.133,-18.555,-186.035
1692141289.952,-15.137,-25.391,-34.668,-1.465,-42.969
1692141289.956,-12.695,-29.785,-37.109,-14.160,-107.910
1692141289.960,-26.855,-34.668,-37.598,-41.504,-228.516
1692141289.964,-32.715,-21.973,-26.855,-36.621,-192.383
1692141289.968,-21.484,-20.020,-24.902,-15.137,-42.969
1692141289.972,-10.254,-21.973,-34.668,-10.254,52.734
1692141289.975,-10.742,-22.949,-40.527,-20.996,98.145
1692141289.979,-25.879,-33.203,-36.621,-30.762,54.199
1692141289.983,-34.180,-38.574,-29.297,-24.902,294.922
1692141289.987,-26.367,-37.109,-42.480,-12.695,292.969
1692141289.991,-10.742,-33.691,-46.387,0.488,-98.633
1692141289.993,-6.836,-40.039,-36.133,-4.883,-94.727
1692141289.997,-17.578,-39.062,-34.668,-28.320,23.438
1692141290.001,-28.320,-31.250,-36.621,-32.227,-149.414
1692141290.005,-24.414,-28.320,-44.922,-21.484,-225.098
1692141290.009,-13.672,-25.879,-43.457,-7.812,-51.758
1692141290.013,-6.836,-18.555,-40.039,-12.207,66.895
1692141290.017,-21.484,-19.043,-36.133,-32.715,15.137
1692141290.020,-38.574,-28.809,-35.156,-47.363,-164.062
1692141290.024,-36.621,-48.340,-41.992,-33.203,116.699
1692141290.028,-28.320,-57.129,-43.945,-4.395,368.164
1692141290.032,-17.090,-43.945,-42.969,-1.953,-96.680
1692141290.036,-29.297,-39.551,-42.480,-31.738,-219.727
1692141290.038,-47.363,-43.457,-42.969,-47.363,18.066
1692141290.042,-42.480,-33.691,-43.457,-41.992,-98.633
1692141290.046,-27.832,-22.461,-36.621,-26.855,-229.492
1692141290.050,-20.020,-23.438,-31.250,-18.066,-141.113
1692141290.054,-19.531,-33.203,-30.762,-31.250,-113.770
1692141290.058,-31.738,-39.062,-41.016,-49.316,-20.508
1692141290.062,-34.180,-43.945,-50.781,-40.039,-25.391
1692141290.065,-10.254,-47.363,-43.457,-9.277,-58.105
1692141290.069,3.418,-46.875,-31.738,0.488,184.570
1692141290.073,10.254,-57.617,-28.809,-6.836,44.922
1692141290.077,-3.906,-66.895,-33.203,-19.531,-194.336
1692141290.081,-26.855,-39.551,-40.527,-41.016,-62.012
1692141290.083,-34.180,-7.324,-37.598,-40.527,250.488
1692141290.087,-39.551,-14.160,-40.527,-42.969,10.254
1692141290.091,-71.777,-28.809,-47.363,-85.449,-187.012
1692141290.095,-110.840,-25.391,-47.363,-134.277,-93.750
1692141290.099,-118.164,-11.719,-44.434,-133.301,-175.781
1692141290.103,-104.004,0.977,-39.551,-105.957,-122.559
1692141290.107,-113.281,0.488,-44.434,-124.512,47.852
1692141290.110,-133.301,-3.418,-43.945,-153.809,198.730
1692141290.114,-146.484,6.348,-31.738,-172.852,161.133
1692141290.118,-162.598,13.184,-34.180,-185.059,-165.527
1692141290.122,-160.645,15.137,-37.109,-179.199,-114.258
1692141290.126,-158.203,12.207,-41.992,-186.035,100.098
1692141290.129,-159.668,16.602,-40.039,-197.266,-42.480
1692141290.133,-166.992,16.602,-37.598,-209.961,-185.059
1692141290.137,-182.129,11.230,-29.785,-209.473,-77.637
1692141290.141,-172.363,22.949,-14.648,-179.688,52.734
1692141290.145,-134.277,28.809,-17.090,-144.531,-39.062
1692141290.149,-119.141,19.531,-25.391,-147.949,-95.215
1692141290.153,-125.488,11.719,-33.203,-169.434,-7.812
1692141290.156,-118.164,12.207,-42.969,-154.297,266.602
1692141290.160,-87.891,27.344,-43.457,-117.188,44.922
1692141290.164,-58.594,13.672,-37.109,-80.566,-157.715
1692141290.168,-54.688,-8.301,-35.645,-77.148,13.672
1692141290.172,-62.988,-3.418,-42.480,-88.867,42.969
1692141290.173,-52.734,-9.766,-56.152,-74.219,-155.762
1692141290.177,-20.996,-20.996,-62.012,-29.785,-177.734
1692141290.181,4.883,-24.902,-55.176,-0.488,-49.316
1692141290.185,8.301,-25.391,-51.270,-9.766,-64.941
1692141290.189,-7.324,-24.414,-58.594,-32.227,-103.516
1692141290.193,-13.672,-27.832,-68.848,-34.180,-128.906
1692141290.197,5.859,-40.039,-55.664,-3.418,180.176
1692141290.200,24.902,-38.574,-46.387,24.414,434.082
1692141290.204,35.645,-28.320,-47.363,24.414,-17.578
1692141290.208,30.273,-35.645,-47.852,13.184,-202.637
1692141290.212,13.672,-45.410,-56.641,4.395,-117.188
1692141290.216,14.160,-53.711,-48.828,12.207,-138.184
1692141290.218,27.344,-52.734,-44.922,30.762,-124.023
1692141290.222,34.668,-51.270,-47.852,38.086,-119.141
1692141290.226,32.715,-47.852,-41.016,21.973,7.812
1692141290.230,21.973,-40.039,-37.598,11.719,-66.895
1692141290.234,11.230,-40.527,-46.875,21.484,-186.523
1692141290.238,19.043,-39.062,-56.641,36.621,3.906
1692141290.242,32.715,-34.180,-50.293,40.039,349.121
1692141290.245,19.531,-41.504,-49.316,13.672,146.973
1692141290.249,-2.441,-50.293,-48.828,-13.672,-273.926
1692141290.253,-2.930,-48.340,-43.457,0.000,-170.410
1692141290.257,7.324,-48.340,-40.527,31.738,266.602
1692141290.261,16.113,-44.434,-45.898,32.227,22.949
1692141290.278,18.555,-48.828,-53.711,15.137,-239.258
1692141290.282,5.859,-52.734,-50.781,0.000,-136.230
1692141290.286,0.977,-40.527,-40.039,3.418,-115.723
1692141290.290,5.859,-42.969,-43.457,15.625,-118.164
1692141290.294,17.578,-34.180,-40.527,25.879,-108.887
1692141290.298,9.766,-37.598,-37.109,11.230,23.438
1692141290.302,0.488,-48.828,-44.922,-9.277,93.262
1692141290.305,-1.465,-38.574,-46.387,-6.348,-66.895
1692141290.309,3.418,-33.691,-39.062,5.371,-132.812
1692141290.313,13.672,-44.922,-38.574,27.344,168.457
1692141290.317,4.395,-47.852,-33.691,24.414,262.207
1692141290.321,-11.719,-41.504,-37.109,-14.160,-138.184
1692141290.323,-20.996,-40.039,-41.016,-20.996,-207.031
1692141290.327,-9.277,-32.227,-32.227,2.930,48.828
1692141290.331,4.395,-20.020,-30.762,17.578,0.977
1692141290.335,5.371,-21.973,-40.527,8.789,-126.465
1692141290.339,-15.137,-38.574,-49.805,-22.949,-79.102
1692141290.343,-34.180,-47.363,-41.504,-36.133,-11.230
1692141290.347,-26.855,-43.457,-36.133,-17.090,-25.879
1692141290.350,-11.230,-37.598,-41.504,4.395,-100.098
1692141290.354,-5.371,-35.645,-41.992,2.441,-97.656
1692141290.358,-8.301,-30.762,-35.645,-9.766,184.570
1692141290.362,-21.484,-26.367,-39.551,-23.926,8.789
1692141290.366,-21.973,-30.273,-41.992,-11.719,-269.531
1692141290.368,-13.672,-41.504,-41.504,9.277,-22.461
1692141290.372,-14.648,-39.062,-42.969,3.906,235.840
1692141290.376,-26.855,-35.645,-39.062,-23.926,-62.500
1692141290.380,-44.922,-40.527,-29.297,-39.551,-253.906
1692141290.384,-49.805,-41.992,-33.691,-35.645,-86.426
1692141290.388,-32.715,-42.969,-41.504,-16.602,1.953
1692141290.392,-17.090,-41.992,-39.551,-14.160,8.301
1692141290.395,-20.020,-21.484,-33.691,-30.762,-84.473
1692141290.399,-36.133,-13.184,-32.715,-43.945,73.730
1692141290.403,-38.086,-39.551,-31.250,-34.180,170.410
1692141290.407,-19.043,-39.551,-31.738,-9.277,-109.863
1692141290.411,-8.789,-30.273,-35.156,-8.789,-156.738
1692141290.414,-16.113,-44.922,-37.109,-31.738,-137.207
1692141290.418,-30.762,-44.434,-29.297,-44.922,-188.965
1692141290.422,-30.762,-36.133,-23.926,-35.645,-124.023
1692141290.426,-17.090,-40.527,-28.320,-9.766,-31.250
1692141290.430,-9.277,-33.203,-33.203,1.465,108.887
1692141290.434,-13.184,-27.832,-33.691,-16.602,68.848
1692141290.438,-27.832,-35.645,-38.574,-40.527,-43.945
1692141290.441,-35.645,-38.086,-45.898,-35.156,-25.391
1692141290.445,-28.320,-41.016,-44.922,-7.812,227.051
1692141290.449,-20.020,-40.039,-44.434,-5.371,169.434
1692141290.453,-15.625,-41.992,-38.574,-17.578,-36.133
1692141290.457,-25.879,-41.992,-26.367,-29.297,-78.613
1692141290.458,-34.180,-31.250,-26.367,-32.715,15.137
1692141290.462,-19.043,-23.438,-26.367,-15.137,-83.496
1692141290.466,-11.719,-26.367,-26.855,-2.930,-179.688
1692141290.470,-25.391,-39.062,-36.621,-21.484,-96.191
1692141290.474,-42.480,-38.574,-40.039,-44.434,-81.055
1692141290.478,-53.223,-28.320,-38.574,-48.340,-131.836
1692141290.482,-31.250,-23.926,-37.598,-22.461,-124.023
1692141290.485,-14.160,-27.832,-29.297,-4.883,181.152
1692141290.489,-32.715,-25.879,-36.621,-33.691,380.371
1692141290.493,-42.969,-17.578,-45.898,-62.012,-38.086
1692141290.497,-42.969,-25.391,-40.039,-46.387,-216.797
1692141290.501,-38.574,-30.273,-33.203,-25.879,-139.648
1692141290.503,-23.438,-33.203,-37.598,-20.996,-158.691
1692141290.507,-17.578,-34.180,-42.480,-24.414,-141.113
1692141290.511,-34.180,-40.527,-44.922,-45.898,-128.418
1692141290.515,-46.387,-41.016,-47.363,-57.129,-125.488
1692141290.519,-39.062,-25.879,-46.387,-34.180,-92.773
1692141290.523,-19.043,-27.832,-40.527,-10.742,-25.391
1692141290.527,-15.625,-46.875,-41.992,-16.602,71.289
1692141290.530,-25.391,-45.410,-41.992,-29.785,357.422
1692141290.534,-25.879,-24.902,-34.180,-37.109,125.977
1692141290.538,-28.809,-28.809,-44.922,-29.785,-191.406
1692141290.542,-19.043,-32.715,-50.293,-7.324,20.508
1692141290.546,-7.812,-28.320,-41.016,-4.883,102.051
1692141290.548,-17.578,-31.250,-33.691,-24.414,-121.094
1692141290.552,-31.738,-36.133,-32.715,-37.109,-304.199
1692141290.556,-34.668,-35.645,-31.738,-22.949,-148.438
1692141290.560,-17.090,-31.738,-31.738,11.719,283.203
1692141290.564,-8.789,-33.203,-33.203,6.836,103.027
1692141290.568,-25.391,-46.387,-41.992,-30.762,-168.457
1692141290.572,-37.598,-49.805,-39.062,-41.504,53.711
1692141290.575,-41.016,-39.062,-26.855,-26.367,152.344
1692141290.579,-31.250,-34.180,-27.344,-6.836,-166.504
1692141290.583,-15.625,-33.203,-28.320,2.930,-146.484
1692141290.587,-20.020,-37.598,-34.668,-14.160,66.406
1692141290.591,-36.133,-36.133,-32.715,-34.668,-88.379
1692141290.593,-34.668,-24.414,-20.996,-21.973,-222.656
1692141290.597,-17.578,-22.461,-20.508,-2.930,-130.859
1692141290.601,-2.930,-29.785,-22.949,0.977,-52.246
1692141290.605,-5.859,-28.320,-27.344,-5.371,-125.488
1692141290.609,-28.809,-15.137,-30.273,-28.320,-196.777
1692141290.613,-38.574,-19.043,-35.156,-36.621,-3.906
1692141290.617,-18.066,-29.297,-36.621,-11.230,308.594
1692141290.620,-2.930,-11.719,-30.762,-2.930,113.281
1692141290.624,-5.859,-12.695,-27.344,-18.066,-174.316
1692141290.628,-19.043,-25.391,-26.367,-26.855,-140.137
1692141290.632,-33.691,-26.855,-29.785,-31.250,31.738
1692141290.636,-30.762,-24.414,-33.203,-20.020,-62.500
1692141290.639,-12.695,-24.902,-38.574,-3.906,-109.863
1692141290.643,-11.719,-29.785,-39.551,-16.602,68.359
1692141290.647,-28.809,-40.527,-33.691,-38.574,164.551
1692141290.651,-43.945,-40.039,-32.715,-44.434,-106.445
1692141290.655,-36.621,-29.785,-32.227,-33.691,-173.828
1692141290.659,-17.090,-27.832,-32.715,-15.625,128.906
1692141290.663,-16.113,-30.762,-28.809,-22.461,92.285
1692141290.666,-29.297,-36.621,-30.762,-47.852,-173.828
1692141290.670,-35.645,-38.086,-31.250,-49.805,-256.836
1692141290.674,-41.016,-38.574,-34.180,-30.273,23.438
1692141290.678,-34.180,-39.062,-50.781,-11.719,136.230
1692141290.682,-23.438,-36.133,-47.852,-14.160,-109.863
1692141290.698,-30.762,-41.016,-36.621,-34.180,-158.691
1692141290.702,-42.969,-40.527,-35.645,-48.828,-123.535
1692141290.706,-38.086,-41.504,-36.621,-37.109,-54.199
1692141290.710,-16.113,-45.898,-34.180,-10.254,-13.672
1692141290.714,-8.789,-35.156,-37.598,-5.371,-25.391
1692141290.718,-20.996,-36.621,-48.828,-27.832,283.203
1692141290.722,-31.738,-52.246,-52.246,-51.270,129.395
1692141290.725,-28.809,-44.434,-43.457,-41.992,-207.520
1692141290.729,-17.090,-30.762,-43.945,-15.625,-101.074
1692141290.733,-9.766,-31.738,-42.969,-16.113,115.234
1692141290.737,-18.555,-34.668,-36.133,-41.504,10.742
1692141290.741,-36.133,-34.668,-35.645,-54.199,-168.945
1692141290.743,-33.691,-31.250,-41.992,-47.852,-115.723
1692141290.747,-19.531,-34.668,-48.828,-26.855,32.715
1692141290.751,-6.836,-39.062,-45.898,-10.742,-106.445
1692141290.755,-12.695,-43.945,-43.945,-37.598,-176.270
1692141290.759,-38.574,-41.504,-40.039,-55.176,-47.363
1692141290.763,-47.363,-44.922,-31.738,-46.387,38.574
1692141290.767,-33.203,-42.969,-32.227,-27.832,12.207
1692141290.770,-17.090,-30.762,-37.109,-13.184,-29.785
1692141290.774,-14.160,-25.391,-37.598,-22.461,164.551
1692141290.778,-23.438,-22.461,-33.691,-36.133,350.586
1692141290.782,-31.250,-31.250,-40.039,-47.363,-36.621
1692141290.786,-19.531,-34.180,-39.551,-29.785,-172.363
1692141290.788,-6.836,-30.273,-31.250,-7.324,-35.156
1692141290.792,-12.207,-40.039,-35.645,-20.020,-131.836
1692141290.796,-24.414,-42.969,-34.180,-39.062,-209.473
1692141290.800,-31.738,-39.062,-32.227,-34.668,-174.316
1692141290.804,-28.809,-44.434,-38.574,-21.484,-125.000
1692141290.808,-20.020,-46.875,-35.645,-6.348,-23.438
1692141290.812,-21.484,-44.434,-31.738,-12.207,-10.742
1692141290.815,-31.250,-46.387,-38.574,-37.109,-39.551
1692141290.819,-43.457,-46.875,-40.527,-39.551,234.863
1692141290.823,-36.621,-46.875,-37.598,-24.902,171.387
1692141290.827,-14.648,-46.387,-34.668,-9.277,-92.773
1692141290.831,-6.836,-40.527,-31.738,-18.555,-48.828
1692141290.833,-22.461,-28.809,-27.344,-42.969,57.617
1692141290.837,-36.133,-21.973,-24.902,-49.805,-111.328
1692141290.841,-26.367,-31.738,-27.344,-39.062,-183.105
1692141290.845,-14.160,-39.551,-32.715,-20.508,-80.078
1692141290.849,-14.160,-43.945,-38.574,-19.531,-101.562
1692141290.853,-29.297,-45.410,-43.457,-43.457,-100.586
1692141290.857,-47.363,-52.246,-47.852,-63.477,-50.781
1692141290.860,-42.480,-52.734,-43.457,-43.945,106.445
1692141290.864,-24.902,-37.598,-38.574,-17.578,200.195
1692141290.868,-12.207,-31.250,-33.203,-17.578,-77.637
1692141290.872,-16.113,-32.715,-26.367,-30.762,-99.609
1692141290.876,-33.203,-31.738,-25.391,-35.645,41.504
1692141290.878,-31.738,-31.738,-31.738,-17.578,-73.242
1692141290.882,-12.695,-34.180,-40.527,3.906,-172.363
1692141290.886,-7.812,-35.156,-35.645,0.488,-107.910
1692141290.890,-16.602,-37.598,-27.344,-20.020,-41.504
1692141290.894,-27.832,-36.133,-34.668,-38.574,-72.754
1692141290.898,-31.250,-31.738,-38.086,-29.785,-124.512
1692141290.902,-19.043,-28.320,-35.645,-12.207,32.227
1692141290.905,-12.207,-28.809,-36.621,-14.160,355.957
1692141290.909,-11.719,-18.555,-32.227,-26.367,121.582
1692141290.913,-24.414,-20.020,-31.738,-43.945,-189.941
1692141290.917,-35.156,-41.016,-35.645,-41.016,-79.590
1692141290.921,-27.344,-41.992,-34.668,-17.578,40.039
1692141290.924,-12.207,-33.203,-33.691,-8.789,-10.254
1692141290.928,-11.230,-39.062,-39.062,-30.273,-69.336
1692141290.932,-27.344,-38.574,-35.645,-46.875,-114.746
1692141290.936,-36.133,-32.227,-31.738,-37.109,-109.375
1692141290.940,-24.902,-35.156,-38.574,-16.602,-211.426
1692141290.944,-9.766,-25.879,-37.598,-8.301,-156.250
1692141290.948,-12.207,-36.133,-33.691,-24.414,135.742
1692141290.951,-30.273,-63.477,-41.016,-47.852,136.719
1692141290.955,-40.039,-47.363,-40.039,-44.434,-99.609
1692141290.959,-35.156,-29.785,-36.621,-17.090,-114.258
1692141290.963,-20.508,-41.992,-42.480,-7.324,111.328
1692141290.967,-18.066,-38.086,-41.016,-19.043,119.141
1692141290.968,-32.227,-34.180,-39.062,-44.434,-127.930
1692141290.972,-36.621,-34.668,-32.715,-44.434,-145.508
1692141290.976,-36.621,-43.457,-30.762,-20.996,-21.973
1692141290.980,-27.344,-57.617,-38.086,-5.371,2.441
1692141290.984,-16.602,-55.176,-40.527,-11.719,-67.383
1692141290.988,-29.785,-44.434,-39.062,-30.273,-37.109
1692141290.992,-45.410,-39.551,-39.551,-33.691,289.551
1692141290.995,-42.480,-37.109,-38.574,-20.020,196.777
1692141290.999,-21.484,-40.039,-36.133,5.859,-156.738
1692141291.003,-21.973,-44.434,-32.715,-2.930,-103.027
1692141291.007,-37.109,-31.738,-39.551,-43.945,28.809
1692141291.011,-41.992,-29.297,-45.410,-51.758,-108.398
1692141291.013,-34.180,-30.762,-39.062,-18.066,-205.566
1692141291.017,-26.367,-35.645,-37.109,0.488,-89.844
1692141291.021,-15.137,-35.156,-36.133,-11.719,-9.766
1692141291.025,-24.902,-37.598,-39.062,-31.738,-113.770
1692141291.029,-45.410,-43.457,-45.898,-41.992,-166.504
1692141291.033,-44.434,-32.227,-44.434,-27.832,16.113
1692141291.037,-25.879,-25.879,-40.527,-3.418,54.199
1692141291.040,-11.719,-24.902,-42.480,-2.930,-65.918
1692141291.044,-19.531,-27.832,-46.875,-32.715,-104.492
1692141291.048,-40.527,-27.832,-41.016,-38.086,-31.738
1692141291.052,-45.898,-29.785,-37.109,-20.996,-40.527
1692141291.056,-36.133,-28.809,-36.621,-20.996,-141.602
1692141291.073,-25.391,-19.043,-30.762,-25.391,-81.055
1692141291.077,-30.273,-21.484,-26.855,-41.016,161.621
1692141291.081,-59.570,-20.996,-32.715,-79.102,42.480
1692141291.085,-79.102,-25.391,-43.945,-95.703,-253.906
1692141291.089,-74.707,-29.785,-44.434,-70.801,-131.348
1692141291.093,-71.777,-20.508,-48.340,-72.754,127.441
1692141291.097,-86.426,-17.090,-46.875,-99.609,60.547
1692141291.100,-96.680,-19.043,-41.504,-113.770,-130.859
1692141291.104,-94.727,0.000,-31.250,-99.609,-132.324
1692141291.108,-102.051,1.953,-23.438,-84.473,251.953
1692141291.112,-108.887,-5.371,-25.391,-96.680,231.445
1692141291.116,-115.723,0.000,-25.391,-119.141,-166.016
1692141291.118,-146.484,-13.184,-30.762,-145.508,-159.180
1692141291.122,-157.227,-30.762,-18.555,-146.973,-91.797
1692141291.126,-139.160,-22.949,-4.883,-121.582,-196.289
1692141291.130,-115.234,-11.719,-7.812,-98.145,-177.246
1692141291.134,-117.188,-8.301,-7.812,-107.422,-60.059
1692141291.138,-138.672,-15.625,-19.531,-140.137,-67.871
1692141291.142,-134.766,-26.855,-24.902,-142.090,-90.332
1692141291.145,-111.816,-23.926,-25.879,-112.793,-122.070
1692141291.149,-79.102,-9.277,-18.555,-76.172,87.891
1692141291.153,-62.012,-20.508,-11.719,-77.637,233.887
1692141291.157,-72.266,-35.645,-28.320,-103.027,-63.965
1692141291.161,-78.613,-28.320,-40.039,-93.262,-100.098
1692141291.163,-57.129,-20.020,-37.109,-58.594,45.410
1692141291.167,-21.973,-20.020,-31.250,-28.320,-43.945
1692141291.171,-2.441,-38.574,-37.598,-25.879,-126.465
1692141291.175,-0.977,-54.199,-38.574,-37.598,-104.980
1692141291.179,-0.977,-60.547,-31.738,-17.090,-84.961
1692141291.183,13.184,-63.477,-39.551,19.531,-17.578
1692141291.187,29.785,-52.734,-43.457,39.062,43.945
1692141291.190,38.574,-49.316,-30.273,41.016,84.473
1692141291.194,34.668,-43.457,-25.391,33.203,239.258
1692141291.198,22.461,-36.621,-27.832,30.273,82.520
1692141291.202,27.344,-49.805,-31.250,43.457,-74.219
1692141291.206,44.922,-54.688,-35.156,65.430,-49.805
1692141291.209,53.711,-45.898,-36.133,67.383,7.324
1692141291.213,45.898,-47.363,-35.645,41.504,-83.008
1692141291.217,38.574,-42.480,-33.691,37.598,-209.961
1692141291.221,36.133,-36.621,-38.574,47.852,-148.926
1692141291.225,39.551,-47.363,-48.828,55.176,-61.523
1692141291.229,45.898,-39.551,-52.246,52.246,-73.242
1692141291.233,47.363,-21.973,-46.387,43.457,-165.527
1692141291.236,32.715,-36.133,-42.480,37.109,-29.297
1692141291.240,25.391,-51.270,-46.387,41.504,130.371
1692141291.244,44.922,-50.781,-48.828,58.594,-132.812
1692141291.248,57.617,-48.828,-46.875,59.082,-191.406
1692141291.252,48.340,-31.738,-40.527,43.945,-76.172
1692141291.253,38.574,-20.996,-37.598,30.273,-122.559
1692141291.257,38.086,-35.645,-44.434,32.227,-174.316
1692141291.261,37.109,-38.574,-47.852,50.781,-137.207
1692141291.265,43.945,-20.508,-40.039,65.430,-23.926
1692141291.269,45.410,-20.020,-30.273,55.176,-76.660
1692141291.273,33.203,-32.227,-27.832,37.109,-115.234
1692141291.277,21.973,-40.527,-31.738,36.133,25.391
1692141291.280,25.879,-42.969,-41.504,53.711,286.133
1692141291.284,39.062,-33.203,-49.316,62.500,232.422
1692141291.288,38.574,-27.344,-42.969,49.316,-135.742
1692141291.292,25.879,-29.785,-38.086,26.367,-81.543
1692141291.296,5.859,-27.344,-41.504,13.184,71.777
1692141291.298,9.277,-10.742,-37.598,35.156,-108.398
1692141291.302,29.785,-2.930,-33.203,53.711,-179.688
1692141291.306,24.414,-20.020,-36.133,29.297,-111.328
1692141291.310,7.812,-24.414,-39.062,5.371,-159.180
1692141291.314,0.488,-24.414,-36.621,2.930,-167.480
1692141291.318,5.859,-40.039,-36.621,22.949,-83.984
1692141291.322,13.672,-46.875,-42.480,40.527,147.949
1692141291.325,10.742,-39.062,-45.898,30.762,338.867
1692141291.329,-6.836,-40.527,-52.246,1.465,-56.152
1692141291.333,-15.625,-41.016,-49.805,3.418,-244.629
1692141291.337,-12.695,-30.762,-40.039,19.531,-8.301
1692141291.341,-8.789,-29.297,-41.016,28.320,-38.086
1692141291.343,7.812,-18.066,-40.039,27.344,-236.816
1692141291.347,6.836,-19.531,-38.574,5.859,-201.660
1692141291.351,-8.301,-34.668,-36.621,-2.441,-99.609
1692141291.355,-4.395,-23.438,-34.668,14.160,-113.281
1692141291.359,7.324,-27.832,-35.645,30.762,-132.324
1692141291.363,16.602,-25.391,-31.738,35.156,14.160
1692141291.367,8.789,-12.695,-31.250,13.184,198.730
1692141291.370,-9.277,-14.160,-41.016,-3.906,-7.812
1692141291.374,-18.555,-28.320,-46.875,6.836,-84.473
1692141291.378,-9.766,-37.109,-42.969,20.996,13.184
1692141291.382,2.930,-28.320,-38.086,21.484,82.520
1692141291.386,-1.953,-18.555,-35.156,4.883,29.785
1692141291.388,-9.766,-20.996,-38.086,-12.695,-208.984
1692141291.392,-10.742,-39.062,-44.922,-10.742,-175.293
1692141291.396,0.488,-37.109,-40.527,16.602,315.918
1692141291.400,5.859,-15.625,-39.551,13.672,146.484
1692141291.404,-3.906,-20.996,-42.480,-19.043,-215.820
1692141291.408,-18.555,-24.414,-32.227,-25.391,-29.297
1692141291.412,-20.508,-11.230,-29.297,-12.207,44.922
1692141291.415,-12.207,-16.602,-37.598,2.441,-99.609
1692141291.419,-2.930,-39.551,-49.805,1.953,-161.133
1692141291.423,-7.324,-47.363,-47.363,-12.695,11.230
1692141291.427,-23.438,-34.668,-39.551,-21.973,20.508
1692141291.431,-23.926,-25.879,-41.992,-13.184,-93.262
1692141291.437,-3.906,-24.414,-41.016,12.207,-88.867
1692141291.441,6.348,-21.484,-34.668,23.926,81.055
1692141291.445,1.953,-19.043,-32.227,9.277,-24.902
1692141291.449,-12.695,-22.461,-43.945,-10.742,-244.141
1692141291.453,-24.414,-33.691,-55.176,-20.508,-174.316
1692141291.457,-10.742,-47.852,-50.293,-0.977,14.648
1692141291.461,9.277,-41.992,-45.898,8.789,75.684
1692141291.464,10.742,-28.809,-43.457,-1.953,-85.938
1692141291.468,-6.836,-31.738,-40.039,-15.625,-104.492
1692141291.472,-22.461,-30.273,-39.551,-22.949,96.680
1692141291.476,-14.160,-29.785,-36.621,0.977,30.273
1692141291.480,20.996,-45.410,-25.391,35.645,-79.102
1692141291.493,24.902,-38.086,-37.109,20.996,2.441
1692141291.497,-16.113,-22.949,-53.711,-30.762,15.625
1692141291.501,-33.203,-26.855,-45.410,-41.016,-105.469
1692141291.505,-5.371,-12.695,-33.691,-0.977,-186.035
1692141291.509,13.672,-0.977,-28.809,20.996,-21.484
1692141291.513,10.742,-7.324,-31.738,16.602,513.672
1692141291.517,-8.789,-12.695,-40.039,-6.836,406.738
1692141291.520,-27.344,-10.254,-44.922,-26.855,-164.551
1692141291.524,-22.949,-3.418,-38.086,-0.977,-109.863
1692141291.528,-8.301,-6.348,-32.715,13.672,-70.801
1692141291.532,0.977,-12.695,-31.250,-0.977,-183.105
1692141291.536,-8.301,-20.508,-33.203,-21.973,-200.684
1692141291.553,-12.695,-22.461,-33.691,-32.227,-125.977
1692141291.557,-13.672,-17.578,-38.574,-21.484,-128.418
1692141291.561,-10.742,-21.973,-48.828,-11.230,-187.988
1692141291.565,-6.348,-36.621,-48.828,-12.695,-131.836
1692141291.569,-5.859,-27.344,-39.551,-21.973,40.527
1692141291.573,-15.137,-17.090,-29.785,-29.785,-24.414
1692141291.577,-24.414,-25.879,-30.762,-20.020,-100.586
1692141291.580,-7.324,-25.391,-33.203,7.812,-31.738
1692141291.584,4.395,-21.484,-40.527,13.672,285.645
1692141291.588,-8.301,-18.555,-45.410,-8.301,211.914
1692141291.592,-23.926,-31.250,-42.969,-25.391,-81.543
1692141291.596,-21.484,-30.273,-41.504,-11.230,-84.961
1692141291.583,-3.906,-19.043,-43.945,12.695,64.453
1692141291.587,9.766,-22.461,-47.852,14.160,-67.871
1692141291.591,5.371,-31.250,-41.504,5.859,-197.754
1692141291.595,-14.160,-43.945,-43.945,-14.648,-132.812
1692141291.599,-7.324,-43.945,-47.363,-11.230,-108.398
1692141291.603,13.184,-34.180,-42.969,10.742,-26.855
1692141291.607,19.043,-31.738,-44.434,19.531,35.645
1692141291.610,11.230,-37.598,-44.922,9.277,98.145
1692141291.614,-0.977,-26.855,-45.410,-14.160,10.742
1692141291.618,-15.137,-24.902,-52.246,-23.926,-192.871
1692141291.622,-16.113,-42.969,-46.875,-13.184,-168.945
1692141291.626,-3.906,-43.945,-33.691,5.371,159.180
1692141291.628,-1.465,-30.762,-24.902,2.441,373.047
1692141291.632,-14.648,-20.996,-24.414,-19.531,4.883
1692141291.636,-23.438,-28.320,-35.645,-24.902,-175.293
1692141291.640,-22.461,-35.156,-45.898,-8.789,-76.172
1692141291.644,-4.395,-17.090,-42.480,3.906,-58.105
1692141291.648,4.883,-8.789,-40.039,-5.371,15.625
1692141291.652,-13.672,-29.785,-37.109,-29.297,73.242
1692141291.655,-25.391,-36.621,-37.109,-27.832,270.996
1692141291.659,-17.090,-24.902,-39.062,-5.859,139.648
1692141291.663,1.953,-24.902,-30.273,13.184,-69.824
1692141291.667,6.348,-34.668,-32.227,3.418,65.918
1692141291.671,-11.230,-39.551,-37.598,-20.508,257.812
1692141291.673,-21.484,-26.367,-41.504,-22.461,20.020
1692141291.677,-10.254,-5.371,-39.062,-0.488,-192.383
1692141291.681,5.859,-13.672,-32.227,15.137,-92.285
1692141291.685,15.137,-21.484,-32.715,8.301,-92.285
1692141291.689,4.883,-13.672,-35.156,-7.812,-151.855
1692141291.693,-11.230,-27.344,-33.203,-11.230,-131.348
1692141291.697,-12.207,-41.016,-41.504,1.953,183.105
1692141291.700,4.883,-35.156,-44.922,19.531,328.125
1692141291.704,11.719,-27.344,-35.645,16.113,-22.461
1692141291.708,0.000,-21.484,-34.668,0.000,-183.594
1692141291.712,-14.648,-25.879,-39.062,-16.113,-115.234
1692141291.716,-11.230,-31.738,-50.293,-7.324,-52.246
1692141291.718,25.879,-24.414,-57.617,34.668,-84.961
1692141291.722,31.738,-31.738,-39.551,45.898,-100.586
1692141291.726,-3.906,-30.762,-30.273,11.719,43.457
1692141291.730,-19.043,-23.926,-30.273,-10.742,-85.938
1692141291.734,-17.090,-38.086,-37.109,-6.836,-210.938
1692141291.738,-2.930,-46.875,-44.922,21.484,53.711
1692141291.742,0.977,-47.852,-38.574,31.738,430.176
1692141291.745,-10.254,-41.504,-32.715,5.371,97.656
1692141291.749,-18.066,-33.203,-35.156,-9.766,-277.344
1692141291.753,-18.066,-40.527,-33.203,-0.977,-147.949
1692141291.757,-1.953,-35.645,-25.879,20.020,88.379
1692141291.761,3.906,-17.090,-26.855,14.648,-20.508
1692141291.764,-8.301,-20.508,-35.156,-13.672,-186.035
