timestamps,TP9,AF7,AF8,TP10,Right AUX
1688256334.585,-73.242,-35.645,-39.062,-23.438,249.512
1688256334.589,36.621,-36.133,-52.734,-43.457,-169.922
1688256334.593,28.320,-29.297,-32.715,-43.457,-139.160
1688256334.597,-73.730,-24.414,-6.348,-42.480,-74.707
1688256334.601,-157.715,-23.438,-3.906,-45.410,-203.125
1688256334.605,-93.750,-18.066,-7.812,-42.480,-107.422
1688256334.609,43.945,-12.207,-13.672,-43.457,203.125
1688256334.612,65.918,-20.996,-20.020,-40.527,155.273
1688256334.616,-10.254,-28.320,-14.648,-36.133,-234.375
1688256334.620,-88.867,-32.227,-21.973,-28.809,-254.883
1688256334.624,-82.031,-39.551,-41.504,-21.973,-87.891
1688256334.628,36.621,-38.574,-38.574,-14.160,-80.566
1688256334.628,66.406,-42.969,-32.227,-18.066,-211.914
1688256334.632,-31.250,-54.199,-25.879,-34.668,-220.703
1688256334.636,-130.371,-50.781,-10.742,-30.762,-97.656
1688256334.640,-115.234,-30.762,-16.113,-37.109,79.102
1688256334.644,11.230,-21.484,-25.879,-44.434,92.773
1688256334.648,51.270,-19.531,-17.578,-35.156,-2.930
1688256334.652,-35.645,-12.695,-24.414,-23.926,355.957
1688256334.655,-123.047,-10.742,-52.246,-25.879,434.570
1688256334.659,-111.328,-18.066,-59.082,-24.902,-1.953
1688256334.663,5.859,-29.785,-32.715,-44.434,-68.359
1688256334.667,86.914,-29.297,-21.484,-72.266,-152.344
1688256334.671,16.602,-24.902,-23.438,-58.594,-295.898
1688256334.689,-115.723,-34.668,-19.043,-36.621,-245.605
1688256334.693,-152.344,-44.922,-18.555,-24.414,-91.797
1688256334.697,-31.738,-33.203,-29.297,-25.879,-96.680
1688256334.701,58.594,-30.762,-35.645,-56.641,-227.539
1688256334.705,11.719,-39.062,-27.832,-74.219,-240.234
1688256334.709,-91.309,-32.227,-10.742,-49.805,-51.270
1688256334.713,-147.949,-25.391,-9.277,-36.621,119.141
1688256334.716,-53.711,-20.508,-20.508,-40.527,117.188
1688256334.720,55.664,-20.508,-17.090,-42.969,-102.539
1688256334.724,43.945,-27.832,-11.719,-35.156,11.230
1688256334.728,-49.805,-29.297,-23.926,-33.203,210.938
1688256334.732,-119.141,-33.691,-34.668,-26.855,-37.598
1688256334.733,-44.922,-40.527,-52.734,-27.832,-72.266
1688256334.737,65.918,-33.203,-48.340,-41.016,-102.539
1688256334.741,46.387,-17.578,-25.391,-49.316,-121.582
1688256334.745,-73.242,-18.066,-22.949,-44.434,-106.445
1688256334.749,-153.320,-19.043,-16.113,-12.207,11.230
1688256334.753,-79.590,-15.625,-13.184,-9.766,231.445
1688256334.757,27.832,-22.949,-23.438,-47.363,109.863
1688256334.760,27.344,-37.598,-25.391,-68.359,-111.816
1688256334.764,-39.551,-42.480,-20.996,-56.641,-113.281
1688256334.768,-115.234,-38.086,-32.715,-38.574,291.016
1688256334.772,-68.848,-40.527,-40.039,-20.996,393.555
1688256334.776,37.598,-27.344,-19.531,-17.578,-19.043
1688256334.778,5.859,-13.184,-7.812,-65.918,-189.453
1688256334.782,-87.891,-7.324,-16.113,-86.426,-245.117
1688256334.786,-150.391,-9.277,-27.344,-54.688,-198.242
1688256334.790,-123.047,-18.555,-47.363,-58.105,-100.098
1688256334.794,-21.484,-23.438,-47.852,-84.961,-84.473
1688256334.798,-10.254,-36.133,-25.391,-103.516,-129.883
1688256334.802,-80.078,-50.781,-12.695,-120.605,-68.359
1688256334.805,-176.758,-53.223,-3.906,-125.488,-59.082
1688256334.809,-198.242,-42.480,-0.977,-116.699,137.207
1688256334.813,-99.121,-23.438,-7.324,-121.582,241.211
1688256334.817,-44.434,-31.738,-1.953,-140.625,-95.215
1688256334.821,-103.516,-36.133,-15.137,-122.559,-197.754
1688256334.823,-220.703,-17.578,-54.688,-104.492,-78.125
1688256334.827,-215.820,-7.324,-44.922,-106.934,-8.301
1688256334.831,-96.680,-8.301,0.488,-129.395,-154.297
1688256334.835,-22.949,-17.090,21.484,-129.395,-89.355
1688256334.839,-62.988,-23.438,2.441,-115.723,107.910
1688256334.843,-178.223,-31.738,-11.719,-114.258,59.570
1688256334.847,-209.473,-31.250,-16.113,-120.605,2.441
1688256334.850,-90.820,-31.738,-20.020,-135.254,44.434
1688256334.854,7.812,-30.762,-12.207,-137.695,137.695
1688256334.858,-20.996,-28.809,-15.625,-135.254,-73.730
1688256334.862,-120.605,-30.273,-20.996,-95.703,-277.344
1688256334.866,-177.734,-23.926,-24.414,-66.895,-126.465
1688256334.870,-90.332,-24.414,-19.531,-60.547,-45.898
1688256334.874,6.348,-20.020,-16.602,-64.453,-63.477
1688256334.878,0.977,-14.648,-20.508,-63.965,-134.766
1688256334.882,-85.938,-21.484,-22.461,-54.688,-9.766
1688256334.886,-133.789,-20.020,-15.137,-33.691,120.605
1688256334.890,-51.270,-11.719,-9.766,-29.297,33.203
1688256334.894,52.246,-16.113,-22.949,-62.988,-20.996
1688256334.897,47.852,-26.855,-35.156,-65.430,133.789
1688256334.901,-47.852,-31.250,-33.691,-41.016,141.602
1688256334.905,-131.348,-35.156,-21.484,-28.809,-174.316
1688256334.909,-66.895,-34.668,-16.113,-10.742,-168.457
1688256334.913,53.223,-34.668,-19.043,-22.949,-101.562
1688256334.913,68.359,-35.156,-21.484,-38.086,-144.531
1688256334.917,-27.832,-31.250,-27.832,-24.414,-196.289
1688256334.921,-104.004,-31.738,-36.133,-3.418,-118.164
1688256334.925,-65.918,-36.133,-29.297,4.883,50.293
1688256334.929,34.668,-33.203,-12.207,-9.766,-27.344
1688256334.933,69.336,-26.855,-8.789,-17.090,-94.727
1688256334.937,-3.906,-29.297,-19.531,-15.137,-14.160
1688256334.940,-94.238,-32.227,-26.855,-5.371,364.746
1688256334.944,-84.473,-36.133,-21.484,-1.465,466.797
1688256334.948,30.273,-38.574,-16.602,6.836,5.371
1688256334.952,90.332,-34.668,-18.555,-11.230,-126.465
1688256334.956,6.348,-33.691,-20.020,-39.551,-140.625
1688256334.972,-110.352,-35.156,-22.461,-28.809,-179.199
1688256334.976,-112.793,-36.133,-36.133,-13.672,-103.027
1688256334.980,1.465,-41.504,-45.898,-4.883,-75.195
1688256334.984,69.824,-44.922,-37.109,-16.602,-137.695
1688256334.988,0.000,-37.109,-8.789,-22.949,-197.754
1688256334.992,-125.488,-45.898,1.465,-9.766,-54.199
1688256334.996,-129.395,-56.152,-9.277,1.953,267.090
1688256334.999,2.441,-42.480,-11.230,-8.301,322.266
1688256335.003,68.848,-34.180,-29.785,-39.551,-84.473
1688256335.007,17.578,-32.715,-38.574,-25.391,-217.285
1688256335.011,-76.660,-32.715,-25.391,-9.277,-35.645
1688256335.015,-107.910,-27.344,-29.785,-38.574,18.555
1688256335.003,-5.371,-23.438,-41.992,-39.062,-120.117
1688256335.007,67.383,-23.926,-26.855,-38.086,-162.109
1688256335.011,32.715,-32.227,-20.996,-66.406,-160.645
1688256335.015,-49.805,-36.621,-41.504,-43.457,-83.008
1688256335.019,-103.516,-30.273,-57.617,0.977,-42.969
1688256335.023,-61.035,-29.785,-42.969,-7.812,42.969
1688256335.027,7.812,-34.668,-15.625,-51.270,214.355
1688256335.030,9.277,-31.738,-9.277,-71.777,-38.574
1688256335.034,-75.195,-26.367,-9.277,-46.387,-194.336
1688256335.038,-155.273,-24.902,-18.555,-40.039,-13.184
1688256335.042,-84.961,-19.043,-42.969,-54.199,300.781
1688256335.046,15.137,-25.391,-43.457,-57.617,105.957
1688256335.049,-11.230,-29.297,-23.438,-59.082,-286.133
1688256335.053,-87.891,-28.809,-23.438,-48.340,-155.273
1688256335.057,-135.254,-23.926,-35.156,-35.156,-50.293
1688256335.061,-76.172,-32.227,-43.945,-29.297,-102.539
1688256335.065,18.066,-46.875,-24.902,-46.875,-119.141
1688256335.069,31.738,-25.879,-9.277,-59.082,-55.176
1688256335.073,-38.574,-10.742,-12.207,-39.551,27.344
1688256335.076,-127.441,-16.602,-10.254,-25.391,-0.977
1688256335.080,-73.730,-18.066,-17.578,-27.832,-96.191
1688256335.084,42.969,-19.043,-27.344,-18.066,56.641
1688256335.088,39.062,-24.414,-35.156,-22.949,87.402
1688256335.092,-20.996,-26.367,-46.387,-28.809,-171.387
1688256335.108,-89.355,-25.879,-40.527,-29.297,-181.152
1688256335.112,-83.984,-26.855,-16.602,-36.133,-10.254
1688256335.116,24.414,-18.066,-8.301,-24.902,-39.062
1688256335.120,70.801,-16.602,-8.301,-20.996,-131.836
1688256335.124,9.277,-20.996,-9.277,-32.227,-70.801
1688256335.128,-95.703,-10.742,-20.508,-20.020,314.941
1688256335.132,-98.633,-10.742,-27.344,0.000,305.664
1688256335.135,24.414,-13.672,-37.109,-14.648,-121.094
1688256335.139,79.590,-8.789,-52.734,-27.344,-143.555
1688256335.143,-7.812,-8.789,-57.617,-27.832,-118.164
1688256335.147,-116.211,-11.719,-44.434,-21.484,-187.988
1688256335.151,-111.816,-27.344,-29.297,-11.230,-185.059
1688256335.154,4.883,-37.109,-16.602,-32.227,15.137
1688256335.158,65.918,-32.227,-14.160,-50.781,169.434
1688256335.162,-1.465,-18.555,-21.973,-32.715,-108.887
1688256335.166,-104.492,-1.953,-20.020,-11.719,-220.215
1688256335.170,-127.930,-5.371,-24.902,6.348,28.809
1688256335.174,-4.395,-11.719,-39.551,-18.066,129.395
1688256335.178,75.684,-10.742,-42.480,-41.504,-26.367
1688256335.181,28.809,-13.672,-33.691,-50.293,-175.293
1688256335.185,-57.129,-27.344,-42.969,-32.715,-44.434
1688256335.189,-119.141,-33.203,-61.523,-8.789,183.105
1688256335.193,-37.109,-28.809,-52.246,-18.066,-119.629
1688256335.197,55.176,-36.133,-42.969,-25.879,-263.672
1688256335.198,24.414,-45.898,-35.645,-27.344,-210.938
1688256335.202,-83.984,-53.223,-22.949,-33.203,-160.156
1688256335.206,-145.508,-45.410,-24.902,-42.480,-107.422
1688256335.210,-40.039,-26.855,-28.320,-23.926,29.785
1688256335.214,54.199,-23.926,-31.250,-27.344,249.023
1688256335.218,40.527,-23.926,-41.504,-39.551,96.680
1688256335.222,-43.945,-24.902,-53.223,-25.391,-86.914
1688256335.225,-119.629,-28.809,-66.406,-12.207,-28.809
1688256335.229,-38.086,-31.250,-56.152,-7.324,323.730
1688256335.233,65.918,-33.691,-21.484,-13.672,263.184
1688256335.237,65.918,-39.551,-9.277,-46.875,-194.824
1688256335.241,-19.043,-33.691,-17.090,-39.062,-202.637
1688256335.243,-126.953,-27.344,-21.484,-14.648,-91.309
1688256335.247,-80.566,-38.086,-30.762,-28.320,-54.688
1688256335.251,41.504,-35.156,-37.109,-52.734,-120.605
1688256335.255,52.734,-25.391,-44.434,-43.945,-141.602
1688256335.259,-33.691,-26.855,-60.059,-17.090,-114.746
1688256335.263,-123.535,-33.203,-55.176,-15.137,-46.387
1688256335.267,-95.215,-36.133,-41.504,-22.949,96.191
1688256335.270,18.555,-26.855,-35.156,-21.484,265.137
1688256335.274,43.457,-18.555,-25.391,-23.926,112.305
1688256335.278,-26.855,-21.484,-26.855,-22.461,-203.613
1688256335.282,-109.375,-25.391,-38.574,-23.438,-204.102
1688256335.286,-98.145,-24.902,-27.832,-30.273,96.680
1688256335.288,17.578,-30.273,-25.391,-46.387,153.320
1688256335.292,68.848,-30.273,-33.691,-51.270,-224.609
1688256335.296,12.207,-21.484,-41.504,-30.762,-209.473
1688256335.300,-100.586,-18.066,-40.039,-8.789,45.898
1688256335.304,-114.746,-21.973,-33.203,-6.836,-3.418
1688256335.308,2.441,-25.391,-20.020,-40.039,-59.570
1688256335.312,47.363,-31.738,-17.090,-62.988,13.184
1688256335.315,-15.137,-41.016,-38.086,-50.781,228.516
1688256335.319,-105.469,-42.969,-45.410,-23.438,229.492
1688256335.323,-131.348,-52.246,-28.320,-18.555,-121.094
1688256335.327,-31.738,-46.875,-16.113,-32.715,-107.910
1688256335.331,65.430,-26.855,-20.020,-53.223,-75.195
1688256335.336,25.391,-24.902,-26.367,-49.316,-296.875
1688256335.340,-96.680,-25.391,-24.414,-30.762,-242.188
1688256335.344,-133.301,-28.320,-29.785,-22.461,-66.406
1688256335.348,-47.363,-34.668,-54.199,-20.508,-90.332
1688256335.352,39.551,-41.016,-65.430,-20.508,-172.363
1688256335.356,1.953,-42.480,-40.527,-23.438,-152.832
1688256335.360,-91.309,-33.691,-22.949,-41.016,147.949
1688256335.363,-122.070,-32.227,-18.066,-38.086,276.367
1688256335.367,-32.715,-27.344,-7.812,-29.297,-4.395
1688256335.371,62.012,-23.438,-11.719,-39.062,-133.789
1688256335.375,27.832,-30.762,-20.996,-43.457,-186.523
1688256335.379,-64.453,-29.785,-35.156,-33.691,-128.906
1688256335.378,-127.930,-24.902,-36.133,-2.930,-97.656
1688256335.382,-57.617,-27.832,-30.762,2.441,-59.082
1688256335.386,39.551,-33.691,-43.457,-35.156,-5.371
1688256335.390,14.160,-32.227,-43.457,-60.547,-29.297
1688256335.394,-59.570,-32.227,-16.602,-69.336,-91.309
1688256335.398,-110.352,-27.832,-11.230,-42.969,-45.410
1688256335.402,-64.453,-30.273,-28.809,-19.043,362.793
1688256335.405,30.273,-26.367,-28.320,-41.016,411.133
1688256335.409,47.852,-15.625,-24.414,-55.176,-83.008
1688256335.413,-44.922,-34.180,-32.227,-43.945,-209.961
1688256335.417,-144.531,-48.340,-28.809,-38.574,-122.070
1688256335.421,-84.473,-48.828,-17.578,-25.879,-127.441
1688256335.426,29.297,-47.852,-23.926,-10.254,-192.871
1688256335.430,39.062,-34.180,-38.574,-22.461,-67.871
1688256335.434,-41.992,-19.531,-55.176,-53.223,-43.457
1688256335.438,-123.535,-23.926,-49.805,-52.246,-157.227
1688256335.442,-90.332,-28.320,-40.527,-43.945,-151.367
1688256335.446,16.113,-29.297,-45.410,-66.406,103.027
1688256335.450,39.062,-35.156,-49.316,-84.473,212.891
1688256335.453,-30.762,-32.715,-45.410,-77.148,-137.695
1688256335.457,-101.074,-30.273,-56.641,-47.363,-182.617
1688256335.461,-93.262,-22.949,-57.617,-21.484,-10.254
1688256335.465,1.953,-31.738,-38.086,-23.438,7.324
1688256335.469,47.363,-40.039,-26.367,-47.852,-173.828
1688256335.483,-8.789,-28.809,-20.996,-50.781,-225.586
1688256335.487,-105.957,-30.762,-25.879,-36.133,-111.328
1688256335.491,-129.395,-38.086,-27.344,-17.090,-49.316
1688256335.495,-11.719,-43.945,-23.926,-25.391,-36.621
1688256335.499,80.078,-39.062,-23.926,-40.527,-50.293
1688256335.503,22.461,-32.227,-14.648,-38.086,234.863
1688256335.507,-101.562,-28.320,-23.438,-23.438,278.320
1688256335.510,-144.531,-22.461,-32.227,-10.254,-84.961
1688256335.514,-56.641,-21.973,-19.531,-20.996,-14.160
1688256335.518,30.273,-26.855,-10.254,-37.109,30.762
1688256335.522,20.020,-38.086,-9.766,-29.785,-182.129
1688256335.526,-49.316,-37.598,-25.879,-20.508,-261.719
1688256335.528,-103.027,-36.133,-34.180,-14.160,37.109
1688256335.532,-48.828,-26.367,-35.156,-30.762,256.348
1688256335.536,46.387,-3.418,-30.273,-55.664,-95.215
1688256335.540,17.090,-0.977,-32.227,-47.852,-258.789
1688256335.544,-89.355,-6.348,-42.969,-26.367,-177.734
1688256335.548,-123.535,-3.418,-35.645,-5.371,13.184
1688256335.552,-32.227,-15.137,-11.719,-4.883,96.680
1688256335.555,73.730,-27.344,-7.812,-46.387,-63.965
1688256335.559,50.781,-25.879,-18.555,-58.105,21.973
1688256335.563,-73.242,-34.668,-16.602,-27.832,236.328
1688256335.567,-137.695,-27.832,-17.090,-15.625,13.184
1688256335.571,-66.895,-17.090,-17.090,-12.695,-85.449
1688256335.573,31.250,-14.648,-6.836,-20.508,-64.453
1688256335.577,50.781,-21.484,-22.949,-56.152,-187.012
1688256335.581,-25.391,-24.414,-46.875,-55.664,-177.246
1688256335.585,-121.094,-12.207,-35.156,-19.043,12.695
1688256335.589,-76.660,-9.277,-24.414,-15.137,167.969
1688256335.593,44.922,-13.184,-20.996,-29.785,142.090
1688256335.597,51.758,-22.949,-17.090,-53.223,-0.488
1688256335.600,-26.855,-31.250,-24.902,-49.805,-67.383
1688256335.604,-100.098,-26.367,-41.504,-8.789,193.359
1688256335.608,-73.730,-21.973,-45.410,-30.762,176.270
1688256335.612,11.230,-19.531,-39.062,-72.754,-127.930
1688256335.616,45.410,-16.113,-36.133,-62.500,-80.078
1688256335.618,-10.742,-20.996,-39.062,-57.617,-48.340
1688256335.622,-109.375,-26.367,-36.133,-33.203,-148.926
1688256335.626,-100.098,-25.391,-31.250,-3.906,-98.145
1688256335.630,38.086,-20.508,-21.484,-26.855,-6.836
1688256335.634,95.703,-21.973,-20.508,-62.012,-109.375
1688256335.638,1.465,-31.250,-15.625,-59.570,-208.496
1688256335.642,-120.117,-18.555,-14.160,-24.902,-100.098
1688256335.645,-130.859,-3.418,-29.297,-8.789,154.297
1688256335.649,-11.719,-7.812,-10.742,-34.180,236.328
1688256335.653,60.547,-27.832,7.324,-59.570,-145.020
1688256335.657,8.789,-38.086,-4.395,-44.434,-248.047
1688256335.661,-99.121,-21.484,-7.324,-6.348,-48.828
1688256335.678,-125.000,-7.812,-2.441,17.578,54.688
1688256335.682,-25.391,-10.742,-4.395,-12.207,-73.242
1688256335.686,22.461,-16.602,-7.324,-62.012,-185.059
1688256335.690,-1.953,-9.766,-8.301,-48.828,-20.508
1688256335.694,-67.383,-11.719,-14.160,-26.855,33.203
1688256335.698,-90.820,-20.020,-20.020,-22.949,81.055
1688256335.702,3.418,-27.832,-23.926,-34.180,122.559
1688256335.705,66.895,-40.527,-20.996,-43.457,223.145
1688256335.709,24.414,-36.621,-19.531,-44.922,114.746
1688256335.713,-81.055,-16.602,-17.578,-33.691,-277.832
1688256335.717,-152.344,-30.273,-6.836,-14.160,-105.957
1688256335.721,-49.316,-39.551,4.883,5.371,71.777
1688256335.711,63.477,-12.207,3.418,4.395,-122.070
1688256335.715,19.531,-0.488,-18.555,-53.223,-248.047
1688256335.719,-91.797,-7.812,-33.203,-64.941,12.695
1688256335.723,-154.297,-10.254,-24.414,-34.668,133.789
1688256335.727,-68.848,-4.883,-28.809,-47.363,-55.664
1688256335.731,40.039,-5.859,-35.645,-70.312,-55.176
1688256335.735,14.160,-21.484,-35.645,-72.754,93.262
1688256335.738,-60.547,-31.250,-55.176,-74.219,-11.230
1688256335.742,-130.859,-15.137,-49.316,-62.012,-146.973
1688256335.746,-125.000,-0.488,-36.621,-67.383,-180.176
1688256335.750,-39.551,-8.301,-34.668,-80.078,47.852
1688256335.754,10.742,-9.277,-34.180,-64.453,107.910
1688256335.753,-23.438,-2.441,-42.969,-83.984,-238.281
1688256335.757,-117.188,-36.621,-39.551,-72.754,-113.770
1688256335.761,-123.047,-53.711,-46.387,-46.875,19.531
1688256335.765,-12.207,-15.137,-53.711,-65.918,-32.227
1688256335.769,49.805,6.836,-38.574,-79.102,-41.992
1688256335.773,-20.508,0.488,-39.062,-74.219,-71.777
1688256335.777,-135.742,-8.301,-38.574,-56.641,338.379
1688256335.780,-115.723,-12.207,-20.020,-55.176,543.945
1688256335.784,1.465,-17.090,-15.137,-70.312,-11.719
1688256335.788,50.781,-25.879,-30.273,-58.594,-264.648
1688256335.792,27.344,-31.250,-43.945,-35.156,-260.742
1688256335.796,-75.684,-34.668,-38.574,-15.137,-266.602
1688256335.799,-97.656,-32.715,-39.062,-1.953,-173.340
1688256335.803,14.648,-24.414,-37.109,-15.137,-51.270
1688256335.807,45.898,-23.926,-29.785,-45.410,-93.262
1688256335.811,-16.602,-28.320,-17.090,-47.363,-216.309
1688256335.815,-98.145,-34.668,-9.277,-19.531,-192.383
1688256335.819,-104.492,-43.945,-15.625,4.395,162.109
1688256335.823,3.418,-33.691,-21.973,18.066,195.801
1688256335.826,78.613,-24.902,-27.832,-13.672,-69.824
1688256335.830,45.410,-14.648,-33.691,-36.133,-162.598
1688256335.834,-57.129,-8.301,-36.621,-3.418,83.984
1688256335.838,-105.469,-6.348,-48.340,0.977,265.137
1688256335.842,-25.391,-8.301,-47.363,-23.926,-83.496
1688256335.858,69.336,-28.320,-27.832,-46.387,-225.586
1688256335.862,57.129,-32.715,-13.184,-53.711,-229.980
1688256335.866,-55.664,-23.438,-7.324,-28.320,-187.988
1688256335.870,-125.977,-13.184,-9.766,0.977,-58.594
1688256335.874,-26.855,2.441,-18.555,-0.977,65.918
1688256335.878,70.312,7.812,-26.855,-3.906,313.965
1688256335.882,38.086,-0.488,-29.785,-7.812,182.617
1688256335.885,-52.734,-8.301,-19.043,-29.297,-202.637
1688256335.889,-115.234,-27.344,-12.695,-19.043,-74.219
1688256335.893,-44.434,-40.527,-18.555,-11.230,130.859
1688256335.897,50.781,-43.945,-17.578,-29.297,-102.051
1688256335.901,42.969,-40.527,-8.301,-23.926,-309.570
1688256335.902,-40.527,-33.691,-12.695,-5.371,-118.652
1688256335.906,-121.582,-34.668,-21.484,-6.348,33.203
1688256335.910,-64.941,-35.645,-27.832,-18.066,-90.332
1688256335.914,42.480,-21.973,-29.297,-14.648,-253.906
1688256335.918,39.062,-13.672,-27.344,-20.508,-95.215
1688256335.922,-52.734,-22.461,-40.527,-37.109,80.566
1688256335.926,-121.582,-31.250,-35.645,-31.738,-4.395
1688256335.929,-72.266,-30.762,-29.297,-17.578,-89.355
1688256335.933,47.363,-23.926,-45.410,-12.207,68.359
1688256335.937,67.383,-20.996,-28.809,-27.344,131.836
1688256335.941,-6.836,-34.668,-2.930,-33.203,-177.734
1688256335.945,-94.727,-37.598,-7.812,-15.625,-97.168
1688256335.947,-79.102,-26.367,-19.043,-17.090,149.902
1688256335.951,39.062,-19.043,-24.414,-34.180,7.324
1688256335.955,60.547,-17.090,-22.461,-31.738,-252.441
1688256335.959,-14.160,-19.043,-23.926,-27.344,-161.133
1688256335.963,-98.633,-17.578,-26.367,-9.766,145.996
1688256335.967,-100.098,-25.391,-33.691,-17.090,139.648
1688256335.971,2.930,-35.156,-47.363,-47.363,-11.230
1688256335.974,52.734,-34.180,-40.039,-51.270,-73.730
1688256335.978,-4.883,-25.391,-23.926,-44.434,97.656
1688256335.982,-90.332,-23.926,-28.809,-10.254,31.738
1688256335.986,-99.121,-39.062,-17.090,10.742,-114.746
1688256335.990,-2.441,-49.316,-10.742,-18.555,-31.738
1688256335.995,45.898,-44.434,-33.203,-50.781,-116.699
1688256335.999,-13.184,-33.691,-35.156,-47.363,-233.887
1688256336.003,-102.539,-31.250,-24.414,-19.043,-141.602
1688256336.007,-145.020,-28.320,-25.391,-6.836,147.461
1688256336.011,-39.062,-21.973,-28.320,-28.320,92.773
1688256336.015,58.594,-21.973,-27.832,-47.852,-117.188
1688256336.019,22.949,-26.367,-32.227,-49.805,-122.559
1688256336.022,-69.336,-35.156,-26.367,-46.875,104.004
1688256336.026,-115.723,-44.922,-16.602,-25.879,276.855
1688256336.030,-32.715,-54.199,-19.043,-31.250,-20.020
1688256336.034,49.805,-49.316,-32.227,-53.711,-146.973
1688256336.038,30.762,-49.805,-46.387,-58.105,-187.500
1688256336.053,-45.410,-38.086,-36.621,-26.855,-228.516
1688256336.057,-108.398,-16.602,-28.320,5.859,-147.949
1688256336.061,-44.434,-20.508,-35.645,-8.789,-64.941
1688256336.065,52.734,-26.855,-35.645,-41.504,11.719
1688256336.069,18.555,-20.508,-24.902,-45.410,-12.695
1688256336.073,-59.570,-18.066,-17.578,-24.902,22.949
1688256336.077,-101.562,-16.602,-21.973,-10.254,148.438
1688256336.080,-43.457,-23.438,-29.297,-16.602,446.777
1688256336.084,51.758,-49.316,-32.715,-30.762,354.004
1688256336.088,44.434,-56.152,-36.621,-40.527,-220.215
1688256336.092,-44.922,-43.457,-19.043,-32.227,-284.180
1688256336.096,-115.723,-26.855,-14.648,-24.902,-148.926
1688256336.084,-81.543,-19.043,-37.598,-27.344,-131.348
1688256336.088,11.230,-20.508,-39.551,-34.180,-139.648
1688256336.092,34.180,-18.066,-26.855,-46.875,-171.387
1688256336.096,-29.785,-19.043,-22.461,-49.805,-159.180
1688256336.100,-125.000,-24.414,-25.879,-48.828,-88.867
1688256336.104,-106.934,-26.855,-23.438,-45.410,28.809
1688256336.108,9.766,-31.250,-18.555,-44.922,184.570
1688256336.111,45.898,-39.551,-16.113,-52.246,87.402
1688256336.115,-16.113,-51.270,-30.273,-58.105,-102.539
1688256336.119,-94.238,-36.133,-39.062,-44.434,-183.594
1688256336.123,-93.262,-14.648,-38.086,-25.879,108.398
1688256336.127,1.465,-13.672,-21.973,-26.855,349.121
1688256336.128,58.105,-6.836,-13.672,-27.832,-75.684
1688256336.132,-9.277,-15.625,-30.762,-19.531,-273.438
1688256336.136,-111.816,-32.715,-33.691,-13.672,-151.367
1688256336.140,-120.605,-31.250,-25.879,-13.672,-17.578
1688256336.144,-13.672,-26.367,-18.555,-25.879,-70.312
1688256336.148,52.734,-31.250,-20.996,-31.738,-83.008
1688256336.152,-7.324,-47.852,-24.414,-44.922,294.434
1688256336.155,-95.703,-52.246,-40.527,-41.992,265.625
1688256336.159,-118.164,-47.852,-59.082,-20.020,-183.105
1688256336.163,-39.062,-33.691,-38.086,-17.578,-155.762
1688256336.167,17.090,-15.625,-7.812,-32.227,-69.336
1688256336.171,0.977,-27.344,-3.418,-41.504,-227.539
1688256336.174,-50.781,-39.062,-7.812,-20.996,-252.930
1688256336.178,-110.352,-34.668,-10.742,-3.906,7.812
1688256336.182,-48.828,-35.645,-13.184,-13.184,98.633
1688256336.186,34.180,-34.180,-20.996,-21.973,-172.852
1688256336.190,23.926,-40.039,-35.156,-12.695,-299.316
1688256336.194,-38.086,-34.180,-23.926,1.465,-8.789
1688256336.198,-122.070,-15.137,-10.254,-16.602,138.672
1688256336.201,-70.801,-15.625,-17.090,-27.832,-107.910
1688256336.205,37.598,-26.855,-14.648,-36.621,-168.945
1688256336.209,27.344,-30.762,-27.832,-50.293,-59.570
1688256336.213,-53.711,-39.062,-55.176,-42.480,-54.688
1688256336.217,-123.047,-36.621,-61.523,-25.391,-99.609
1688256336.233,-59.082,-19.043,-39.551,-9.766,-58.105
1688256336.237,28.809,-16.602,-34.180,-33.691,181.152
1688256336.241,15.137,-13.184,-47.852,-71.289,124.023
1688256336.245,-52.734,-11.230,-42.480,-66.406,-101.562
1688256336.249,-117.676,-22.949,-30.762,-43.457,3.906
1688256336.253,-71.777,-24.414,-32.715,-26.367,262.695
1688256336.257,29.785,-15.137,-34.668,-37.109,218.262
1688256336.260,67.871,-15.625,-38.574,-61.523,-226.562
1688256336.264,0.000,-20.508,-37.598,-45.898,-184.082
1688256336.268,-116.699,-28.809,-21.973,-32.227,143.555
1688256336.272,-85.938,-39.062,-7.324,-32.227,1.953
1688256336.276,27.344,-26.367,-13.672,-35.156,-173.828
1688256336.279,37.109,-8.301,-36.621,-30.273,-140.625
1688256336.283,-26.367,-2.930,-35.156,-10.742,-188.477
1688256336.287,-79.102,-15.137,-29.785,-4.883,-94.238
1688256336.291,-41.504,-31.250,-29.297,-14.160,20.020
1688256336.295,19.043,-22.461,-10.742,-30.273,50.293
1688256336.299,19.043,-10.254,-4.883,-45.410,-29.297
1688256336.303,-20.020,-13.672,-13.672,-59.082,-179.688
1688256336.306,-89.355,-20.508,-29.785,-40.527,-185.547
1688256336.310,-95.215,-29.297,-33.691,-3.906,149.902
1688256336.314,5.371,-27.832,-20.020,5.859,229.492
1688256336.318,53.223,-23.926,-16.113,-15.625,-212.402
1688256336.322,18.066,-29.297,-16.113,-35.156,-260.742
1688256336.323,-58.594,-13.672,-27.344,-13.672,-99.609
1688256336.327,-100.586,-13.184,-32.227,-0.488,-45.410
1688256336.331,-13.184,-26.855,-7.324,-9.277,-100.098
1688256336.335,51.270,-18.555,-7.324,-18.066,-63.477
1688256336.339,15.137,-16.113,-9.277,-29.297,-35.156
1688256336.343,-55.664,-26.855,-3.418,-16.113,-18.555
1688256336.347,-108.398,-40.039,-21.973,-5.859,52.734
1688256336.350,-62.500,-38.574,-29.785,-27.344,8.301
1688256336.354,22.949,-34.668,-34.668,-35.156,222.168
1688256336.358,19.043,-37.109,-41.016,-31.738,303.223
1688256336.362,-60.547,-20.020,-37.598,-23.438,-63.477
1688256336.366,-117.676,-24.414,-29.785,-13.184,-28.809
1688256336.368,-51.758,-47.363,-9.277,-38.086,61.523
1688256336.372,32.715,-47.363,-6.836,-34.668,-138.672
1688256336.376,15.625,-37.109,-20.020,-7.812,-234.863
1688256336.380,-60.547,-31.250,-20.020,-14.648,-166.016
1688256336.384,-101.074,-24.902,-22.949,-27.344,-90.332
1688256336.388,-38.574,-20.996,-19.531,-28.809,5.371
1688256336.392,39.551,-9.277,-9.277,-50.293,-6.836
1688256336.395,31.250,1.953,-24.414,-54.199,56.152
1688256336.399,-41.016,-12.695,-41.016,-31.250,258.789
1688256336.403,-104.980,-26.855,-38.086,-7.324,65.918
1688256336.407,-53.711,-36.133,-26.855,-9.766,-100.098
1688256336.411,13.672,-46.387,-25.879,-49.316,-132.812
1688256336.412,19.043,-41.016,-34.180,-62.988,-203.613
1688256336.416,-17.090,-20.508,-35.156,-36.621,-276.855
1688256336.420,-82.031,-5.371,-30.273,3.906,-82.520
1688256336.424,-64.453,-11.719,-30.762,4.395,192.383
1688256336.428,8.301,-20.508,-26.855,-29.785,45.410
1688256336.432,52.246,-27.832,-25.391,-30.762,-60.547
1688256336.436,6.836,-22.949,-57.129,-31.250,-28.320
1688256336.439,-92.773,-21.484,-70.801,-26.855,256.836
1688256336.443,-95.703,-26.855,-23.926,-15.625,249.023
1688256336.447,-14.160,-22.949,0.488,-35.156,-184.082
1688256336.451,23.438,-27.832,-24.902,-62.988,-136.719
1688256336.455,-35.645,-35.645,-31.738,-56.641,-48.828
1688256336.459,-106.934,-35.156,-10.254,-39.551,-143.555
1688256336.463,-103.027,-45.898,-11.230,-34.668,-71.289
1688256336.467,-21.973,-47.363,-28.809,-31.250,-66.406
1688256336.471,19.043,-38.574,-34.668,-23.926,-145.508
1688256336.475,-20.996,-36.621,-37.598,-16.602,-238.281
1688256336.479,-78.613,-33.203,-40.527,-18.066,-150.879
1688256336.483,-97.656,-33.203,-30.273,-11.719,269.531
1688256336.486,-8.301,-26.855,-25.879,-19.531,328.125
1688256336.490,64.453,-21.484,-39.062,-35.645,-130.859
1688256336.494,21.484,-24.902,-34.180,-53.223,-268.555
1688256336.498,-67.871,-28.320,-10.254,-43.945,-191.406
1688256336.502,-91.797,-23.926,-8.301,-8.789,-91.309
1688256336.519,-2.441,-12.207,-27.832,-4.883,-81.055
1688256336.523,39.062,-12.695,-28.809,-31.738,-182.129
1688256336.527,-12.207,-16.113,-28.320,-48.828,-161.133
1688256336.531,-97.656,-15.625,-37.598,-34.180,-8.301
1688256336.535,-132.324,-26.367,-33.691,-7.812,50.293
1688256336.539,-47.852,-34.668,-25.879,-24.414,16.602
1688256336.543,19.531,-33.691,-32.227,-42.969,364.746
1688256336.546,6.348,-35.156,-42.480,-42.969,323.730
1688256336.550,-67.871,-33.203,-20.996,-36.133,-177.246
1688256336.554,-113.770,-34.668,-10.742,-16.602,-80.078
1688256336.558,-48.340,-32.715,-43.457,-29.297,18.555
1688256336.562,-1.465,-22.949,-54.688,-58.594,-148.438
1688256336.549,10.254,-23.926,-45.410,-60.547,-241.211
1688256336.553,-36.133,-22.949,-46.875,-37.109,-177.734
1688256336.557,-125.488,-15.625,-31.738,-17.578,-72.754
1688256336.561,-87.891,-16.602,-22.461,-25.391,19.043
1688256336.565,28.320,-23.438,-21.973,-61.523,-84.473
1688256336.569,39.062,-35.156,-14.160,-66.406,-37.109
1688256336.573,-31.250,-28.320,-18.066,-52.734,74.707
1688256336.576,-94.727,-12.695,-27.344,-34.180,-32.715
1688256336.580,-64.941,-13.672,-33.691,-24.902,-57.617
1688256336.584,38.086,-26.367,-27.832,-41.016,128.906
1688256336.588,36.133,-26.855,-21.973,-50.293,216.797
1688256336.592,-59.082,-26.367,-23.926,-43.945,-108.887
1688256336.607,-125.488,-28.809,-27.344,-27.344,-156.738
1688256336.611,-94.238,-21.484,-35.645,-28.809,-30.762
1688256336.615,-1.953,-24.902,-36.133,-43.457,-74.707
1688256336.619,21.484,-30.762,-41.504,-55.176,-158.691
1688256336.623,-30.273,-32.715,-38.086,-36.621,-162.598
1688256336.627,-106.934,-32.227,-38.086,-12.695,251.953
1688256336.631,-117.188,-29.785,-35.156,-17.578,340.820
1688256336.634,-22.461,-29.785,-25.879,-45.410,-16.113
1688256336.638,24.902,-38.574,-18.555,-57.617,-33.691
1688256336.642,-21.484,-50.781,-18.555,-44.922,78.613
1688256336.646,-91.797,-38.574,-29.297,-23.926,-47.852
1688256336.650,-104.004,-20.996,-30.273,-11.230,-183.594
1688256336.654,-8.301,-20.996,-26.855,-28.809,-100.098
1688256336.658,56.641,-28.809,-47.852,-53.223,-110.840
1688256336.662,12.695,-23.926,-52.734,-51.270,-215.332
1688256336.666,-76.172,-13.672,-38.574,-28.809,-171.875
1688256336.670,-102.051,-19.531,-36.133,-11.719,-0.977
1688256336.674,-15.625,-28.809,-25.391,-23.926,80.078
1688256336.678,46.875,-24.902,-28.320,-35.645,12.695
1688256336.681,18.555,-21.973,-27.832,-40.039,-168.945
1688256336.685,-37.109,-29.785,-7.324,-27.344,59.570
1688256336.689,-86.914,-30.762,-13.672,-8.301,369.629
1688256336.693,-35.645,-11.719,-38.574,-27.832,34.668
1688256336.697,44.434,4.395,-36.621,-48.828,-215.332
1688256336.699,31.738,-10.254,-22.461,-50.781,-255.859
1688256336.703,-54.688,-25.391,-13.672,-37.109,-250.000
1688256336.707,-111.816,-20.020,-17.090,-4.883,-188.477
1688256336.711,-39.062,-13.184,-9.277,-15.625,11.230
1688256336.715,46.875,-15.137,-4.883,-42.969,60.059
1688256336.719,37.598,-18.555,-19.531,-39.551,-129.395
1688256336.723,-40.527,-27.344,-27.832,-26.855,-49.316
1688256336.726,-99.121,-35.645,-33.203,4.883,26.367
1688256336.730,-61.523,-41.016,-41.504,19.043,285.645
1688256336.734,22.949,-34.180,-26.855,-20.020,225.586
1688256336.738,26.367,-26.855,-17.090,-51.270,-213.379
1688256336.742,-40.527,-28.320,-31.250,-47.363,-76.660
1688256336.743,-98.633,-22.461,-43.457,-34.180,110.352
1688256336.747,-63.965,-10.254,-29.297,-41.504,-17.090
1688256336.751,33.203,-4.883,-11.230,-60.059,-162.598
1688256336.755,44.922,-11.719,-10.254,-64.941,-232.422
1688256336.759,-20.020,-20.996,-11.719,-52.734,-228.027
1688256336.763,-98.633,-20.508,-26.855,-32.715,-44.434
1688256336.767,-95.703,-21.973,-27.344,-20.020,107.422
1688256336.770,-7.812,-29.785,-10.742,-38.574,183.105
1688256336.774,15.625,-24.902,-13.184,-66.895,167.969
1688256336.778,-30.762,-13.184,-26.855,-56.152,-154.297
1688256336.782,-88.379,-13.184,-32.227,-15.625,-152.832
1688256336.786,-84.473,-31.738,-28.809,-22.949,28.320
1688256336.789,0.488,-41.992,-33.203,-59.570,-55.664
1688256336.793,31.250,-39.062,-36.621,-62.988,-263.184
1688256336.797,-42.969,-52.246,-23.926,-47.852,-290.039
1688256336.801,-119.629,-41.016,-12.695,-17.090,52.246
1688256336.805,-94.727,-24.902,-5.371,7.324,202.637
1688256336.809,-4.883,-37.598,-13.184,-11.719,43.945
1688256336.813,30.762,-32.715,-24.414,-33.203,-6.836
1688256336.816,-1.465,-19.043,-23.926,-38.574,175.293
1688256336.820,-81.055,-28.809,-23.926,-44.434,126.953
1688256336.824,-110.352,-42.480,-30.762,-31.738,-125.977
1688256336.828,-16.602,-29.785,-30.273,-24.902,-81.055
1688256336.832,57.617,-5.371,-39.062,-44.922,-123.047
1688256336.834,26.855,-0.488,-55.176,-32.227,-233.398
1688256336.838,-51.758,-9.766,-39.062,-15.625,-205.566
1688256336.842,-96.680,-12.207,-13.672,3.906,-24.414
1688256336.846,-25.391,-18.066,-5.371,-1.465,75.195
1688256336.850,36.621,-23.438,0.488,-45.898,-45.410
1688256336.854,-3.418,-25.879,-10.254,-70.801,-200.684
1688256336.858,-65.430,-25.879,-20.508,-51.758,35.645
1688256336.861,-124.512,-17.090,-24.414,-36.621,357.422
1688256336.865,-82.031,-10.742,-20.508,-53.223,72.754
1688256336.869,18.066,-8.301,-14.648,-66.895,-183.594
1688256336.873,-2.930,-11.230,-18.066,-79.590,-193.848
1688256336.877,-87.402,-20.508,-24.414,-72.266,-188.477
1688256336.878,-141.602,-29.785,-26.855,-52.246,-108.398
1688256336.882,-108.398,-23.926,-14.160,-61.523,-25.879
1688256336.886,-41.992,-1.465,-14.648,-97.168,-84.961
1688256336.890,-62.500,7.812,-35.645,-133.301,-58.594
1688256336.894,-126.953,5.859,-44.922,-134.766,-66.406
1688256336.898,-199.219,6.836,-38.086,-108.887,-48.828
1688256336.902,-187.012,18.555,-18.066,-99.121,391.113
1688256336.905,-80.566,29.785,2.441,-112.793,454.590
1688256336.909,-37.598,29.297,2.930,-124.512,-140.625
1688256336.913,-77.148,33.691,-17.090,-93.750,-291.016
1688256336.917,-138.184,19.531,-42.480,-51.270,-138.184
1688256336.921,-113.770,-2.441,-52.246,-49.805,-92.285
1688256336.924,-32.715,11.719,-31.250,-66.406,-125.488
1688256336.928,-4.883,12.207,8.301,-82.031,-208.496
1688256336.932,-25.879,-14.160,8.789,-93.262,-187.500
1688256336.936,-80.566,-30.273,-13.184,-64.453,-95.703
1688256336.940,-72.266,-32.227,-24.414,-21.973,-46.875
1688256336.944,16.602,-34.180,-21.973,-29.297,67.383
1688256336.948,44.922,-22.461,-20.508,-45.898,117.676
1688256336.951,-0.488,-17.090,-25.391,-19.043,-64.941
1688256336.955,-67.871,-36.133,-30.762,15.625,-95.215
1688256336.959,-82.031,-48.828,-40.527,6.836,228.027
1688256336.963,2.930,-50.781,-25.391,-19.043,291.504
1688256336.967,69.336,-47.852,-19.043,-30.273,-151.367
1688256336.998,29.297,-43.457,-45.898,-21.484,-270.996
1688256337.002,-62.988,-39.551,-41.992,-1.465,-121.582
1688256337.006,-108.398,-55.176,-32.227,7.324,-87.402
1688256337.010,-27.832,-56.152,-32.227,-2.441,-105.957
1688256337.014,51.758,-46.387,-25.391,-23.926,-125.977
1688256337.018,25.879,-46.875,-27.832,-22.461,202.148
1688256337.022,-57.129,-33.203,-30.273,4.395,248.535
1688256337.025,-108.398,-30.273,-28.320,10.254,-84.473
1688256337.029,-21.973,-25.879,-34.180,-24.902,-59.082
1688256337.033,59.570,-18.066,-42.969,-54.199,-103.027
1688256337.037,44.434,-26.367,-41.016,-44.434,-276.367
1688256337.041,-22.461,-38.574,-41.504,-23.438,-166.016
1688256337.027,-83.008,-53.711,-37.598,-4.395,98.633
1688256337.031,-36.621,-61.035,-30.273,-1.465,189.453
1688256337.035,55.176,-49.805,-30.273,-33.203,-108.398
1688256337.039,33.691,-41.504,-38.086,-38.574,-271.484
1688256337.043,-50.293,-38.574,-43.457,-15.137,-158.203
1688256337.047,-91.797,-41.016,-36.133,-8.301,-5.859
1688256337.051,-48.340,-51.758,-23.926,-2.441,47.363
1688256337.054,36.133,-44.922,-16.602,-5.371,-83.008
1688256337.058,31.738,-34.180,-14.648,-18.066,-86.426
1688256337.062,-39.062,-30.762,-25.391,-7.324,-75.684
1688256337.066,-86.426,-18.066,-46.875,4.883,-102.051
1688256337.070,-22.461,-11.230,-40.527,-7.324,-21.484
1688256337.074,71.289,-28.320,-16.113,-15.625,193.848
1688256337.078,65.918,-34.668,-6.836,-25.391,255.371
1688256337.082,-6.836,-25.391,-5.859,-15.625,-23.438
1688256337.086,-88.379,-23.438,-12.695,18.555,-83.008
1688256337.090,-61.035,-22.461,-22.949,16.602,282.715
1688256337.094,37.109,-26.855,-35.156,-20.508,348.633
1688256337.098,56.152,-23.438,-38.574,-42.480,-71.289
1688256337.101,-3.906,-10.742,-31.250,-33.203,-160.645
1688256337.105,-75.684,-16.113,-26.855,-7.324,160.156
1688256337.109,-70.801,-32.227,-24.902,0.488,128.418
1688256337.113,17.090,-35.645,-22.461,-17.090,-223.145
1688256337.117,41.992,-36.133,-34.180,-40.039,-219.238
1688256337.119,-10.254,-39.062,-44.922,-27.832,-179.199
1688256337.123,-74.707,-41.992,-40.039,-3.906,-175.293
1688256337.127,-78.125,-45.410,-31.250,-12.695,-93.262
1688256337.131,3.906,-43.945,-22.949,-33.691,-26.855
1688256337.135,39.062,-27.832,-20.996,-46.387,-79.590
1688256337.139,4.883,-25.391,-24.414,-43.945,-125.977
1688256337.143,-68.359,-35.645,-18.555,-34.180,-95.215
1688256337.146,-96.680,-35.156,-6.836,-12.695,167.969
1688256337.150,-24.902,-37.109,-8.789,-15.137,328.125
1688256337.154,21.973,-39.551,-33.691,-47.852,-99.609
1688256337.158,-10.742,-42.480,-49.805,-47.363,-302.734
1688256337.162,-84.961,-41.992,-35.156,-28.320,-119.141
1688256337.162,-108.887,-37.109,-33.203,-8.301,6.348
1688256337.166,-16.602,-37.598,-37.109,-13.184,-78.613
1688256337.170,42.480,-41.992,-18.066,-48.340,-146.973
1688256337.174,7.812,-49.805,-12.207,-36.621,-37.598
1688256337.178,-65.918,-42.969,-22.461,-14.160,-18.555
1688256337.182,-97.656,-34.180,-28.320,-21.484,1.465
1688256337.186,-22.949,-34.180,-24.902,-37.109,56.641
1688256337.189,52.734,-27.832,-19.531,-42.969,346.680
1688256337.193,39.062,-22.461,-26.367,-35.156,348.633
1688256337.197,-38.574,-22.949,-20.996,-11.719,-102.051
1688256337.201,-86.914,-29.785,-16.113,-3.906,-106.934
1688256337.205,-29.785,-34.180,-15.625,-33.691,-32.227
1688256337.224,43.457,-31.738,-12.207,-51.758,-182.617
1688256337.228,40.039,-29.297,-18.066,-44.434,-262.695
1688256337.232,-36.621,-26.855,-16.602,-11.230,-143.066
1688256337.236,-106.445,-26.367,-24.414,13.672,4.395
1688256337.240,-38.086,-24.414,-36.133,2.930,17.578
1688256337.244,43.945,-18.555,-28.809,-17.090,-13.672
1688256337.248,34.180,-24.414,-24.902,-24.414,138.672
1688256337.251,-36.133,-39.062,-39.551,-20.508,155.273
1688256337.255,-117.676,-26.855,-41.992,-24.414,-126.953
1688256337.259,-98.145,-24.414,-34.180,-26.367,-96.680
1688256337.263,-3.906,-30.273,-40.527,-41.504,22.461
1688256337.267,30.762,-23.438,-25.391,-65.918,-119.629
1688256337.252,-29.785,-35.645,-6.348,-49.805,-254.883
1688256337.256,-108.887,-41.992,-15.137,-16.113,-127.930
1688256337.260,-99.121,-31.738,-22.461,-22.461,40.039
1688256337.264,-5.371,-31.738,-23.926,-50.781,20.020
1688256337.268,28.809,-37.109,-22.949,-81.055,-213.379
1688256337.272,-17.090,-31.738,-20.020,-76.172,-131.348
1688256337.276,-88.867,-11.719,-22.461,-32.227,136.719
1688256337.279,-84.961,0.000,-15.625,-4.883,39.062
1688256337.283,-0.977,-0.977,-7.324,-21.973,-154.785
1688256337.287,24.902,5.371,-14.160,-63.477,-190.918
1688256337.291,-28.320,13.184,-19.531,-78.125,182.129
1688256337.295,-121.094,9.277,-18.066,-69.336,312.500
1688256337.301,-158.691,2.930,-12.695,-64.453,-65.430
1688256337.305,-70.312,0.977,-17.090,-94.727,-75.195
1688256337.309,-10.254,3.906,-23.438,-125.000,-36.133
1688256337.313,-71.777,19.043,-18.066,-126.953,-254.395
1688256337.317,-173.340,35.156,-20.020,-118.164,-243.164
1688256337.321,-226.562,34.668,-10.742,-136.230,88.867
1688256337.325,-153.320,25.879,-4.395,-173.340,136.719
1688256337.328,-82.031,32.227,-18.066,-188.477,-194.336
1688256337.332,-110.840,34.180,-36.621,-175.293,-291.992
1688256337.336,-188.477,28.809,-35.645,-165.527,-17.578
1688256337.340,-215.820,39.062,-10.742,-139.160,94.727
1688256337.344,-127.930,47.852,-6.836,-143.066,-93.750
1688256337.358,-51.270,51.758,-8.789,-174.316,-193.848
1688256337.362,-94.727,43.945,-1.953,-162.598,-223.633
1688256337.366,-177.734,23.438,-4.395,-132.812,-94.727
1688256337.370,-187.012,-0.977,-11.719,-102.539,58.594
1688256337.374,-125.977,-10.254,-3.418,-95.215,90.820
1688256337.378,-79.102,4.883,3.418,-98.633,263.184
1688256337.382,-69.336,13.184,6.836,-125.000,254.883
1688256337.385,-118.652,14.160,7.324,-108.398,-139.160
1688256337.389,-161.133,-0.488,-0.488,-48.340,-135.254
1688256337.393,-80.078,-24.414,-14.160,-56.152,-19.043
1688256337.397,6.836,-36.621,-6.348,-88.379,-177.734
1688256337.401,-7.324,-41.992,19.043,-81.055,-301.758
1688256337.402,-64.941,-46.387,9.766,-52.734,-231.934
1688256337.406,-125.488,-46.875,-14.160,-20.996,-69.824
1688256337.410,-83.496,-47.363,-19.043,-7.324,-91.309
1688256337.414,42.480,-68.848,-18.066,6.348,-213.867
1688256337.418,53.711,-81.543,-24.902,-2.930,-108.887
1688256337.422,-11.719,-75.195,-22.949,1.465,31.738
1688256337.426,-76.660,-63.965,-16.113,18.555,24.414
1688256337.429,-50.781,-58.105,-19.043,10.742,-66.895
1688256337.433,65.430,-67.383,-14.648,23.438,65.918
1688256337.437,79.590,-72.754,-15.625,21.973,217.773
1688256337.441,33.203,-78.613,-21.973,37.109,-98.633
1688256337.445,-16.113,-78.613,-31.250,71.777,-153.809
1688256337.447,-29.297,-73.242,-42.969,52.734,-23.438
1688256337.451,55.664,-73.242,-29.297,16.602,-85.938
1688256337.455,101.074,-69.824,-20.020,22.949,-235.840
1688256337.459,48.828,-73.242,-29.297,27.832,-175.781
1688256337.463,-43.945,-72.754,-34.180,41.016,90.332
1688256337.467,-46.875,-55.664,-30.273,57.617,189.941
1688256337.471,74.707,-55.176,-23.438,43.945,105.469
1688256337.474,119.629,-74.219,-35.156,24.414,-64.941
1688256337.478,54.199,-77.148,-49.316,30.273,143.066
1688256337.482,-43.457,-60.059,-47.363,41.016,193.848
1688256337.486,-74.707,-59.570,-42.969,52.734,-102.539
1688256337.490,36.133,-55.664,-30.762,48.828,-54.688
1688256337.494,113.281,-38.086,-16.113,28.320,-69.336
1688256337.498,63.477,-30.762,-21.973,21.973,-172.852
1688256337.502,-16.113,-34.180,-40.039,32.227,-179.688
1688256337.506,-48.340,-33.203,-25.879,45.410,53.223
1688256337.510,10.254,-31.250,-12.695,50.293,128.906
1688256337.514,77.148,-34.668,-20.508,41.016,-1.953
1688256337.518,78.125,-41.504,-32.715,3.418,-93.262
1688256337.521,3.418,-56.641,-39.551,8.789,99.609
1688256337.525,-55.176,-69.824,-38.574,31.250,320.312
1688256337.529,-5.371,-57.129,-34.180,17.578,23.926
1688256337.533,68.848,-39.551,-22.461,2.930,-148.926
1688256337.537,68.848,-28.320,-33.691,-6.836,-69.824
1688256337.537,-2.930,-26.367,-37.598,11.230,-95.703
1688256337.541,-71.289,-33.203,-17.578,35.645,-129.395
1688256337.545,-19.043,-36.621,-7.324,27.832,-67.383
1688256337.549,70.801,-37.109,-12.207,3.418,0.000
1688256337.553,70.312,-25.879,-24.902,-5.371,-57.617
1688256337.557,-9.766,-28.809,-33.691,2.930,-60.059
1688256337.561,-83.496,-47.363,-40.039,12.207,108.398
1688256337.564,-43.945,-49.805,-52.734,10.254,235.840
1688256337.568,62.500,-42.969,-50.293,-4.883,33.691
1688256337.572,85.938,-33.203,-43.945,-5.859,-266.113
1688256337.576,0.000,-33.203,-34.668,12.207,-163.086
1688256337.580,-91.309,-38.574,-33.691,23.438,136.230
1688256337.585,-65.918,-25.391,-32.715,21.484,77.637
1688256337.589,46.387,-20.020,-21.484,-10.742,-189.941
1688256337.593,82.031,-22.949,-24.902,-17.090,-126.953
1688256337.597,10.254,-21.484,-26.855,5.859,-44.434
1688256337.601,-73.730,-20.020,-33.203,28.320,-128.418
1688256337.605,-70.312,-26.855,-29.785,21.973,-66.895
1688256337.609,26.855,-43.457,-27.344,-5.371,258.789
1688256337.612,69.824,-38.574,-34.180,-29.297,260.742
1688256337.616,6.836,-26.855,-31.738,-31.738,-190.918
1688256337.620,-82.031,-29.785,-42.969,10.742,-182.129
1688256337.624,-74.219,-30.273,-38.574,24.902,-42.480
1688256337.628,19.531,-25.879,-17.578,-19.043,-71.777
1688256337.642,59.570,-27.344,-15.137,-42.480,-141.113
1688256337.646,19.531,-39.551,-18.555,-39.551,-163.086
1688256337.650,-72.754,-52.246,-24.414,-36.133,-53.711
1688256337.654,-103.027,-39.551,-29.785,-21.484,62.012
1688256337.658,-10.742,-14.160,-20.996,-22.949,60.547
1688256337.662,55.176,-11.719,-13.184,-27.832,11.719
1688256337.666,12.207,-17.090,-20.020,-17.578,278.809
1688256337.669,-85.938,-32.227,-26.367,-8.789,408.691
1688256337.673,-119.629,-52.734,-27.344,-15.625,-7.812
1688256337.677,-38.574,-54.688,-24.414,-24.902,-162.109
1688256337.681,42.969,-42.480,-22.949,-36.621,-156.738
1688256337.685,19.531,-23.438,-14.648,-43.945,-256.348
1688256337.674,-74.707,-19.043,-14.160,-15.137,-219.727
1688256337.678,-119.141,-22.949,-17.090,9.766,-66.406
1688256337.682,-29.297,-23.438,-17.578,-14.160,-21.973
1688256337.686,49.316,-28.320,-26.855,-22.461,-127.930
1688256337.690,29.785,-36.621,-29.785,-5.859,-186.035
1688256337.694,-28.320,-47.852,-26.855,3.418,16.602
1688256337.698,-97.656,-46.387,-28.320,-7.324,93.750
1688256337.701,-50.293,-35.645,-29.297,-20.508,-8.301
1688256337.705,42.969,-26.367,-16.113,-27.344,-142.578
1688256337.709,25.391,-21.973,-5.371,-25.879,-7.324
1688256337.713,-45.410,-21.973,-14.648,-20.020,165.039
1688256337.717,-123.047,-22.461,-27.832,-8.301,-74.219
1688256337.733,-83.008,-23.438,-38.574,-11.719,-98.145
1688256337.737,30.762,-25.391,-30.762,-33.203,-80.566
1688256337.741,45.410,-23.926,-22.949,-34.668,-147.461
1688256337.745,-37.109,-26.855,-35.156,-23.926,-165.039
1688256337.749,-121.582,-34.668,-30.273,-12.207,-90.820
1688256337.753,-76.172,-31.738,-17.578,0.977,383.301
1688256337.757,17.578,-29.785,-22.461,-5.859,312.012
1688256337.760,36.621,-38.086,-19.043,-47.363,-163.086
1688256337.764,-22.461,-41.992,-15.625,-58.594,-107.422
1688256337.768,-106.445,-28.809,-33.691,-35.645,-21.484
1688256337.772,-95.703,-23.926,-46.875,-30.273,-58.594
1688256337.776,8.789,-29.785,-34.180,-37.109,-174.316
1688256337.778,45.410,-30.762,-17.578,-38.086,-116.211
1688256337.782,-25.391,-23.438,-26.855,-31.250,66.895
1688256337.786,-114.258,-17.090,-30.273,-18.555,-33.203
1688256337.790,-117.188,-15.137,-27.344,-0.977,-97.168
1688256337.794,-11.719,-21.973,-32.227,-18.555,-63.477
1688256337.798,51.270,-25.879,-21.973,-45.410,-89.844
1688256337.802,-7.812,-27.344,-18.066,-48.340,-119.629
1688256337.805,-98.145,-30.762,-34.180,-27.344,-166.016
1688256337.809,-98.633,-30.762,-36.621,-9.766,111.328
1688256337.813,20.508,-27.344,-22.461,-21.973,232.422
1688256337.817,75.684,-32.715,-16.602,-21.484,-103.027
1688256337.821,3.906,-36.133,-17.578,-22.949,-251.953
1688256337.823,-89.355,-30.762,-18.555,-8.789,88.379
1688256337.827,-114.746,-30.273,-21.973,12.695,280.273
1688256337.831,-22.949,-29.297,-36.133,-13.184,-48.340
1688256337.835,61.523,-28.320,-52.246,-29.785,-88.867
1688256337.839,16.602,-32.227,-53.711,-33.203,-14.160
1688256337.843,-80.566,-38.086,-33.691,-35.645,-55.176
1688256337.847,-114.258,-38.574,-7.324,-14.648,-46.875
1688256337.850,-32.227,-37.109,-3.418,-6.836,-17.578
1688256337.854,38.086,-41.992,-27.832,-30.762,146.484
1688256337.858,7.812,-51.270,-32.227,-49.316,62.988
1688256337.862,-84.473,-46.387,-24.902,-26.367,-217.773
1688256337.866,-143.555,-38.574,-36.621,6.836,-133.789
1688256337.870,-56.641,-40.527,-41.016,-22.949,-10.254
1688256337.874,60.059,-52.734,-44.434,-56.641,-167.480
1688256337.878,41.504,-41.992,-43.457,-43.457,-299.805
1688256337.882,-87.402,-21.973,-23.926,-56.152,-111.816
1688256337.886,-174.316,-37.109,-13.672,-64.941,3.906
1688256337.890,-96.680,-44.922,-27.832,-50.781,-43.457
1688256337.894,5.371,-43.945,-39.551,-63.965,-86.426
1688256337.897,-3.906,-48.340,-32.227,-90.332,-10.742
1688256337.901,-73.242,-47.852,-15.625,-74.219,127.930
1688256337.905,-160.156,-47.363,-6.836,-58.594,-73.730
1688256337.909,-118.164,-52.246,-14.648,-55.176,-115.723
1688256337.913,-22.461,-59.082,-21.484,-70.312,-144.531
1688256337.912,-4.395,-48.340,-2.441,-71.777,-213.867
1688256337.916,-43.945,-38.086,-1.465,-30.762,-196.777
1688256337.920,-143.555,-38.086,-15.625,-32.715,-79.102
1688256337.924,-125.977,-42.969,3.418,-49.316,147.461
1688256337.928,-7.324,-41.016,13.672,-64.941,86.914
1688256337.932,21.484,-36.621,-6.836,-69.336,-126.465
1688256337.936,-33.203,-31.250,-29.785,-65.430,-170.898
1688256337.939,-104.980,-34.180,-26.855,-53.223,203.125
1688256337.943,-118.652,-41.992,-23.438,-40.039,346.191
1688256337.947,-18.555,-41.992,-30.762,-48.828,-97.168
1688256337.951,59.082,-44.434,-24.902,-57.617,-211.426
1688256337.955,-13.184,-45.410,-15.625,-44.434,-195.312
1688256337.959,-122.070,-35.156,-17.578,-30.762,-192.871
1688256337.963,-122.559,-22.949,-18.066,-22.949,-114.258
1688256337.967,-17.578,-29.785,-19.043,-28.809,-84.473
1688256337.971,35.645,-41.016,-22.461,-50.293,-155.273
1688256337.975,-9.277,-35.156,-25.879,-54.688,-222.656
1688256337.979,-86.426,-33.203,-25.391,-21.973,-120.117
1688256337.983,-118.164,-43.945,-28.809,-3.418,252.441
1688256337.986,-26.367,-44.922,-29.785,-22.949,428.711
1688256337.990,46.387,-32.715,-31.250,-45.410,-61.035
1688256337.994,8.789,-34.180,-46.875,-58.594,-304.688
1688256337.998,-88.379,-36.621,-43.457,-44.922,-135.254
1688256338.002,-134.766,-34.180,-26.855,-28.320,-43.457
1688256338.002,-47.852,-38.086,-20.996,-25.879,-90.820
1688256338.006,42.969,-32.227,-25.391,-38.086,-163.574
1688256338.010,29.785,-31.738,-35.645,-41.504,-160.156
1688256338.014,-62.500,-28.320,-22.949,-14.648,-81.055
1688256338.018,-109.863,-26.367,-12.695,10.254,-59.082
1688256338.022,-20.996,-38.086,-23.438,-6.836,-35.156
1688256338.026,61.523,-42.969,-31.250,-33.203,300.293
1688256338.029,21.484,-38.086,-26.367,-49.805,367.188
1688256338.033,-68.848,-26.367,-21.484,-58.594,-73.730
1688256338.037,-128.418,-24.902,-21.484,-36.133,-74.707
1688256338.041,-55.664,-32.715,-20.996,-25.391,75.684
1688256338.045,55.664,-37.109,-24.414,-45.410,-97.656
1688256338.050,40.039,-36.621,-18.555,-49.805,-236.816
1688256338.054,-54.688,-28.809,-8.789,-28.320,-137.695
1688256338.058,-127.930,-24.414,-12.695,-14.160,-5.859
1688256338.062,-77.637,-28.320,-18.555,-24.414,-62.012
1688256338.066,30.762,-31.250,-15.625,-36.133,-115.234
1688256338.070,49.805,-33.691,-20.508,-43.945,-46.387
1688256338.074,-31.250,-28.320,-36.133,-41.016,-21.973
1688256338.077,-131.836,-21.484,-37.598,-25.879,-23.926
1688256338.081,-97.168,-21.484,-25.391,-45.410,-71.777
1688256338.085,35.645,-21.484,-24.414,-55.664,95.703
1688256338.089,47.363,-21.973,-25.879,-46.875,188.477
1688256338.093,-56.152,-18.066,-20.020,-58.594,-51.270
1688256338.108,-152.344,-16.113,-12.695,-61.035,-102.539
1688256338.112,-112.305,-18.555,-11.230,-44.434,76.172
1688256338.116,-4.395,-21.484,-13.672,-51.758,122.559
1688256338.120,20.508,-19.531,-12.207,-66.895,0.977
1688256338.124,-29.297,-18.066,-10.254,-59.082,-12.695
1688256338.128,-133.789,-17.090,-18.555,-47.852,401.855
1688256338.132,-159.180,-19.043,-21.484,-48.828,667.969
1688256338.135,-47.852,-36.133,-14.160,-60.059,110.840
1688256338.139,28.320,-33.691,-13.672,-56.641,-185.059
1688256338.143,-26.855,-24.902,-18.555,-85.449,-187.988
1688256338.147,-135.254,-8.789,-19.043,-100.586,-271.973
1688256338.151,-183.594,3.906,-6.348,-89.844,-227.051
1688256338.168,-99.121,-10.742,-9.277,-125.488,-47.852
1688256338.172,-19.043,-2.930,-9.277,-140.625,-66.895
1688256338.176,-55.664,10.742,-0.488,-140.137,-298.828
1688256338.180,-170.898,11.719,-1.953,-138.184,-248.047
1688256338.184,-235.352,10.254,-4.395,-123.047,-0.977
1688256338.188,-166.016,26.367,-5.859,-157.715,143.555
1688256338.192,-110.840,28.320,-3.418,-199.219,20.508
1688256338.195,-102.051,19.531,-9.277,-194.824,-183.594
1688256338.199,-141.602,30.273,-14.648,-184.082,0.488
1688256338.203,-222.656,24.414,-16.113,-166.504,318.848
1688256338.207,-147.949,17.578,-10.742,-140.137,42.480
1688256338.211,-68.848,29.297,-12.207,-151.855,-177.734
1688256338.197,-85.449,27.344,-16.113,-175.781,-162.598
1688256338.201,-117.676,23.438,-14.160,-148.926,-136.230
1688256338.205,-161.133,7.324,-18.555,-117.676,-90.332
1688256338.209,-111.816,0.977,-22.461,-90.332,-35.645
1688256338.213,-36.133,14.648,-34.668,-87.891,227.051
1688256338.217,-40.527,20.020,-39.062,-124.023,234.375
1688256338.221,-67.871,15.137,-35.156,-85.449,-88.379
1688256338.224,-117.676,0.977,-37.109,-35.156,-75.195
1688256338.228,-80.078,-8.301,-36.621,-59.570,16.113
1688256338.232,31.250,-9.766,-27.344,-63.965,-108.887
1688256338.236,42.969,-40.527,-38.574,-32.715,-278.320
1688256338.240,-4.395,-40.527,-75.195,-18.555,-174.805
1688256338.243,-87.402,-11.719,-63.477,-30.273,265.137
1688256338.247,-75.684,-3.418,-29.297,-54.688,137.207
1688256338.251,46.875,-5.859,-24.414,-68.359,-191.895
1688256338.255,50.781,-20.508,-43.457,-62.500,-175.781
1688256338.259,-13.672,-44.922,-53.223,-18.555,-182.129
1688256338.263,-72.266,-43.945,-52.734,0.977,-100.098
1688256338.267,-72.754,-30.762,-74.219,-38.086,27.344
1688256338.270,27.344,-28.809,-90.820,-44.434,247.070
1688256338.274,112.305,-39.062,-81.055,-51.758,336.426
1688256338.278,75.195,-32.715,-60.059,-42.969,-36.621
1688256338.282,-50.781,-41.504,-40.527,8.789,-150.879
1688256338.286,-55.664,-55.664,-45.410,44.434,-20.996
1688256338.287,29.297,-31.738,-47.363,20.020,-63.965
1688256338.291,81.055,-25.391,-55.176,-19.531,-264.160
1688256338.295,58.105,-42.480,-59.570,10.254,-275.879
1688256338.299,-8.301,-38.574,-47.852,62.988,-44.922
1688256338.303,-46.875,-31.738,-51.758,77.148,53.223
1688256338.307,8.301,-36.621,-66.406,33.203,105.469
1688256338.311,76.172,-41.504,-62.988,-2.930,-1.953
1688256338.314,59.570,-44.434,-52.734,22.949,109.375
1688256338.318,2.441,-59.082,-50.781,67.871,270.508
1688256338.322,-59.570,-63.477,-45.898,75.195,26.855
1688256338.326,1.953,-41.016,-48.340,44.434,-32.227
1688256338.330,108.887,-30.273,-54.688,8.789,-0.488
1688256338.334,97.168,-27.832,-50.293,27.832,-154.297
1688256338.338,3.418,-32.715,-55.176,68.848,-180.176
1688256338.342,-58.105,-38.086,-53.223,49.316,41.504
1688256338.346,13.672,-35.645,-43.457,26.855,124.512
1688256338.350,86.914,-49.805,-47.852,-5.371,-105.469
1688256338.354,54.688,-62.988,-40.527,-23.926,-225.586
1688256338.358,-24.902,-58.105,-44.434,30.762,140.625
1688256338.361,-81.543,-57.617,-54.688,59.082,386.230
1688256338.365,-37.598,-50.781,-40.527,7.812,0.488
1688256338.369,56.152,-28.809,-34.180,-19.531,-233.887
1688256338.373,65.430,-19.043,-31.738,-15.137,-191.406
1688256338.377,-9.766,-36.621,-40.039,9.766,-113.281
1688256338.377,-72.754,-44.922,-52.734,46.875,-125.488
1688256338.381,-39.062,-40.039,-44.434,52.246,-109.863
1688256338.385,64.941,-42.969,-30.273,20.020,-39.062
1688256338.389,85.449,-46.875,-37.598,2.441,-23.926
1688256338.393,24.902,-56.152,-45.410,15.625,-108.887
1688256338.397,-56.641,-68.848,-44.434,49.805,-94.238
1688256338.401,-57.617,-74.707,-48.340,88.867,270.020
1688256338.404,57.129,-74.707,-45.410,65.918,271.973
1688256338.408,92.285,-48.340,-37.598,14.160,-203.613
1688256338.412,8.789,-31.250,-34.668,14.648,-217.773
1688256338.416,-49.316,-35.645,-37.109,33.691,-105.469
1688256338.420,-32.227,-38.086,-32.715,37.109,-127.930
1688256338.425,58.594,-41.504,-22.461,36.621,-199.707
1688256338.429,110.352,-47.363,-16.113,52.734,-36.621
1688256338.433,48.340,-54.688,-15.625,55.176,51.758
1688256338.437,-19.531,-55.176,-17.090,62.012,-106.934
1688256338.441,-31.738,-51.270,-20.508,40.527,-88.379
1688256338.445,36.133,-42.480,-23.926,25.879,121.582
1688256338.449,90.332,-41.016,-21.973,40.039,113.281
1688256338.452,62.988,-47.852,-26.855,50.293,-147.949
1688256338.456,-4.883,-48.828,-31.250,69.336,-211.914
1688256338.460,-41.504,-48.828,-29.297,67.871,84.473
1688256338.464,26.367,-45.410,-30.762,50.781,137.207
1688256338.468,90.820,-45.898,-42.969,41.016,-140.137
1688256338.482,78.613,-64.453,-43.945,35.645,-154.785
1688256338.486,17.578,-68.359,-17.578,58.105,-70.312
1688256338.490,-23.926,-58.594,-0.977,69.336,-2.930
1688256338.494,11.230,-52.734,-8.789,46.387,21.973
1688256338.498,56.152,-41.992,-13.672,33.691,-54.688
1688256338.502,47.852,-37.598,-14.160,32.715,196.289
1688256338.506,-16.113,-37.109,-27.344,23.438,397.461
1688256338.509,-50.293,-39.062,-32.227,11.230,-0.488
1688256338.513,-3.906,-41.504,-19.531,0.488,-57.129
1688256338.517,55.664,-37.109,-15.625,-4.395,62.012
1688256338.521,66.406,-40.039,-18.066,3.418,-198.730
1688256338.525,-5.859,-40.039,-14.160,7.812,-267.090
1688256338.527,-72.266,-39.551,-22.461,26.367,-79.590
1688256338.531,-39.062,-45.410,-30.273,30.273,-55.664
1688256338.535,51.270,-36.621,-35.645,-5.371,-136.230
1688256338.539,57.617,-30.762,-43.945,-17.578,-177.734
1688256338.543,-12.207,-31.250,-37.598,-8.789,-102.051
1688256338.547,-67.383,-26.367,-24.902,10.254,60.059
1688256338.551,-33.691,-23.926,-22.461,14.648,101.074
1688256338.554,46.387,-30.273,-26.855,-0.488,14.160
1688256338.558,58.594,-38.574,-33.203,-6.836,44.434
1688256338.562,-3.418,-43.457,-45.898,-8.301,218.750
1688256338.566,-79.102,-39.062,-52.246,3.906,25.879
1688256338.570,-62.012,-26.855,-43.457,-1.465,-108.887
1688256338.572,13.184,-21.484,-29.297,-22.461,-124.023
1688256338.576,23.438,-19.043,-22.949,-23.438,-213.867
1688256338.580,-26.367,-28.809,-23.926,-13.672,-229.980
1688256338.584,-86.914,-40.039,-34.180,1.465,-19.043
1688256338.588,-72.754,-40.527,-31.738,-4.395,225.586
1688256338.592,1.953,-35.156,-23.438,-34.668,161.621
1688256338.596,31.250,-27.832,-22.461,-39.062,18.066
1688256338.599,10.254,-28.320,-18.066,-31.738,-113.770
1688256338.603,-65.918,-40.527,-23.438,-10.742,191.406
1688256338.607,-94.238,-50.293,-29.785,10.254,251.465
1688256338.611,-9.277,-46.875,-31.738,-18.066,-181.152
1688256338.615,62.988,-33.691,-33.691,-43.457,-198.730
1688256338.618,36.621,-27.832,-30.762,-31.738,-118.652
1688256338.622,-41.992,-36.621,-26.855,4.395,-134.766
1688256338.626,-82.520,-35.156,-25.879,23.438,-91.797
1688256338.630,-26.367,-28.320,-26.855,2.441,-35.645
1688256338.634,37.598,-31.250,-33.203,-21.484,-130.859
1688256338.638,14.648,-34.668,-28.809,-9.766,-143.066
1688256338.642,-50.293,-35.156,-29.297,7.324,6.348
1688256338.645,-77.637,-31.738,-33.691,12.207,219.727
1688256338.649,-12.207,-29.297,-31.738,0.000,221.191
1688256338.653,39.062,-38.086,-40.039,-24.414,-173.340
1688256338.657,12.207,-44.922,-36.621,-37.109,-275.879
1688256338.661,-44.922,-43.945,-34.180,-26.855,-37.109
1688256338.664,-74.219,-46.387,-32.715,0.488,-3.906
1688256338.668,-19.531,-48.828,-22.461,-11.719,-118.164
1688256338.672,56.641,-48.340,-23.926,-36.621,-142.578
1688256338.676,33.691,-48.828,-29.785,-44.434,-21.484
1688256338.680,-64.941,-44.922,-35.156,-42.480,-48.828
1688256338.684,-108.887,-31.738,-31.738,-17.090,-98.145
1688256338.688,-42.969,-24.902,-20.996,-3.906,-3.418
1688256338.691,16.113,-30.273,-10.254,-17.090,234.375
1688256338.695,19.043,-33.691,-14.160,-45.410,138.672
1688256338.699,-37.598,-44.922,-22.461,-50.781,-198.730
1688256338.703,-81.055,-46.387,-24.414,-14.648,-61.035
1688256338.707,-41.016,-39.062,-27.832,2.441,-8.789
1688256338.710,25.391,-38.574,-40.527,-16.602,-161.621
1688256338.714,27.344,-39.551,-41.016,-28.809,-163.574
1688256338.718,-32.715,-36.133,-20.996,-26.855,72.754
1688256338.722,-98.145,-29.785,-13.184,-17.090,83.496
1688256338.726,-59.570,-26.855,-17.090,-8.789,-60.547
1688256338.730,34.668,-22.461,-19.531,-26.367,-71.289
1688256338.734,44.922,-25.391,-24.414,-43.457,34.668
1688256338.737,-18.555,-33.691,-33.203,-43.457,242.188
1688256338.741,-93.750,-40.039,-42.480,-25.879,93.750
1688256338.745,-74.219,-40.527,-43.457,-13.672,-69.336
1688256338.749,4.883,-37.598,-36.621,-28.809,-143.555
1688256338.753,25.391,-32.227,-37.109,-34.668,-234.375
1688256338.753,-11.719,-26.855,-42.480,0.000,-236.328
1688256338.757,-80.078,-27.344,-32.227,22.461,-131.348
1688256338.761,-69.824,-27.832,-18.555,-7.812,-48.340
1688256338.765,4.883,-27.344,-19.043,-42.480,-54.688
1688256338.769,35.156,-21.973,-26.367,-50.293,-56.641
1688256338.773,4.883,-27.344,-25.879,-41.992,-77.637
1688256338.777,-55.176,-36.621,-31.250,-15.137,250.000
1688256338.780,-62.500,-36.621,-42.969,-1.465,533.691
1688256338.784,7.324,-27.344,-38.086,-20.020,49.805
1688256338.788,52.734,-25.391,-22.949,-30.273,-252.441
1688256338.792,30.762,-38.086,-23.438,-28.320,-189.453
1688256338.796,-55.176,-37.109,-31.250,-10.742,-185.059
1688256338.799,-110.352,-29.785,-33.691,0.977,-143.066
1688256338.803,-49.805,-39.551,-30.273,-10.742,-125.977
1688256338.807,19.043,-41.992,-31.738,-33.203,-155.762
1688256338.811,12.695,-32.227,-31.250,-36.621,-221.191
1688256338.815,-42.480,-39.062,-20.996,-4.395,-214.844
1688256338.819,-63.965,-39.551,-21.973,1.465,75.195
1688256338.823,-30.762,-30.273,-19.043,-12.695,198.242
1688256338.826,9.766,-21.973,-15.137,-15.625,-25.391
1688256338.830,23.438,-22.949,-16.113,-33.203,-194.824
1688256338.834,-28.320,-29.785,-12.207,-36.133,14.648
1688256338.838,-80.078,-26.367,-11.719,-13.672,289.062
1688256338.842,2.930,-11.230,-9.766,-11.719,18.555
1688256338.858,72.266,-4.395,-10.254,-17.578,-86.914
1688256338.862,27.832,-17.578,-5.859,-17.578,-71.777
1688256338.866,-29.297,-30.273,-12.695,-20.020,-120.605
1688256338.870,-65.430,-36.133,-30.273,-13.184,-19.531
1688256338.874,-45.410,-46.387,-23.438,-16.602,11.230
1688256338.878,6.348,-52.246,-10.254,-22.461,188.477
1688256338.882,7.812,-47.363,-5.859,-13.672,187.988
1688256338.885,-38.086,-45.898,-6.836,-2.930,-229.492
1688256338.889,-89.844,-46.387,-19.043,-5.859,-111.328
1688256338.893,-75.684,-44.922,-18.555,-30.273,221.680
1688256338.897,-8.301,-45.898,-6.836,-46.387,-31.250
1688256338.901,25.879,-52.734,-12.207,-50.781,-312.500
1688256338.902,-22.461,-53.711,-16.602,-45.410,-156.738
1688256338.906,-96.680,-46.387,-20.508,-16.602,-8.789
1688256338.910,-82.031,-44.434,-31.250,-7.324,-51.758
1688256338.914,0.488,-42.480,-28.809,-25.879,-147.461
1688256338.918,24.414,-45.410,-21.973,-32.227,-183.105
1688256338.922,-17.090,-47.852,-26.855,-23.926,-114.258
1688256338.926,-81.543,-38.574,-29.785,-6.348,-19.043
1688256338.929,-96.191,-35.156,-36.621,-6.348,-39.062
1688256338.933,-22.461,-32.227,-44.434,-22.949,80.566
1688256338.937,40.039,-30.762,-38.086,-37.598,141.602
1688256338.941,6.348,-33.203,-38.086,-46.875,-192.871
1688256338.945,-70.801,-30.273,-39.551,-25.879,-145.996
1688256338.947,-91.797,-27.832,-26.855,6.348,126.953
1688256338.951,-22.461,-33.203,-14.160,-13.672,-5.859
1688256338.955,20.508,-38.574,-12.695,-47.363,-191.895
1688256338.959,-9.766,-33.691,-23.926,-48.340,-107.422
1688256338.963,-75.684,-29.297,-33.691,-38.574,72.266
1688256338.967,-95.703,-34.180,-39.551,-34.668,187.012
1688256338.971,-26.367,-33.691,-40.527,-45.898,53.223
1688256338.974,28.809,-26.367,-25.879,-55.664,-154.785
1688256338.978,21.973,-25.391,-26.855,-43.945,15.625
1688256338.982,-46.387,-31.738,-33.203,-16.113,10.742
1688256338.986,-85.938,-30.273,-35.156,-0.977,-139.648
1688256338.990,-32.227,-31.738,-52.246,-15.625,-41.504
1688256338.995,27.344,-37.109,-51.758,-45.410,-122.559
1688256338.999,39.062,-34.180,-38.574,-41.504,-231.934
1688256339.003,-34.668,-24.902,-27.344,-20.996,-158.203
1688256339.007,-92.773,-17.578,-13.184,13.672,100.098
1688256339.011,-39.551,-20.996,-20.508,20.996,173.340
1688256339.015,17.578,-19.531,-39.062,-30.273,-56.152
1688256339.019,10.742,-13.184,-33.203,-55.176,-156.250
1688256339.022,-46.875,-8.789,-30.273,-43.457,62.012
1688256339.026,-93.750,-17.578,-41.016,-22.949,288.086
1688256339.030,-50.781,-19.531,-34.180,-41.016,49.805
1688256339.034,21.973,-15.137,-32.715,-72.754,-137.695
1688256339.038,21.973,-20.020,-45.410,-71.289,-172.852
1688256339.038,-28.320,-20.508,-41.992,-53.223,-209.473
1688256339.042,-86.426,-24.902,-28.809,-31.738,-143.066
1688256339.046,-60.547,-27.832,-21.973,-22.949,-22.949
1688256339.050,9.277,-34.180,-23.926,-26.855,32.715
1688256339.054,29.785,-44.434,-25.391,-25.391,-75.195
1688256339.058,-7.324,-44.922,-27.832,-18.066,-96.680
1688256339.062,-94.238,-33.203,-32.227,-5.371,78.125
1688256339.065,-76.172,-25.879,-32.227,7.812,385.742
1688256339.069,21.973,-21.973,-30.273,-16.602,359.375
1688256339.073,48.828,-21.484,-30.762,-57.129,-185.059
1688256339.077,-0.488,-24.902,-30.762,-48.828,-301.270
1688256339.081,-72.754,-31.738,-22.461,-0.488,-116.699
1688256339.087,-81.055,-39.062,-20.020,10.254,-83.496
1688256339.091,-27.832,-29.785,-20.996,-26.367,-131.836
1688256339.095,5.371,-20.508,-21.973,-60.059,-148.926
1688256339.099,-24.414,-20.996,-42.480,-47.363,-172.852
1688256339.103,-84.473,-28.809,-53.711,-23.438,-145.996
1688256339.107,-82.031,-26.367,-40.039,-27.344,-2.441
1688256339.111,-8.301,-17.578,-24.414,-46.387,314.453
1688256339.114,33.203,-24.414,-18.066,-53.223,338.379
1688256339.118,-2.930,-29.785,-18.066,-44.434,-146.484
1688256339.122,-58.105,-33.203,-31.250,-29.785,-237.793
1688256339.126,-85.449,-38.574,-38.574,-25.391,20.508
1688256339.130,-34.668,-35.645,-38.574,-46.875,19.531
1688256339.127,39.551,-26.855,-48.828,-61.035,-220.703
1688256339.131,35.645,-27.832,-32.715,-47.852,-262.207
1688256339.135,-43.457,-31.738,-18.066,-21.973,-84.473
1688256339.139,-94.238,-36.621,-23.926,-9.766,66.895
1688256339.143,-40.039,-36.621,-12.207,-13.184,-34.180
1688256339.147,-2.441,-35.156,-7.812,-56.152,-96.191
1688256339.151,-26.367,-42.969,-8.789,-60.547,249.512
1688256339.154,-79.102,-43.945,-14.648,-28.320,311.035
1688256339.158,-115.234,-37.109,-21.484,-8.301,-44.434
1688256339.162,-41.016,-42.480,-21.973,-1.465,5.371
1688256339.166,30.762,-45.898,-39.062,-36.621,0.977
1688256339.170,-2.930,-31.250,-42.969,-41.504,-219.727
1688256339.174,-64.453,-25.879,-25.879,-9.277,-239.258
1688256339.178,-91.309,-30.762,-22.949,3.906,4.395
1688256339.182,-40.527,-29.297,-33.691,-2.441,134.277
1688256339.186,23.438,-22.949,-30.273,-47.363,-78.613
1688256339.190,22.949,-23.438,-24.414,-62.500,-242.188
1688256339.194,-33.691,-37.109,-33.691,-16.113,-9.766
1688256339.198,-93.750,-44.922,-40.527,2.930,160.156
1688256339.201,-30.273,-37.598,-47.363,-36.133,-31.738
1688256339.205,38.574,-21.973,-45.898,-79.590,-161.621
1688256339.209,20.996,-18.066,-38.574,-72.754,-58.594
1688256339.213,-20.020,-20.508,-43.457,-48.340,-4.395
1688256339.217,-80.078,-20.996,-54.688,-7.324,-69.824
1688256339.234,-64.453,-37.109,-57.617,17.578,50.781
1688256339.238,0.488,-46.875,-34.180,1.465,58.594
1688256339.242,2.441,-46.387,-8.789,29.785,-139.648
1688256339.246,-43.945,-33.203,-18.066,46.387,-201.660
1688256339.250,-83.008,-32.715,-26.855,-0.977,-45.898
1688256339.254,-45.898,-42.969,-25.391,-21.973,353.027
1688256339.258,-0.977,-26.855,-41.016,-63.477,445.312
1688256339.261,0.977,-23.926,-33.691,-102.051,-139.648
1688256339.265,-11.230,-25.391,-24.902,-27.344,-266.113
1688256339.269,-82.520,-24.414,-35.645,24.902,-22.949
1688256339.273,-99.609,-27.344,-14.160,-11.719,-73.242
1688256339.277,-19.043,-11.719,-17.090,-96.680,-187.988
1688256339.279,50.781,-20.508,-86.914,-114.746,-192.871
1688256339.283,7.324,-43.457,-64.941,-44.434,-184.082
1688256339.287,-93.262,-19.531,-28.809,-0.977,-87.402
1688256339.291,-107.910,-5.859,-96.191,-2.930,4.395
1688256339.295,-56.152,-42.480,-58.594,-93.262,78.125
1688256339.299,-19.531,-81.543,40.039,-128.906,65.430
1688256339.303,-68.359,-63.477,37.598,-90.820,-87.402
1688256339.306,-143.066,-15.137,-60.547,-85.449,-177.734
1688256339.310,-187.012,-14.648,-104.980,-101.562,65.430
1688256339.314,-162.598,0.000,-41.992,-78.613,325.195
1688256339.318,-108.887,29.785,42.969,-116.211,-56.152
1688256339.322,-143.555,-43.457,108.887,-224.121,-312.988
1688256339.322,-239.258,-78.613,105.957,-229.980,-235.840
1688256339.326,-295.410,-24.414,67.383,-202.148,-78.613
1688256339.330,-229.492,-23.926,1.953,-198.242,-21.973
1688256339.334,-135.742,-40.527,-42.969,-208.496,-76.172
1688256339.338,-104.980,-40.527,-42.969,-209.473,33.203
1688256339.342,-168.945,-19.531,-26.367,-163.086,46.387
1688256339.346,-233.398,-10.254,20.996,-104.980,-14.160
1688256339.349,-183.105,-31.738,54.199,-103.516,45.410
1688256339.353,-95.215,-7.812,64.453,-158.203,267.578
1688256339.357,-114.746,-2.930,34.180,-206.543,136.230
1688256339.361,-154.785,-27.832,30.762,-180.176,-215.332
1688256339.365,-170.898,-40.039,60.059,-122.070,-37.109
1688256339.369,-158.691,-21.484,58.594,-133.301,27.344
1688256339.373,-92.285,-2.441,73.730,-155.762,-207.520
1688256339.377,-61.523,-20.996,139.160,-147.461,-258.301
1688256339.381,-92.285,-29.297,159.180,-116.211,-98.145
1688256339.385,-141.602,-35.645,101.562,-80.566,-20.996
1688256339.389,-99.121,-36.133,84.473,-64.453,50.781
1688256339.393,-15.625,2.441,134.277,-71.777,-23.438
1688256339.396,-4.395,20.996,133.789,-97.656,50.293
1688256339.400,-58.594,-1.465,111.328,-92.285,277.832
1688256339.404,-138.184,-15.625,107.910,-73.730,37.109
1688256339.408,-120.117,-27.832,72.266,-74.219,-103.027
1688256339.412,-28.320,-38.086,30.273,-77.637,-102.539
1688256339.413,14.648,-40.527,23.438,-78.613,-187.988
1688256339.417,-7.812,-53.223,39.551,-67.383,-241.211
1688256339.421,-118.164,-55.664,48.828,-53.711,-153.320
1688256339.425,-121.094,-38.086,48.340,-31.738,92.773
1688256339.429,-16.113,-17.090,51.270,-55.176,19.531
1688256339.433,21.973,-3.418,39.551,-84.473,-202.637
1688256339.437,1.465,-11.719,23.926,-56.152,-179.199
1688256339.440,-74.707,-21.973,28.320,-13.184,145.508
1688256339.444,-96.680,-19.043,41.992,2.441,168.945
1688256339.448,-21.973,-18.555,41.504,-25.879,-58.594
1688256339.452,37.598,-18.066,21.484,-35.645,-77.637
1688256339.456,11.719,-14.648,10.742,-9.766,81.543
1688256339.459,-75.684,-19.043,0.977,-2.441,74.707
1688256339.463,-90.332,-17.090,3.418,-1.465,-106.445
1688256339.467,8.301,-9.277,20.508,-4.395,-77.637
1688256339.471,66.406,-6.348,18.066,-30.762,-165.527
1688256339.475,48.828,-7.324,2.441,-25.879,-275.391
1688256339.479,-11.230,-11.230,-6.836,-9.766,-224.121
1688256339.483,-65.918,-14.648,7.812,4.395,166.016
1688256339.486,-3.418,-8.789,10.254,3.418,325.684
1688256339.490,77.637,2.930,1.953,-1.465,-148.438
1688256339.494,58.594,-6.348,9.766,-3.418,-313.477
1688256339.498,-26.367,-23.438,-0.488,-16.113,-165.527
1688256339.502,-84.473,-22.949,-20.508,16.602,-63.477
1688256339.503,-21.484,-25.879,-6.836,27.344,-55.664
1688256339.507,54.688,-29.785,4.395,5.371,-155.273
1688256339.511,51.758,-12.695,-7.812,0.000,-130.859
1688256339.515,-20.996,-11.230,-2.930,14.648,3.906
1688256339.519,-100.098,-31.250,-11.719,2.930,-3.418
1688256339.523,-39.062,-26.367,-12.695,-16.602,-9.766
1688256339.527,57.129,-19.531,13.184,-22.949,278.809
1688256339.530,28.320,-28.809,4.883,-39.551,236.328
1688256339.534,-45.410,-27.832,-21.484,-20.020,-175.293
1688256339.538,-87.402,-19.043,-12.695,19.043,-102.539
1688256339.542,-30.762,-5.371,6.348,-0.977,-32.227
1688256339.546,58.594,-4.883,-2.441,-25.391,-180.664
1688256339.549,60.059,-20.020,-4.883,-30.762,-242.188
1688256339.553,-4.395,-27.832,-4.395,-32.715,-121.094
1688256339.557,-92.773,-31.250,-5.859,-3.906,88.379
1688256339.561,-75.195,-31.250,-13.184,13.672,97.168
1688256339.565,24.902,-24.902,-28.320,-11.719,-127.441
1688256339.569,44.434,-28.320,-28.320,-38.086,-11.719
1688256339.573,-20.508,-28.809,-24.414,-23.438,306.152
1688256339.576,-87.891,-16.113,-11.719,8.789,98.633
1688256339.580,-63.965,-18.066,-9.277,10.254,-33.203
1688256339.584,27.832,-25.391,-16.602,-25.391,10.254
1688256339.588,66.406,-29.297,-17.578,-16.113,-132.324
1688256339.592,35.156,-7.324,-20.508,8.301,-247.070
1688256339.622,-59.082,14.160,-17.578,-2.930,-103.516
1688256339.626,-114.746,-19.531,-29.297,-35.645,38.086
1688256339.630,-22.461,-38.086,-52.246,-67.383,-16.113
1688256339.634,53.711,-33.203,-93.750,-65.430,-70.801
1688256339.638,12.207,-34.668,-102.539,-34.180,-143.066
1688256339.642,-78.125,-24.902,-72.266,-36.133,190.918
1688256339.646,-114.746,-11.230,-68.848,-47.363,321.777
1688256339.649,-33.203,-12.695,-74.707,-72.266,-20.996
1688256339.653,30.762,-23.438,-77.637,-79.102,-136.230
1688256339.657,5.371,-20.020,-81.055,-56.152,50.781
1688256339.661,-74.219,-20.508,-101.074,-33.203,-11.719
1688256339.665,-115.234,-34.180,-116.699,-15.625,-169.922
1688256339.668,-104.980,-21.484,-67.871,20.996,-20.508
1688256339.672,-41.992,-16.113,-41.016,-10.742,131.836
1688256339.676,13.184,-31.738,-42.969,-35.645,-3.906
1688256339.679,3.418,-50.293,-47.363,-20.996,-141.113
1688256339.683,-57.617,-42.969,-61.523,-13.672,18.066
1688256339.687,-126.465,-27.832,-62.988,-39.551,81.543
1688256339.691,-59.082,-29.785,-48.828,-63.965,-17.578
1688256339.695,29.297,-30.762,-54.688,-65.918,-125.000
1688256339.698,19.043,-30.762,-59.082,-54.199,55.176
1688256339.702,-39.551,-37.598,-63.965,-20.996,265.137
1688256339.706,-104.004,-46.387,-69.336,-0.977,22.461
1688256339.710,-63.477,-54.688,-53.223,-1.953,53.711
1688256339.714,23.438,-55.176,-40.039,-20.996,187.012
1688256339.718,46.387,-47.363,-34.180,-38.574,-20.020
1688256339.722,-16.113,-38.574,-29.785,-27.344,-168.457
1688256339.725,-110.840,-39.062,-25.879,-22.949,-67.383
1688256339.729,-74.219,-32.227,-23.438,-37.109,186.523
1688256339.733,37.109,-18.066,-34.668,-47.852,47.852
1688256339.737,56.641,-23.926,-47.852,-56.641,-219.727
1688256339.741,-8.789,-32.715,-41.016,-26.855,-89.355
1688256339.743,-97.168,-40.039,-31.250,20.020,7.324
1688256339.747,-86.914,-55.176,-37.109,10.254,-95.215
1688256339.751,11.230,-40.039,-45.410,-34.668,-157.227
1688256339.755,27.832,-25.391,-29.297,-61.035,-187.012
1688256339.759,-34.668,-38.086,0.977,-52.246,-172.852
1688256339.763,-105.957,-40.527,12.207,-11.719,-62.012
1688256339.767,-77.148,-24.414,8.301,-9.277,32.227
1688256339.770,29.785,-24.902,-11.230,-54.688,144.531
1688256339.774,56.641,-35.645,-10.254,-65.430,162.109
1688256339.778,4.883,-25.391,-2.930,-62.012,-138.672
1688256339.782,-64.941,-22.949,-7.812,-16.602,-195.312
1688256339.786,-87.402,-30.762,1.465,23.926,-45.898
1688256339.788,-3.906,-23.926,10.742,-21.973,-29.297
1688256339.792,60.547,-13.184,21.973,-63.477,-123.535
1688256339.796,21.484,-19.531,16.113,-66.895,-233.398
1688256339.800,-66.895,-22.949,8.789,-33.203,173.828
1688256339.804,-117.676,-11.230,8.301,-12.695,348.145
1688256339.808,-41.992,-13.184,-1.953,-24.902,70.801
1688256339.812,42.969,-19.043,-23.438,-32.227,-54.199
1688256339.815,14.160,-29.785,-24.902,-46.387,119.141
1688256339.819,-56.641,-38.086,8.301,-32.227,109.863
1688256339.823,-100.098,-32.227,17.578,6.348,-155.762
1688256339.827,-27.832,-33.691,18.066,-9.766,-73.730
1688256339.831,66.406,-38.574,34.668,-38.574,-104.492
1688256339.834,35.156,-43.457,32.227,-52.246,-233.887
1688256339.838,-66.406,-30.273,-1.953,-55.176,-216.309
1688256339.842,-129.883,-17.578,-20.508,-7.812,-17.578
1688256339.846,-72.754,-13.672,-13.672,4.883,95.215
1688256339.850,0.000,-12.695,-6.348,-46.875,-69.336
1688256339.854,-5.371,-19.531,1.465,-88.867,-142.578
1688256339.858,-62.500,-18.066,8.789,-81.055,101.562
1688256339.861,-129.883,-25.879,19.043,-40.039,335.449
1688256339.865,-78.613,-25.879,25.879,-23.926,-1.465
1688256339.869,12.207,-21.484,9.766,-30.762,-260.742
1688256339.873,31.250,-24.414,-1.953,-41.992,-48.828
1688256339.877,-28.809,-23.438,19.043,-39.062,-16.113
1688256339.878,-106.445,-25.879,2.441,7.324,-181.641
1688256339.882,-61.523,-20.996,-26.367,1.465,-86.914
1688256339.886,47.363,-18.066,7.324,-41.016,-36.621
1688256339.890,64.453,-14.160,36.133,-63.965,-93.262
1688256339.894,-2.441,0.488,27.344,-54.688,-170.898
1688256339.898,-73.242,-7.324,16.602,-23.926,-90.820
1688256339.902,-56.641,-19.531,14.648,2.930,410.645
1688256339.905,15.625,-24.902,9.766,-3.418,552.734
1688256339.909,43.457,-26.855,9.766,-38.574,-94.238
1688256339.913,16.113,-27.832,7.812,-34.180,-285.156
1688256339.917,-76.172,-25.879,8.301,-2.930,-110.840
1688256339.921,-84.473,-10.742,1.465,11.719,-127.930
1688256339.937,7.324,-6.836,-9.277,-7.324,-158.203
1688256339.941,30.762,-9.766,3.418,-24.902,-162.598
1688256339.945,-13.672,-6.348,9.277,-43.945,-136.719
1688256339.949,-104.980,-21.973,-15.137,-37.109,-76.660
1688256339.953,-123.535,-31.250,-23.926,-24.902,-44.922
1688256339.957,-17.578,-21.484,-0.488,-41.992,93.262
1688256339.961,42.480,-16.602,4.883,-48.340,108.398
1688256339.964,0.000,-22.461,6.348,-30.273,-162.109
1688256339.968,-86.426,-28.809,12.695,-5.859,-138.184
1688256339.972,-119.141,-31.250,4.395,-6.348,159.668
1688256339.976,-20.996,-32.715,-8.301,-36.133,193.848
1688256339.980,48.828,-30.762,-2.441,-56.641,-184.082
1688256339.982,18.066,-25.391,9.766,-47.363,-280.762
1688256339.986,-52.246,-12.207,14.648,-24.902,-60.059
1688256339.990,-82.031,-16.113,2.930,-14.160,28.809
1688256339.994,0.000,-31.250,-11.719,-15.625,-31.738
1688256339.998,53.711,-40.039,5.859,-18.555,-55.176
1688256340.002,35.156,-39.551,19.043,-28.809,67.871
1688256340.006,-35.156,-32.227,-1.953,-14.648,144.043
1688256340.009,-129.395,-15.137,-4.395,20.020,-11.230
1688256340.013,-59.570,-12.207,10.254,0.488,5.859
1688256340.017,34.668,-21.973,10.254,-48.828,182.617
1688256340.021,6.836,-21.484,-8.301,-67.383,21.973
1688256340.025,-61.523,-32.227,-9.277,-71.777,-221.680
1688256340.027,-113.281,-34.668,-7.324,-37.109,-86.914
1688256340.031,-51.270,-27.344,-14.160,-25.879,75.195
1688256340.035,38.086,-21.973,-2.441,-51.758,-112.305
1688256340.039,30.762,-28.809,-5.859,-79.590,-269.531
1688256340.043,-35.156,-38.574,-13.672,-69.824,-142.090
1688256340.047,-104.004,-38.574,-10.742,-32.227,57.617
1688256340.051,-77.148,-44.922,7.812,-36.133,42.969
1688256340.054,11.719,-41.504,3.906,-59.082,-157.227
1688256340.058,44.922,-31.250,-13.184,-44.922,-87.891
1688256340.062,-30.762,-23.926,5.371,-6.348,154.297
1688256340.066,-111.328,-23.438,8.301,-7.812,4.883
1688256340.070,-76.660,-33.203,-8.301,-15.625,-44.434
1688256340.073,13.672,-34.668,-24.902,-25.879,-70.801
1688256340.077,49.805,-24.902,-24.902,-27.344,-157.227
1688256340.081,-5.371,-9.277,-10.254,-16.113,-219.238
1688256340.085,-93.262,-7.324,4.395,-15.137,-89.355
1688256340.089,-91.309,-18.555,9.277,-15.137,235.840
1688256340.093,-0.977,-29.297,-7.812,-33.691,232.910
1688256340.097,30.273,-33.691,-10.742,-72.754,-73.730
1688256340.100,-15.137,-41.016,-9.277,-74.219,-178.711
1688256340.104,-93.750,-36.133,-22.461,-41.504,145.996
1688256340.108,-64.453,-27.832,-43.457,-41.504,185.547
1688256340.112,19.043,-26.855,-33.203,-45.410,-165.039
1688256340.116,21.484,-22.461,-1.953,-25.391,-167.969
1688256340.119,-13.672,-21.484,-10.742,-17.578,-122.559
1688256340.123,-101.562,-24.902,-8.301,-12.695,-202.637
1688256340.127,-121.094,-34.180,14.648,-11.719,-120.117
1688256340.131,-3.906,-31.250,5.371,-33.203,7.812
1688256340.135,43.457,-27.832,-8.301,-59.570,-45.410
1688256340.139,0.000,-29.297,-6.836,-72.754,-188.477
1688256340.143,-83.496,-35.156,-1.953,-52.246,-207.031
1688256340.146,-126.465,-44.922,-12.695,-34.668,113.770
1688256340.150,-33.203,-38.086,-27.344,-41.504,365.723
1688256340.154,51.758,-19.531,-14.648,-47.363,-12.207
1688256340.158,21.973,-16.113,-4.883,-35.645,-254.395
1688256340.162,-76.660,-22.461,-5.371,-22.461,-146.973
1688256340.178,-124.512,-27.832,-4.883,-1.953,-15.137
1688256340.182,-45.410,-25.391,-17.578,0.000,-72.754
1688256340.186,31.738,-32.715,-30.762,-38.086,-159.180
1688256340.190,20.020,-45.410,-24.902,-53.223,9.766
1688256340.194,-54.199,-36.621,-7.324,-37.109,-3.906
1688256340.198,-103.027,-28.809,1.465,-28.320,-15.625
1688256340.202,-36.133,-24.902,-6.836,-45.898,87.402
1688256340.205,33.691,-21.484,-14.648,-66.406,333.984
1688256340.209,12.695,-22.461,-15.137,-54.199,403.320
1688256340.213,-71.289,-28.320,-8.789,-51.270,-66.406
1688256340.217,-130.859,-38.574,-21.484,-39.062,-153.320
1688256340.221,-67.871,-35.156,-31.250,-18.066,7.324
1688256340.209,13.184,-26.367,-24.414,-36.621,-142.578
1688256340.213,18.555,-25.391,-24.902,-58.105,-298.828
1688256340.217,-34.180,-32.715,-9.766,-16.602,-217.285
1688256340.221,-116.699,-35.645,-4.395,24.414,-100.098
1688256340.225,-76.172,-47.852,-8.301,-20.020,-94.238
1688256340.229,30.762,-44.922,-7.812,-49.316,-61.523
1688256340.233,46.387,0.000,1.465,-51.270,62.988
1688256340.236,-18.555,5.859,5.371,-56.641,-24.414
1688256340.240,-108.398,-14.160,-27.344,-42.969,-90.820
1688256340.244,-97.656,-10.742,-35.645,-29.785,-12.207
1688256340.248,19.043,-3.906,-12.695,-33.203,116.699
1688256340.252,52.246,-13.184,-3.418,-51.758,240.234
1688256340.252,-27.832,-32.715,-14.648,-65.430,-98.145
1688256340.256,-104.980,-39.062,-20.508,-31.738,-185.547
1688256340.260,-94.238,-31.738,-28.809,3.906,-1.953
1688256340.264,0.488,-30.273,-42.969,-10.742,-20.996
1688256340.268,34.180,-24.414,-13.184,-43.457,-210.449
1688256340.272,-17.090,-12.207,5.859,-60.547,-219.238
1688256340.276,-101.074,-16.113,-4.395,-37.109,325.195
1688256340.279,-117.188,-29.297,4.395,-9.277,351.562
1688256340.283,-20.020,-21.973,0.977,-34.668,-127.930
1688256340.287,31.738,-17.578,-15.625,-58.594,-170.410
1688256340.291,-9.766,-28.320,-17.090,-43.457,7.812
1688256340.295,-83.984,-32.227,-22.949,-18.555,54.199
1688256340.301,-98.633,-27.832,-44.434,-1.465,-99.121
1688256340.305,-11.230,-24.902,-35.156,-23.438,-61.035
1688256340.309,42.969,-26.367,-0.488,-46.387,-58.105
1688256340.313,7.812,-24.902,11.719,-39.062,-201.172
1688256340.317,-71.777,-23.438,7.324,-23.438,-213.867
1688256340.321,-110.352,-36.133,-15.625,-25.391,128.418
1688256340.325,-31.738,-37.598,-18.066,-44.922,331.543
1688256340.328,54.688,-27.832,-10.254,-46.387,-97.168
1688256340.332,39.551,-23.926,-24.902,-21.484,-285.156
1688256340.336,-49.316,-19.043,-31.250,-12.695,-80.078
1688256340.340,-108.887,-20.020,-18.066,-18.555,53.223
1688256340.344,-49.316,-23.438,-11.230,-19.043,-11.719
1688256340.357,35.156,-24.902,-10.742,-22.461,-121.582
1688256340.361,30.762,-21.973,-13.184,-29.785,-95.215
1688256340.365,-27.832,-21.484,-17.090,-28.809,-55.664
1688256340.369,-107.422,-18.066,-11.719,-10.254,-16.113
1688256340.373,-74.707,-13.672,-9.766,-1.465,21.484
1688256340.377,24.414,-24.414,-10.742,-10.254,289.062
1688256340.381,17.090,-29.785,-20.996,-26.367,383.789
1688256340.384,-44.922,-31.250,-33.203,-39.551,-147.949
1688256340.388,-106.934,-43.457,-35.156,-19.531,-196.289
1688256340.392,-73.242,-43.457,-26.855,-26.367,11.230
1688256340.396,26.367,-36.133,-19.531,-56.641,-103.027
1688256340.400,46.387,-43.945,-19.043,-58.594,-270.020
1688256340.403,-19.531,-47.363,-23.438,-40.527,-216.797
1688256340.407,-108.887,-38.086,-17.090,-6.348,-39.551
1688256340.411,-91.309,-28.809,-9.277,-5.859,-45.898
1688256340.415,8.301,-20.996,-10.254,-29.297,-141.602
1688256340.419,32.715,-20.020,-9.277,-34.668,-24.414
1688256340.423,-26.855,-30.762,-11.230,-33.691,116.699
1688256340.427,-101.074,-34.180,-4.883,1.465,55.664
1688256340.430,-101.074,-27.344,-6.348,7.812,-21.973
1688256340.434,0.488,-18.555,-20.996,-30.762,128.418
1688256340.438,40.039,-18.555,-24.414,-57.129,184.570
1688256340.442,-10.254,-35.156,-14.160,-56.641,-170.410
1688256340.446,-86.914,-39.551,-20.996,-25.391,-191.406
1688256340.447,-108.887,-26.367,-40.527,-15.625,-5.859
1688256340.451,-14.648,-32.227,-36.133,-24.902,-50.781
1688256340.455,44.922,-40.039,-21.484,-37.109,-225.098
1688256340.459,5.371,-32.227,-12.695,-56.641,-146.484
1688256340.463,-73.730,-35.156,-11.230,-46.387,104.004
1688256340.467,-99.121,-27.344,-19.531,-21.973,134.277
1688256340.471,-10.254,-23.438,-23.438,-27.344,-6.348
1688256340.474,56.641,-43.457,-32.715,-30.273,-112.305
1688256340.478,11.230,-38.086,-40.039,-29.297,126.953
1688256340.482,-85.449,-22.949,-25.391,-31.738,202.637
1688256340.486,-131.836,-11.719,-21.484,-25.391,-90.332
1688256340.490,-40.527,-10.742,-36.621,-38.086,-61.523
1688256340.494,48.828,-25.391,-34.180,-59.570,-106.445
1688256340.498,32.227,-18.066,-22.949,-62.988,-281.250
1688256340.502,-54.199,-15.137,-5.859,-29.785,-259.766
1688256340.506,-124.512,-25.879,-15.137,17.578,-48.828
1688256340.510,-67.871,-27.344,-46.875,7.324,-8.301
1688256340.514,14.160,-25.879,-39.062,-48.828,-83.984
1688256340.518,9.277,-32.227,-27.344,-76.172,-132.324
1688256340.521,-45.898,-39.062,-30.273,-60.059,34.668
1688256340.525,-109.375,-35.645,-34.668,-25.391,371.094
1688256340.529,-76.660,-27.344,-31.738,-37.598,181.152
1688256340.533,21.973,-35.156,-28.320,-51.758,-158.203
1688256340.537,32.715,-42.969,-34.180,-30.273,-152.344
1688256340.538,-41.504,-35.156,-40.527,-36.133,-105.957
1688256340.542,-113.281,-28.320,-42.480,-41.016,-127.441
1688256340.546,-67.871,-29.785,-38.574,-28.320,-62.500
1688256340.550,35.156,-26.855,-35.645,-36.621,-18.066
1688256340.554,47.852,-20.020,-27.344,-55.664,-107.910
1688256340.558,-8.301,-19.043,-22.949,-41.504,-109.375
1688256340.562,-94.727,-17.578,-31.738,-20.020,-38.086
1688256340.565,-88.867,-26.367,-38.086,-24.902,255.371
1688256340.569,11.719,-16.602,-34.668,-32.227,237.305
1688256340.573,41.992,-0.488,-22.461,-41.992,-241.699
1688256340.577,-2.930,-29.297,-17.578,-32.715,-271.484
1688256340.581,-69.824,-51.270,-26.367,-1.465,-20.996
1688256340.585,-80.078,-25.879,-31.738,-11.230,8.789
1688256340.589,14.160,-11.230,-36.133,-31.250,-177.734
1688256340.593,58.105,-23.438,-35.645,-35.645,-96.191
1688256340.597,-8.301,-38.574,-29.297,-45.898,17.090
1688256340.601,-99.121,-24.414,-25.879,-37.598,-73.730
1688256340.605,-127.930,-19.043,-14.648,-27.832,11.719
1688256340.609,-41.992,-23.926,-13.184,-41.504,283.691
1688256340.612,34.180,-18.555,-34.668,-47.363,271.484
1688256340.616,8.789,-23.438,-54.688,-41.016,-165.039
1688256340.620,-63.477,-33.203,-51.270,-32.227,-220.215
1688256340.624,-105.469,-29.785,-53.711,-16.602,-39.551
1688256340.628,-38.086,-27.344,-45.898,-14.648,-62.988
1688256340.644,38.086,-28.320,-12.207,-37.598,-211.426
1688256340.648,17.090,-28.809,-3.418,-52.734,-180.176
1688256340.652,-63.477,-33.203,-16.602,-42.969,50.293
1688256340.656,-113.770,-25.879,-16.602,-28.320,99.121
1688256340.660,-56.641,-16.602,-21.973,-16.602,-58.105
1688256340.664,16.113,-24.902,-31.250,-24.414,-196.289
1688256340.668,7.324,-29.785,-20.996,-37.598,140.137
1688256340.671,-65.918,-22.949,-22.949,-2.930,398.438
1688256340.675,-122.559,-36.621,-36.621,16.602,26.367
1688256340.679,-63.477,-55.176,-41.992,-22.461,-131.348
1688256340.683,25.391,-47.852,-40.039,-52.246,-134.277
1688256340.687,25.391,-41.016,-32.227,-61.035,-231.445
1688256340.674,-54.688,-32.715,-27.344,-50.293,-211.426
1688256340.678,-124.512,-16.602,-22.949,-30.762,-56.641
1688256340.682,-72.754,-6.348,-22.461,-33.203,-4.883
1688256340.686,11.230,-2.441,-29.785,-60.059,-142.578
1688256340.690,17.090,-13.672,-35.645,-63.965,-230.957
1688256340.694,-23.926,-37.109,-34.180,-22.949,1.465
1688256340.698,-75.684,-35.645,-43.945,4.883,129.395
1688256340.701,-52.734,-21.484,-44.434,-16.113,-43.945
1688256340.705,0.977,-22.461,-20.020,-40.527,-205.078
1688256340.709,6.836,-24.414,-17.578,-37.598,-38.574
1688256340.713,-52.734,-29.785,-31.250,-40.039,254.883
1688256340.717,-124.023,-30.273,-43.945,-28.320,20.508
1688256340.733,-77.148,-29.785,-40.527,-10.742,-94.727
1688256340.737,13.184,-32.227,-20.508,-35.645,-93.750
1688256340.741,41.016,-18.555,-6.348,-53.223,-209.961
1688256340.745,-0.977,-9.766,-20.996,-37.109,-114.258
1688256340.749,-81.543,-19.043,-34.668,-19.043,-73.730
1688256340.753,-102.051,-28.809,-38.574,-22.461,228.516
1688256340.757,-33.691,-30.273,-40.527,-34.180,305.176
1688256340.760,11.719,-37.598,-24.902,-42.969,-118.164
1688256340.764,-19.531,-35.156,-30.273,-39.062,-169.434
1688256340.768,-77.637,-34.180,-36.133,-8.789,-58.594
1688256340.772,-74.707,-40.039,-29.297,-9.766,-41.992
1688256340.776,0.977,-28.809,-34.668,-35.645,-171.875
1688256340.778,33.691,-22.461,-25.391,-41.504,-177.734
1688256340.782,-0.977,-39.551,-18.555,-34.180,16.602
1688256340.786,-64.941,-38.574,-31.250,-32.227,-7.324
1688256340.790,-95.215,-18.066,-24.902,-32.227,-77.148
1688256340.794,-38.086,-20.020,-8.301,-37.109,-5.859
1688256340.798,8.789,-37.598,-12.695,-53.223,-9.766
1688256340.802,-1.953,-52.246,-15.137,-30.273,-126.953
1688256340.805,-51.758,-42.480,-22.949,-2.930,-217.773
1688256340.809,-86.914,-25.879,-40.039,5.859,91.309
1688256340.813,-18.066,-20.508,-38.086,-24.414,421.387
1688256340.817,32.715,-29.785,-15.625,-65.918,-19.043
1688256340.821,1.465,-35.645,-8.301,-49.805,-269.531
1688256340.823,-46.387,-21.973,-7.324,-20.508,-63.965
1688256340.827,-84.473,-24.902,7.812,-5.859,20.020
1688256340.831,-45.410,-29.785,-1.953,-26.367,-83.984
1688256340.835,21.484,-30.762,-32.715,-47.363,-143.066
1688256340.839,19.531,-38.574,-37.109,-41.992,47.852
1688256340.843,-40.527,-22.949,-31.738,-25.879,182.129
1688256340.847,-103.027,-13.184,-36.621,-22.461,54.199
1688256340.850,-61.523,-19.043,-37.598,-42.480,-104.004
1688256340.854,9.766,-27.832,-44.434,-36.621,79.590
1688256340.858,-0.488,-34.180,-27.344,-34.668,23.926
1688256340.862,-46.387,-25.391,-12.695,-37.598,-268.555
1688256340.866,-78.613,-9.766,-28.809,0.977,-93.750
1688256340.868,-50.781,-18.066,-26.855,-4.395,2.441
1688256340.872,-1.465,-48.828,-35.156,-48.340,-193.848
1688256340.876,6.348,-45.898,-33.691,-54.688,-306.641
1688256340.880,-17.578,-24.902,-28.320,-26.855,-180.176
1688256340.884,-78.613,-27.344,-42.480,7.812,12.207
1688256340.888,-83.496,-32.227,-34.668,-11.719,128.906
1688256340.892,-12.695,-28.809,-25.879,-57.129,-3.418
1688256340.895,20.020,-32.715,-27.832,-84.961,-9.766
1688256340.899,-23.438,-36.621,-34.180,-86.426,152.344
1688256340.903,-85.449,-31.250,-34.668,-42.969,-1.953
1688256340.907,-55.664,-25.879,-14.160,-1.953,-39.551
1688256340.911,4.395,-35.156,-21.484,-5.859,-4.883
1688256340.913,9.277,-34.668,-40.039,-25.879,-72.266
1688256340.917,-6.348,-11.719,-28.320,-37.109,-218.262
1688256340.921,-48.828,-2.441,-20.020,-35.645,-76.172
1688256340.925,-50.293,-5.859,-16.602,-33.203,351.562
1688256340.929,0.977,-30.273,-9.766,-45.410,192.871
1688256340.933,17.090,-28.809,-5.859,-48.828,-240.234
1688256340.937,-13.672,-9.277,-12.695,-31.250,-174.805
1688256340.940,-73.242,-20.996,-15.625,-9.277,77.637
1688256340.944,-77.637,-27.344,-18.066,-9.277,69.336
1688256340.948,-22.461,-37.598,-26.855,-40.039,-123.047
1688256340.952,-5.859,-41.992,-35.645,-45.410,-160.645
1688256340.956,-18.066,-30.273,-47.363,-30.762,-88.867
1688256340.959,-65.918,-31.738,-35.645,-16.113,-44.434
1688256340.963,-83.496,-43.457,-16.602,-5.371,-30.762
1688256340.967,-21.973,-53.711,-31.738,-30.273,-14.648
1688256340.971,-5.859,-60.547,-50.293,-55.664,-162.598
1688256340.975,-25.879,-50.293,-30.273,-52.246,-252.441
1688256340.979,-46.875,-42.969,-19.531,-13.184,-0.977
1688256340.983,-74.707,-46.875,-11.230,23.438,385.742
1688256340.986,-51.270,-31.250,-3.906,1.465,538.574
1688256340.990,-21.484,-16.113,-17.090,-63.965,10.254
1688256340.994,-25.391,-14.648,-31.738,-89.355,-392.090
1688256340.998,-54.688,-13.672,-54.688,-42.480,-246.582
1688256341.002,-86.914,-19.043,-46.875,4.883,-32.715
1688256341.004,-57.129,-29.785,-24.414,-0.977,-56.152
1688256341.008,-10.254,-30.762,-39.062,-58.105,-240.723
1688256341.012,-11.230,-33.691,-47.363,-82.520,-204.102
1688256341.016,-29.297,-43.945,-37.109,-26.855,-41.016
1688256341.020,-50.781,-39.062,-44.922,21.484,40.039
1688256341.024,-35.156,-28.320,-52.246,-7.324,-36.133
1688256341.028,-5.371,-31.250,-35.156,-62.012,198.242
1688256341.031,-14.160,-34.180,-29.785,-70.312,385.742
1688256341.035,-47.363,-28.320,-33.691,-25.391,-40.039
1688256341.039,-57.129,-30.273,-21.484,12.207,-73.730
1688256341.043,-41.504,-26.367,-18.555,-8.789,76.172
1688256341.047,-24.414,-15.137,-37.109,-57.617,-167.480
1688256341.063,-11.230,-10.254,-44.434,-74.219,-375.488
1688256341.067,-32.227,-24.414,-32.715,-30.762,-236.816
1688256341.071,-62.988,-31.738,-36.133,25.391,81.543
1688256341.075,-41.504,-17.090,-44.922,12.207,89.844
1688256341.079,-7.812,-8.789,-11.719,-37.598,-145.020
1688256341.083,20.020,-32.227,-11.719,-46.387,-91.309
1688256341.087,0.000,-42.480,-53.223,-18.555,142.578
1688256341.090,-77.148,-24.414,-28.809,5.859,-35.645
1688256341.094,-68.848,-3.418,2.441,-11.230,-145.996
1688256341.098,-6.348,-8.301,-10.742,-53.711,21.484
1688256341.102,3.906,-24.902,-32.227,-69.336,-16.113
1688256341.106,-18.066,-36.133,-41.504,-49.805,-281.738
1688256341.123,-53.711,-36.621,-16.113,-12.207,-200.684
1688256341.127,-61.523,-16.113,-13.184,16.602,104.980
1688256341.131,-27.832,0.977,-22.461,-16.602,94.238
1688256341.135,-12.695,-3.418,-28.809,-84.473,-128.418
1688256341.139,-44.922,-18.555,-30.273,-76.660,-188.477
1688256341.143,-72.754,-23.438,-26.855,-34.668,65.430
1688256341.147,-72.754,-24.414,-35.156,-33.203,196.289
1688256341.150,-39.551,-20.508,-24.902,-56.641,-35.645
1688256341.154,0.000,-12.695,-17.090,-76.172,-265.625
1688256341.158,3.906,-24.414,-24.902,-61.523,37.109
1688256341.162,-41.016,-36.621,-24.902,-14.648,228.516
1688256341.166,-75.684,-24.414,-16.602,22.949,8.789
1688256341.153,-45.410,-24.902,-20.020,5.859,108.398
1688256341.157,-5.859,-36.133,-34.180,-35.645,22.461
1688256341.161,0.488,-38.086,-30.273,-48.828,-304.688
1688256341.165,-41.016,-32.227,-16.113,-22.461,-271.973
1688256341.169,-72.754,-8.301,-9.277,0.000,58.105
1688256341.173,-23.926,-3.418,-15.625,-14.160,164.062
1688256341.177,12.207,-13.672,-24.902,-60.547,-62.012
1688256341.180,-5.371,-17.578,-33.203,-80.566,-242.676
1688256341.184,-34.668,-21.973,-34.180,-30.762,-101.074
1688256341.188,-50.293,-11.719,-35.156,22.949,93.262
1688256341.192,-23.926,-12.207,-41.504,-1.953,63.965
1688256341.196,-0.977,-24.414,-37.109,-44.434,-145.996
1688256341.198,6.836,-37.598,-53.223,-54.688,-66.895
1688256341.202,-14.648,-37.598,-49.805,-44.922,155.762
1688256341.206,-53.223,-39.062,-21.973,-21.973,46.387
1688256341.210,-37.598,-35.156,-24.414,-25.879,-3.418
1688256341.214,-11.230,-22.461,-40.527,-50.781,155.273
1688256341.218,-13.184,-27.344,-39.551,-58.105,121.582
1688256341.222,-39.551,-35.156,-27.832,-30.273,-153.320
1688256341.225,-62.988,-35.156,-21.973,5.371,-79.102
1688256341.229,-38.574,-44.922,-17.090,0.000,229.980
1688256341.233,0.488,-45.410,-18.555,-33.203,99.121
1688256341.237,3.906,-30.762,-24.902,-58.594,-336.914
1688256341.241,-22.461,-23.926,-31.250,-42.480,-280.273
1688256341.243,-61.523,-36.621,-34.180,-1.465,-67.871
1688256341.247,-47.363,-40.527,-30.762,-13.184,-7.812
1688256341.251,-2.930,-24.902,-29.297,-58.594,-148.438
1688256341.255,8.301,-28.320,-28.809,-78.125,-238.281
1688256341.259,-13.184,-36.621,-42.969,-56.152,-196.777
1688256341.263,-55.664,-37.109,-52.734,-15.625,-41.016
1688256341.267,-63.477,-24.902,-32.715,-10.742,80.078
1688256341.270,-13.672,-1.465,-19.043,-35.156,191.895
1688256341.274,10.742,-6.836,-16.113,-51.758,270.020
1688256341.278,-17.090,-19.531,-18.066,-43.945,-105.957
1688256341.282,-47.363,-21.484,-31.250,-11.719,-269.531
1688256341.286,-68.848,-20.996,-33.203,-2.441,-48.340
1688256341.288,-30.273,-25.391,-28.320,-21.484,-70.801
1688256341.292,-2.930,-29.785,-44.922,-43.945,-254.395
1688256341.296,-34.180,-31.250,-49.316,-44.434,-250.488
1688256341.300,-60.547,-22.949,-47.852,-4.883,-37.109
1688256341.304,-52.734,-10.254,-69.336,15.137,78.613
1688256341.308,-4.395,-15.625,-56.152,-21.484,95.215
1688256341.312,15.625,-26.367,-17.090,-57.617,-36.621
1688256341.315,-2.441,-21.484,-8.789,-60.547,80.566
1688256341.319,-40.527,-8.789,-21.973,-19.531,308.594
1688256341.323,-59.082,-18.555,-32.715,12.207,46.875
1688256341.327,-12.695,-32.227,-29.297,-14.160,-97.168
1688256341.331,28.809,-30.273,-16.602,-38.086,-164.551
1688256341.334,-11.230,-30.762,-28.809,-30.273,-308.594
1688256341.338,-52.734,-15.625,-43.457,-13.184,-216.797
1688256341.342,-62.988,-16.602,-43.457,13.184,53.711
1688256341.346,-31.250,-37.109,-27.832,-6.836,74.219
1688256341.350,17.090,-33.691,-17.090,-55.176,-105.957
1688256341.354,-7.812,-17.578,-15.137,-57.129,-183.594
1688256341.358,-41.016,-17.090,-20.020,-34.180,72.266
1688256341.361,-69.824,-11.230,-51.758,-12.207,359.375
1688256341.365,-66.895,-2.441,-45.898,-18.066,86.914
1688256341.369,-17.090,-20.508,-20.020,-43.945,-190.918
1688256341.373,-14.160,-44.434,-17.090,-49.316,-151.855
1688256341.377,-48.828,-30.273,-25.391,-21.484,-117.188
1688256341.378,-80.566,-11.230,-30.273,24.414,-62.500
1688256341.382,-47.363,-23.438,-32.715,21.973,5.371
1688256341.386,16.602,-34.668,-47.852,-43.457,-34.668
1688256341.390,9.277,-28.320,-41.504,-73.242,-97.656
1688256341.394,-38.574,-28.809,-27.832,-49.805,-155.762
1688256341.398,-72.754,-32.715,-32.715,-15.625,-118.652
1688256341.402,-56.152,-26.855,-46.875,-13.672,283.691
1688256341.405,2.441,-26.367,-36.133,-45.410,388.672
1688256341.409,18.066,-39.551,-15.625,-56.152,-178.711
1688256341.413,-19.531,-30.273,-20.996,-54.688,-293.945
1688256341.417,-55.664,-17.090,-16.602,-24.902,-30.273
1688256341.421,-45.898,-27.344,-16.602,-5.371,56.152
1688256341.425,-14.160,-23.438,-26.855,-31.250,-33.691
1688256341.429,-10.742,-12.695,-31.250,-64.941,-58.105
1688256341.433,-24.902,-9.277,-23.438,-52.246,-65.430
1688256341.437,-59.570,-22.461,-21.973,3.906,-99.609
1688256341.441,-61.523,-23.438,-42.969,6.836,-31.250
1688256341.445,-22.949,-10.742,-52.734,-39.062,126.953
1688256341.449,-3.418,-19.531,-35.645,-65.918,70.312
1688256341.452,-27.832,-41.504,-30.273,-59.082,-176.758
1688256341.456,-67.383,-48.340,-17.578,-26.855,-184.570
1688256341.460,-62.988,-40.039,-12.207,-0.977,161.133
1688256341.464,-15.625,-44.434,-43.945,-27.832,232.910
1688256341.468,-11.719,-37.598,-53.711,-64.941,-160.645
1688256341.483,-41.504,-8.789,-37.109,-54.199,-285.645
1688256341.487,-67.383,5.859,-42.480,-32.715,-189.453
1688256341.491,-83.008,-12.695,-50.293,-21.484,-65.918
1688256341.495,-42.969,-31.738,-50.781,-26.367,-66.406
1688256341.499,1.953,-36.621,-46.875,-53.711,-151.855
1688256341.503,-6.348,-37.109,-24.414,-69.336,58.105
1688256341.507,-48.828,-18.555,-20.508,-29.785,431.641
1688256341.510,-95.703,-10.742,-27.344,-0.488,163.086
1688256341.514,-58.105,-41.504,-20.996,-26.855,-136.719
1688256341.518,14.648,-64.941,-21.484,-71.777,-155.762
1688256341.522,1.465,-43.457,-31.738,-93.262,-298.340
1688256341.526,-63.477,-19.531,-34.180,-58.594,-346.680
1688256341.527,-107.422,-10.742,-41.504,-17.090,-136.230
1688256341.531,-74.707,-16.113,-53.223,-28.320,-9.277
1688256341.535,-12.695,-22.949,-41.016,-73.730,-159.180
1688256341.539,-7.812,-35.156,-28.809,-90.820,-275.879
1688256341.543,-50.781,-44.434,-31.250,-61.523,-208.496
1688256341.547,-82.520,-29.785,-32.715,-14.160,20.508
1688256341.551,-47.363,-17.578,-22.461,-11.719,113.281
1688256341.554,10.254,-26.855,-21.973,-53.711,-25.391
1688256341.558,1.953,-38.574,-30.273,-61.523,-3.418
1688256341.562,-48.340,-23.438,-36.621,-41.992,246.582
1688256341.566,-109.863,-20.508,-38.574,-18.555,100.586
1688256341.570,-89.355,-37.109,-36.133,10.742,-53.711
1688256341.573,-15.625,-35.156,-31.738,-18.555,-117.188
1688256341.577,-6.348,-44.922,-36.621,-83.008,-290.527
1688256341.581,-34.180,-60.547,-48.340,-76.660,-289.551
1688256341.585,-71.289,-50.293,-37.598,-29.297,-26.367
1688256341.589,-54.199,-28.809,-20.996,4.395,301.758
1688256341.593,-5.859,-26.855,-18.555,-11.719,181.641
1688256341.597,-21.484,-38.574,-24.414,-66.895,-171.387
1688256341.600,-39.062,-39.551,-30.762,-78.613,-258.301
1688256341.604,-58.105,-34.180,-30.762,-48.828,244.629
1688256341.608,-68.848,-24.902,-45.898,-20.508,424.805
1688256341.612,-15.625,-23.438,-44.922,-38.574,-98.633
1688256341.616,3.906,-37.598,-36.621,-83.008,-260.742
1688256341.634,-27.344,-46.875,-56.641,-84.961,-207.031
1688256341.638,-65.430,-27.832,-47.363,-32.227,-105.957
1688256341.642,-78.613,-22.461,-17.578,10.254,53.711
1688256341.646,-30.273,-35.156,-10.254,-26.855,82.520
1688256341.650,7.324,-30.273,-17.090,-69.336,-73.242
1688256341.654,-12.695,-20.020,-34.180,-54.688,-109.863
1688256341.658,-62.500,-21.484,-45.898,-32.227,30.762
1688256341.661,-83.496,-27.832,-44.434,-17.090,310.059
1688256341.665,-43.945,-32.715,-45.410,-36.621,430.176
1688256341.669,-9.766,-31.250,-50.781,-65.430,-3.906
1688256341.673,-9.277,-32.227,-62.012,-65.430,-242.188
1688256341.677,-54.199,-41.992,-34.668,-48.340,-13.184
1688256341.662,-95.703,-54.199,1.953,-19.043,111.328
1688256341.666,-47.363,-47.852,1.465,-16.113,-33.691
1688256341.670,5.859,-29.297,-9.277,-43.945,-178.711
1688256341.674,-16.113,-24.902,-20.996,-57.129,-119.141
1688256341.678,-57.129,-28.809,-13.672,-19.531,-11.230
1688256341.682,-85.938,-22.461,-6.348,31.738,137.207
1688256341.686,-63.477,-6.836,-24.414,-3.418,226.074
1688256341.689,-4.883,-7.812,-36.621,-63.965,38.574
1688256341.693,-4.883,-31.738,-57.617,-81.055,-126.465
1688256341.697,-58.105,-38.086,-66.406,-45.410,-151.367
1688256341.701,-87.402,-27.344,-40.039,3.906,-99.121
1688256341.705,-59.570,-29.297,-20.020,-9.766,319.824
1688256341.710,-1.465,-38.574,-18.555,-59.082,256.348
1688256341.714,-2.441,-46.875,-25.391,-72.266,-279.297
1688256341.718,-34.668,-33.691,-26.367,-45.410,-221.680
1688256341.722,-63.965,-28.809,-22.461,-9.277,8.789
1688256341.726,-57.129,-43.457,-19.043,-6.836,-37.109
1688256341.730,-8.301,-37.598,-26.367,-50.781,-136.719
1688256341.734,5.371,-28.320,-42.480,-81.543,44.434
1688256341.737,-29.785,-26.855,-52.246,-59.570,230.469
1688256341.741,-81.543,-26.367,-45.898,-22.949,8.301
1688256341.745,-73.242,-29.297,-32.227,-11.230,-86.914
1688256341.749,-7.324,-25.391,-28.320,-37.109,-93.750
1688256341.753,18.066,-41.016,-33.691,-72.754,-214.355
1688256341.752,-31.738,-52.246,-21.973,-53.223,-284.668
1688256341.756,-85.449,-18.555,-19.043,1.953,-123.535
1688256341.760,-74.707,-2.441,-35.156,14.648,99.121
1688256341.764,-20.996,-8.301,-32.715,-28.809,63.477
1688256341.768,0.000,-17.090,-31.738,-67.871,-132.812
1688256341.772,-13.184,-29.297,-30.273,-58.105,-108.398
1688256341.776,-56.641,-32.227,-19.043,-15.625,286.133
1688256341.779,-69.336,-35.156,-14.648,8.789,648.438
1688256341.783,-29.297,-37.598,-34.668,-30.273,183.105
1688256341.787,-2.441,-27.832,-53.711,-71.777,-289.062
1688256341.791,-24.902,-19.043,-37.598,-83.008,-322.266
1688256341.795,-75.195,-23.438,-20.020,-62.012,-261.719
1688256341.799,-77.637,-37.109,-17.578,-36.133,-62.500
1688256341.803,-15.625,-43.945,-14.160,-48.340,17.090
1688256341.807,20.020,-36.133,-31.250,-69.824,-145.020
1688256341.811,0.977,-25.879,-50.293,-56.641,-272.949
1688256341.815,-49.805,-5.859,-46.387,8.301,-163.086
1688256341.819,-94.727,-11.719,-29.785,27.832,265.137
1688256341.823,-56.152,-36.621,-18.555,-32.227,348.145
1688256341.826,-7.324,-42.969,-24.414,-72.754,-2.441
1688256341.830,-19.043,-36.133,-33.691,-62.012,-200.684
1688256341.834,-60.059,-29.297,-38.086,-16.113,-30.762
1688256341.838,-97.656,-24.414,-51.758,11.230,271.484
1688256341.842,-59.082,-36.133,-49.316,-19.043,-5.371
1688256341.858,-3.906,-39.062,-38.574,-50.293,-241.211
1688256341.862,1.953,-24.902,-37.109,-70.801,-271.973
1688256341.866,-26.367,-23.926,-30.762,-55.176,-231.934
1688256341.870,-61.523,-18.555,-38.574,-9.766,-9.766
1688256341.874,-28.320,-21.484,-46.875,-27.832,73.242
1688256341.878,6.348,-24.902,-32.227,-72.754,313.477
1688256341.882,-20.508,-23.926,-21.973,-89.844,268.066
1688256341.885,-56.152,-30.762,-21.973,-58.105,-224.121
1688256341.889,-81.055,-35.156,-19.043,-7.812,-114.258
1688256341.893,-58.594,-31.738,-31.738,-14.160,187.500
1688256341.897,-1.465,-43.457,-61.035,-41.016,-33.203
1688256341.901,8.789,-42.480,-47.852,-59.570,-369.629
1688256341.902,-40.527,-20.996,-25.879,-38.086,-300.293
1688256341.906,-93.750,-20.020,-34.180,7.324,-55.664
1688256341.910,-77.637,-27.344,-37.109,11.230,24.414
1688256341.914,-10.742,-38.086,-23.926,-28.809,-88.379
1688256341.918,11.719,-42.480,-9.766,-57.617,-166.992
1688256341.922,-18.066,-32.715,-8.301,-39.062,-110.352
1688256341.926,-61.523,-31.738,-6.348,10.254,72.754
1688256341.929,-59.082,-24.902,-6.836,14.160,94.238
1688256341.933,2.930,-16.113,-18.555,-43.457,95.703
1688256341.937,15.137,-25.879,-43.945,-69.336,138.184
1688256341.941,-39.551,-31.738,-52.246,-72.754,-201.172
1688256341.945,-88.379,-30.273,-30.273,-37.598,-178.223
1688256341.948,-88.379,-25.391,-20.996,-19.043,172.852
1688256341.952,-17.578,-17.578,-23.438,-52.246,114.258
1688256341.956,12.207,-16.602,-34.180,-61.523,-208.984
1688256341.960,-17.578,-15.137,-34.180,-65.430,-202.148
1688256341.964,-48.340,-17.578,-23.438,-39.062,102.051
1688256341.968,-43.457,-26.367,-20.020,22.461,255.859
1688256341.972,1.465,-30.273,-12.695,-0.488,59.570
1688256341.975,14.160,-32.227,-20.020,-58.594,-191.406
1688256341.979,-10.254,-17.090,-41.992,-47.852,-40.039
1688256341.983,-47.363,-10.742,-44.434,-18.555,49.316
1688256341.987,-62.500,-16.113,-38.086,-16.602,-83.496
1688256341.991,-25.391,-6.836,-42.480,-30.273,-35.156
1688256341.995,1.953,-23.438,-45.410,-42.969,-162.598
1688256341.999,-24.902,-31.250,-36.621,-54.199,-251.953
1688256342.003,-68.848,-13.184,-21.484,-44.434,-180.176
1688256342.007,-78.125,-12.695,-27.832,-5.859,70.312
1688256342.011,-32.715,-16.602,-34.180,-10.254,170.898
1688256342.015,19.531,-19.531,-27.344,-56.152,-43.945
1688256342.019,8.789,-24.414,-37.109,-59.082,-206.055
1688256342.022,-38.574,-20.508,-20.020,-5.859,-51.758
1688256342.026,-75.684,-10.254,-15.137,30.273,404.785
1688256342.030,-58.594,-22.461,-29.785,-4.395,198.730
1688256342.034,-24.414,-37.109,-35.645,-52.246,-172.852
1688256342.038,-7.812,-26.367,-50.781,-56.152,-177.734
1688256342.038,-20.996,-27.344,-30.273,-23.438,-123.047
1688256342.042,-54.199,-24.414,-8.789,20.996,-49.316
1688256342.046,-35.645,-34.180,-20.020,15.625,-16.113
1688256342.050,-13.672,-43.457,-23.926,-39.062,-18.066
1688256342.054,-20.508,-23.926,-22.461,-67.871,-105.957
1688256342.058,-57.617,-14.160,-27.832,-58.105,-89.844
1688256342.062,-90.820,-17.090,-29.297,-32.715,-11.230
1688256342.065,-48.340,-27.832,-22.949,-31.250,303.711
1688256342.069,9.277,-30.762,-31.250,-56.641,413.574
1688256342.073,11.719,-19.043,-53.711,-54.688,-205.566
1688256342.077,-26.855,-28.809,-45.898,-25.879,-361.328
1688256342.081,-68.848,-49.316,-24.414,-4.883,-105.469
1688256342.084,-66.895,-52.734,-9.277,-0.977,-103.027
1688256342.088,-12.207,-41.504,-19.043,-37.109,-150.391
1688256342.092,6.348,-19.043,-33.691,-67.383,-278.320
1688256342.096,-1.465,-12.207,-38.574,-44.922,-326.172
1688256342.100,-44.922,-17.578,-40.527,-7.324,-235.840
1688256342.104,-63.477,-31.250,-28.809,5.371,-80.078
1688256342.108,-9.277,-26.367,-28.809,-5.371,131.836
1688256342.111,12.695,-4.883,-28.809,-50.293,251.953
1688256342.115,-4.883,-2.930,-20.508,-52.734,-30.273
1688256342.119,-55.664,-16.602,-23.438,-11.719,-205.078
1688256342.123,-66.895,-17.578,-18.066,12.207,-87.891
1688256342.127,-10.254,-10.742,-32.715,-3.906,-100.098
1688256342.143,21.973,-24.414,-51.270,-48.828,-308.105
1688256342.147,13.672,-21.484,-33.203,-39.551,-360.840
1688256342.151,-42.480,4.883,-22.461,-12.207,-191.406
1688256342.155,-88.379,-0.977,-31.250,1.953,31.738
1688256342.159,-41.016,-22.949,-43.457,-29.297,4.395
1688256342.163,14.648,-14.160,-41.016,-72.754,-144.531
1688256342.167,-3.906,-16.113,-55.664,-71.777,181.641
1688256342.170,-49.316,-30.762,-46.875,-42.480,310.059
1688256342.174,-70.312,-25.391,-10.742,-8.301,32.227
1688256342.178,-47.852,-31.250,-17.578,-13.672,6.836
1688256342.182,-0.977,-38.086,-34.668,-54.688,-72.754
1688256342.186,-5.371,-40.527,-41.992,-56.152,-260.254
1688256342.174,-46.875,-30.273,-39.062,-6.348,-298.828
1688256342.178,-73.730,-27.344,-20.996,11.230,-47.852
1688256342.182,-40.527,-26.367,-18.555,-19.043,84.961
1688256342.186,28.320,-28.809,-28.809,-44.922,-151.367
1688256342.190,30.273,-33.203,-26.855,-37.109,-273.438
1688256342.194,-37.109,-24.414,-32.715,-16.113,-3.418
1688256342.198,-96.191,-22.461,-42.969,-1.465,298.828
1688256342.201,-73.242,-15.137,-37.598,-13.672,154.297
1688256342.205,-11.719,-0.977,-33.691,-39.551,-147.461
1688256342.209,-2.441,-4.883,-35.156,-54.199,-61.035
1688256342.213,-31.250,-28.809,-37.598,-44.434,160.156
1688256342.217,-66.895,-50.293,-39.551,-10.254,67.871
1688256342.234,-53.711,-55.176,-41.016,13.672,22.461
1688256342.238,-1.465,-31.738,-29.785,-7.324,-33.691
1688256342.242,11.230,-23.438,-13.184,-33.203,-149.414
1688256342.246,-26.855,-40.039,-13.184,-40.527,-160.645
1688256342.250,-83.008,-36.621,-31.738,-21.973,-64.941
1688256342.254,-80.566,-16.602,-47.363,-15.137,400.879
1688256342.258,-16.113,-12.207,-40.039,-53.223,442.871
1688256342.261,0.000,-23.926,-26.855,-81.055,-226.562
1688256342.265,-35.645,-48.828,-20.508,-62.500,-316.895
1688256342.269,-55.176,-62.988,-21.484,-8.789,-54.199
1688256342.273,-44.434,-40.039,-24.414,13.672,-13.184
1688256342.277,-18.555,-16.113,-40.527,-27.344,-169.434
1688256342.293,-11.230,-11.719,-41.016,-70.312,-275.879
1688256342.297,-39.551,-10.742,-19.043,-86.426,-235.840
1688256342.301,-73.242,-23.926,-31.738,-57.617,-106.445
1688256342.305,-76.660,-32.227,-50.293,-20.020,-30.762
1688256342.309,-20.508,-36.621,-35.156,-43.457,44.434
1688256342.313,9.277,-31.250,-28.809,-89.844,5.859
1688256342.317,-25.391,-19.043,-27.344,-80.566,-74.219
1688256342.320,-78.613,-16.602,-30.762,-30.762,-47.363
1688256342.324,-104.004,-30.273,-36.621,0.977,92.285
1688256342.328,-40.527,-27.344,-33.203,-27.344,343.262
1688256342.332,14.160,-9.766,-32.227,-69.336,-6.836
1688256342.336,1.953,-22.461,-16.113,-69.824,-360.840
1688256342.323,-60.547,-31.250,-3.906,-55.664,-211.914
1688256342.327,-106.445,-16.602,-10.254,-20.020,-52.246
1688256342.331,-53.711,-11.719,-21.973,-14.160,-51.758
1688256342.335,-1.953,-20.020,-28.320,-60.547,-112.305
1688256342.339,-4.883,-24.414,-34.668,-61.523,117.188
1688256342.343,-54.688,-32.227,-45.410,-20.020,278.320
1688256342.347,-112.793,-37.109,-49.316,-3.906,48.340
1688256342.350,-64.453,-50.293,-35.156,-23.926,27.344
1688256342.354,-3.906,-52.734,-36.621,-60.547,-24.414
1688256342.358,-13.672,-45.410,-41.992,-61.523,-172.852
1688256342.362,-30.762,-39.551,-20.020,-38.574,-218.262
1688256342.366,-85.938,-24.414,-5.371,-25.879,-82.520
1688256342.368,-80.078,-22.461,-23.438,-29.785,208.984
1688256342.372,-15.137,-17.090,-29.785,-54.199,63.965
1688256342.376,-14.648,-15.625,-10.254,-68.359,-259.766
1688256342.380,-66.895,-22.949,-11.230,-46.875,-162.109
1688256342.384,-121.094,-27.832,-32.227,-13.184,-9.766
1688256342.388,-95.703,-28.320,-46.875,-29.785,77.637
1688256342.392,-18.066,-26.855,-29.297,-63.477,9.766
1688256342.395,0.977,-40.527,-4.883,-67.871,68.359
1688256342.399,-30.273,-40.527,-14.648,-53.223,314.453
1688256342.403,-87.402,-28.320,-22.949,-33.691,90.332
1688256342.407,-95.703,-21.973,-23.438,-31.738,-94.727
1688256342.411,-28.809,-7.324,-37.109,-56.152,-67.871
1688256342.412,0.000,7.324,-40.039,-71.777,-169.434
1688256342.416,-35.156,-8.301,-39.062,-61.523,-243.652
1688256342.420,-101.074,-26.855,-40.527,-39.062,-149.902
1688256342.424,-100.586,-29.297,-31.250,-34.180,57.617
1688256342.428,-22.461,-34.180,-25.391,-59.082,20.508
1688256342.432,32.715,-30.762,-21.973,-70.312,-70.312
1688256342.436,-10.742,-26.367,-23.438,-62.988,-85.449
1688256342.439,-102.539,-26.855,-29.785,-20.020,189.941
1688256342.443,-115.234,-41.504,-22.461,-8.789,394.531
1688256342.447,-32.715,-41.504,-13.672,-50.293,55.664
1688256342.451,6.348,-31.250,-18.066,-72.266,-90.332
1688256342.455,-22.949,-26.367,-20.508,-68.848,-43.945
1688256342.459,-67.383,-25.391,-26.855,-31.738,-109.863
1688256342.463,-86.914,-34.668,-30.762,-6.348,-103.516
1688256342.467,-39.062,-36.621,-24.414,-30.273,-13.672
1688256342.471,17.090,-31.250,-19.531,-58.105,-52.246
1688256342.475,-16.113,-27.344,-22.461,-56.641,-186.035
1688256342.479,-92.773,-20.020,-27.344,-37.598,-85.938
1688256342.483,-104.492,-16.113,-26.367,-22.949,261.719
1688256342.486,-55.176,-13.184,-20.508,-41.504,377.930
1688256342.490,-5.859,-9.766,-19.043,-65.430,-43.457
1688256342.494,-29.785,-18.555,-23.926,-77.637,-266.602
1688256342.498,-90.332,-22.949,-20.996,-41.016,-83.008
1688256342.502,-121.582,-25.879,-14.160,-3.418,65.430
1688256342.518,-61.523,-33.203,-18.066,-35.645,27.344
1688256342.522,-1.465,-27.832,-21.484,-91.309,-133.301
1688256342.526,-23.926,-26.367,-16.602,-109.863,-113.281
1688256342.530,-96.680,-30.762,-15.137,-74.219,-15.137
1688256342.534,-179.199,-23.438,-18.066,-78.613,26.855
1688256342.538,-145.996,-19.531,-16.602,-133.789,113.770
1688256342.542,-82.520,-13.184,-8.789,-164.062,290.527
1688256342.545,-102.051,-9.766,-4.395,-159.180,237.305
1688256342.549,-127.441,-15.137,-12.695,-152.344,-140.137
1688256342.553,-178.711,-8.301,-13.184,-116.699,-124.512
1688256342.557,-197.266,-1.465,-13.184,-78.613,-34.668
1688256342.561,-117.676,-19.531,-24.414,-123.535,-166.504
1688256342.551,-70.801,-34.180,-19.043,-185.059,-321.777
1688256342.555,-109.375,-21.484,-16.113,-172.852,-211.426
1688256342.559,-148.438,4.883,-29.785,-137.695,67.383
1688256342.563,-113.281,5.859,-26.855,-133.301,66.895
1688256342.567,-76.172,-16.602,-37.109,-149.902,-143.066
1688256342.571,-78.125,-17.090,-37.109,-179.688,-55.664
1688256342.575,-98.633,-20.508,-33.203,-181.152,63.965
1688256342.578,-142.578,-23.926,-23.926,-117.676,-69.824
1688256342.582,-139.160,-20.020,5.371,-83.496,-61.523
1688256342.586,-50.781,-15.137,11.230,-86.426,112.305
1688256342.590,2.930,-15.625,-3.418,-99.609,240.723
1688256342.594,-12.695,-23.438,-17.578,-79.102,-82.031
1688256342.607,-72.754,-28.320,-27.344,-22.949,-218.750
1688256342.611,-87.402,-27.344,-31.738,0.488,-43.945
1688256342.615,-3.418,-18.066,-31.250,2.441,-17.090
1688256342.619,45.410,-12.695,-42.969,-27.832,-94.727
1688256342.623,2.930,-23.438,-39.551,-65.430,-182.129
1688256342.627,-62.012,-29.785,-33.203,-4.395,128.906
1688256342.631,-72.754,-31.738,-38.574,52.246,515.137
1688256342.634,2.930,-40.527,-49.316,25.391,109.375
1688256342.638,55.176,-47.363,-57.617,-13.672,-203.125
1688256342.642,39.551,-49.316,-53.711,-6.836,-113.770
1688256342.646,-16.113,-41.016,-47.363,20.020,-116.211
1688256342.650,-42.480,-32.227,-77.148,15.137,-32.715
1688256342.654,8.301,-31.738,-87.402,-1.465,25.391
1688256342.658,47.363,-28.320,-46.387,-16.602,-118.652
1688256342.662,60.547,-28.320,-29.785,0.000,-229.004
1688256342.666,13.672,-38.574,-44.434,15.625,-222.656
1688256342.670,-30.762,-35.645,-49.316,19.531,-19.531
1688256342.674,38.086,-29.297,-50.293,28.320,151.367
1688256342.678,91.797,-33.203,-54.688,12.695,-10.254
1688256342.681,69.336,-27.832,-57.617,17.578,-156.738
1688256342.685,5.859,-20.020,-60.059,31.738,-31.250
1688256342.689,-45.410,-20.996,-63.477,49.316,350.586
1688256342.693,-6.348,-31.738,-58.105,66.406,128.906
1688256342.697,69.824,-58.105,-57.617,43.457,-236.816
1688256342.697,71.777,-70.312,-65.918,0.000,-207.031
1688256342.701,26.855,-56.641,-61.035,3.418,-157.227
1688256342.705,-12.695,-25.879,-52.734,45.898,-92.285
1688256342.709,-20.020,-8.789,-46.387,52.734,78.125
1688256342.713,41.504,-20.020,-53.223,51.270,116.699
1688256342.717,82.031,-31.738,-62.500,54.199,20.020
1688256342.721,33.691,-34.180,-57.129,34.180,-12.695
1688256342.724,-37.109,-31.250,-56.152,43.457,-131.836
1688256342.728,0.977,-31.250,-55.664,59.570,188.965
1688256342.732,64.941,-30.762,-42.480,19.531,390.625
1688256342.736,66.895,-25.879,-29.785,18.066,-141.113
1688256342.740,45.410,-34.668,-30.273,43.945,-276.855
1688256342.742,-1.953,-33.691,-33.691,51.758,-14.648
1688256342.746,14.160,-22.461,-39.551,74.219,-20.996
1688256342.750,74.707,-30.762,-53.711,73.242,-103.516
1688256342.754,73.730,-35.645,-54.199,57.129,-114.746
1688256342.758,60.547,-30.762,-38.086,51.758,-192.871
1688256342.762,22.949,-33.203,-31.738,63.477,-93.262
1688256342.766,2.441,-43.457,-32.715,71.289,99.609
1688256342.769,56.641,-40.039,-44.434,55.176,122.070
1688256342.773,97.656,-31.250,-58.105,33.691,112.793
1688256342.777,52.734,-33.691,-50.781,33.691,-140.625
1688256342.781,-7.812,-26.855,-36.621,71.289,-170.898
1688256342.785,-6.348,-21.484,-20.996,81.543,2.441
1688256342.788,50.781,-15.625,-20.508,36.621,33.203
1688256342.792,69.336,-11.719,-36.621,7.324,-127.930
1688256342.796,27.344,-25.391,-32.715,10.254,-295.898
1688256342.800,-7.324,-27.344,-23.926,35.156,138.672
1688256342.804,-22.949,-23.926,-29.297,46.875,367.676
1688256342.808,22.949,-27.832,-28.809,11.230,54.688
1688256342.812,71.289,-35.156,-34.668,-11.719,-54.199
1688256342.815,55.176,-43.945,-39.551,-3.418,-19.531
1688256342.819,1.953,-41.992,-21.484,16.602,-52.734
1688256342.823,-21.973,-30.273,-19.043,44.434,-153.809
1688256342.827,13.672,-24.414,-27.832,35.645,-70.312
1688256342.831,32.227,-27.832,-26.855,-11.230,-51.270
1688256342.847,11.719,-22.949,-25.391,-15.625,-226.562
1688256342.851,-20.020,-38.086,-19.043,20.020,-283.203
1688256342.855,-52.246,-35.156,-12.695,44.434,43.457
1688256342.859,-8.301,-9.766,-11.719,31.738,127.930
1688256342.863,43.457,-9.766,-12.695,-3.418,-159.668
1688256342.867,26.367,-13.672,-18.555,-15.137,-200.195
1688256342.871,-9.766,-13.184,-22.949,5.371,73.730
1688256342.874,-29.785,-14.648,-18.555,39.062,374.512
1688256342.878,11.719,-15.625,-19.043,30.273,151.367
1688256342.882,46.387,-15.137,-24.414,-8.301,-212.402
1688256342.886,30.762,-16.113,-27.344,-21.484,-289.551
1688256342.890,11.719,-28.809,-29.785,7.324,-211.426
1688256342.893,-26.367,-41.504,-42.969,49.316,-95.703
1688256342.897,-3.906,-40.527,-49.316,51.758,-17.578
1688256342.901,55.176,-31.738,-46.387,1.465,-91.797
1688256342.905,36.621,-40.527,-35.156,-34.668,-134.277
1688256342.909,-24.414,-46.875,-23.438,-29.785,-157.715
1688256342.913,-73.730,-23.926,-41.504,-2.441,-70.312
1688256342.917,-67.871,-12.695,-41.992,10.742,419.434
1688256342.920,-14.160,-14.648,-22.949,-27.832,453.125
1688256342.924,-3.418,-25.391,-21.973,-69.336,-126.953
1688256342.928,-14.648,-42.480,-24.414,-55.664,-312.500
1688256342.932,-40.527,-50.293,-20.508,-6.348,121.582
1688256342.936,-53.711,-37.109,-18.555,20.996,283.691
1688256342.924,-3.418,-12.207,-22.461,-4.883,-135.742
1688256342.928,25.879,0.000,-24.902,-46.875,-228.027
1688256342.932,-6.348,1.465,-29.785,-42.480,-219.238
1688256342.936,-48.340,-3.906,-28.320,-9.766,-187.500
1688256342.940,-50.293,-17.578,-40.527,7.324,-70.801
1688256342.944,8.789,-23.926,-45.410,-4.395,60.547
1688256342.948,41.016,-24.902,-32.227,-33.691,-34.668
1688256342.951,10.254,-25.391,-28.809,-22.461,-180.664
1688256342.955,-45.410,-21.973,-27.344,-0.977,-90.820
1688256342.959,-66.406,-35.156,-35.156,20.996,97.168
1688256342.963,-15.137,-39.551,-41.016,16.113,291.992
1688256342.967,10.742,-25.879,-37.598,-18.555,-45.410
1688256342.983,-11.230,-19.043,-34.180,-6.836,-312.012
1688256342.987,-57.617,-24.414,-26.367,3.906,-177.246
1688256342.991,-81.055,-29.785,-18.555,-1.465,-68.848
1688256342.995,-21.973,-27.832,-8.301,-13.672,35.156
1688256342.999,27.344,-19.531,-3.906,-24.902,-107.422
1688256343.003,-0.977,-25.879,-25.879,-26.855,18.066
1688256343.007,-61.035,-44.434,-43.945,-10.742,318.848
1688256343.010,-82.520,-41.504,-38.086,0.000,37.109
1688256343.014,-31.738,-33.691,-39.062,-10.742,-64.941
1688256343.018,23.926,-31.738,-32.715,-26.855,-56.152
1688256343.022,6.348,-27.832,-27.832,-44.434,-213.867
1688256343.026,-44.434,-17.090,-25.879,-27.344,-297.852
1688256343.027,-81.543,-19.043,-22.949,-1.465,-70.312
1688256343.031,-52.734,-25.391,-29.297,-19.043,98.145
1688256343.035,23.926,-26.367,-29.297,-50.293,-177.246
1688256343.039,36.621,-31.250,-35.156,-66.895,-338.867
1688256343.043,-49.805,-34.180,-44.922,-58.105,-167.480
1688256343.047,-117.188,-34.668,-35.645,-21.973,78.613
1688256343.051,-64.453,-37.598,-32.227,-12.695,106.934
1688256343.054,11.230,-31.250,-38.086,-28.320,-135.742
1688256343.058,8.789,-27.344,-41.504,-30.273,-86.914
1688256343.062,-37.109,-34.180,-35.645,-13.672,113.281
1688256343.066,-75.195,-32.227,-31.738,15.137,-47.852
1688256343.070,-56.641,-29.785,-27.832,1.953,-105.957
