timestamps,TP9,AF7,AF8,TP10,Right AUX
1688827747.932,-41.504,-32.715,-34.180,-20.996,214.355
1688827747.936,-3.906,-30.762,-30.762,-19.043,-101.562
1688827747.940,-7.324,-34.668,-28.809,-21.484,-149.414
1688827747.944,-38.086,-40.039,-29.297,-35.645,-132.324
1688827747.948,-55.664,-37.598,-27.344,-44.434,-107.422
1688827747.952,-42.969,-37.109,-26.855,-36.621,-139.160
1688827747.956,-16.113,-42.969,-28.809,-33.691,-0.488
1688827747.959,-6.348,-44.434,-26.367,-32.715,135.742
1688827747.963,-32.227,-36.133,-26.855,-32.715,-50.293
1688827747.967,-57.617,-31.738,-31.738,-35.156,-181.641
1688827747.971,-47.363,-35.156,-34.180,-30.762,-41.992
1688827747.975,-18.066,-33.203,-30.273,-15.137,394.043
1688827747.977,3.418,-26.855,-26.367,-16.602,271.973
1688827747.981,-20.508,-30.273,-29.297,-35.645,-172.852
1688827747.985,-52.246,-30.273,-27.832,-37.598,-143.066
1688827747.989,-46.875,-27.832,-24.414,-33.203,-129.395
1688827747.993,-19.531,-31.250,-29.297,-29.297,-172.363
1688827747.997,-11.719,-30.273,-31.738,-27.344,-116.211
1688827748.001,-37.109,-28.809,-28.809,-28.320,150.879
1688827748.004,-67.871,-30.762,-27.344,-25.879,220.215
1688827748.008,-60.059,-32.715,-27.344,-29.785,-95.703
1688827748.012,-30.273,-30.762,-26.367,-30.273,-152.344
1688827748.016,-12.207,-29.297,-26.855,-33.203,-95.703
1688827748.020,-32.227,-33.691,-27.344,-39.062,-150.879
1688827748.022,-55.176,-32.715,-28.320,-41.016,-168.945
1688827748.026,-57.617,-26.367,-31.738,-39.551,-67.383
1688827748.030,-45.410,-25.879,-32.715,-31.738,-8.789
1688827748.034,-8.301,-25.391,-27.344,-27.832,-80.078
1688827748.038,-15.625,-22.461,-27.344,-33.691,-161.621
1688827748.042,-52.734,-22.949,-29.297,-26.367,-132.812
1688827748.046,-62.500,-23.438,-24.414,-8.301,327.148
1688827748.049,-39.062,-33.203,-27.344,-16.602,437.012
1688827748.053,-3.418,-34.180,-28.320,-27.344,-105.957
1688827748.057,-15.137,-28.320,-24.902,-32.227,-126.953
1688827748.061,-55.664,-34.668,-25.879,-41.504,52.246
1688827748.065,-64.941,-34.180,-25.879,-34.668,-120.117
1688827748.082,-39.062,-32.715,-27.832,-27.832,-204.102
1688827748.086,-11.719,-32.715,-29.785,-30.273,-102.051
1688827748.090,-20.020,-35.156,-30.762,-39.062,-63.965
1688827748.094,-48.340,-37.598,-29.297,-42.969,-92.773
1688827748.098,-56.641,-36.621,-26.367,-30.762,-201.172
1688827748.102,-28.320,-32.227,-22.949,-9.277,169.922
1688827748.106,1.465,-31.738,-29.297,-5.371,383.301
1688827748.109,2.930,-30.762,-31.250,-17.578,-123.535
1688827748.113,-20.508,-31.738,-24.414,-27.832,-201.172
1688827748.117,-43.457,-31.738,-24.414,-24.414,-9.277
1688827748.121,-40.039,-24.902,-31.250,-11.719,-61.523
1688827748.125,-9.277,-22.949,-28.809,-11.230,-200.684
1688827748.127,-5.859,-25.391,-22.949,-16.113,-158.203
1688827748.131,-37.598,-28.809,-24.902,-25.391,-115.234
1688827748.135,-63.477,-30.273,-26.367,-26.855,-153.320
1688827748.139,-59.082,-33.203,-28.320,-20.508,-125.000
1688827748.143,-23.926,-35.156,-25.879,-16.602,-20.020
1688827748.147,-5.859,-30.273,-26.855,-23.438,39.551
1688827748.151,-29.297,-29.785,-31.250,-30.762,26.855
1688827748.154,-48.340,-29.785,-24.902,-25.879,18.066
1688827748.158,-33.691,-26.855,-24.414,-15.137,33.203
1688827748.162,-16.113,-29.785,-27.832,-0.488,318.359
1688827748.166,-12.207,-38.574,-29.297,-13.672,349.609
1688827748.170,-27.344,-38.086,-32.227,-36.133,-70.312
1688827748.171,-58.105,-36.621,-30.273,-36.133,-173.828
1688827748.175,-54.688,-35.645,-30.273,-33.203,-102.539
1688827748.179,-26.855,-33.691,-31.250,-36.133,-186.035
1688827748.183,-11.719,-32.227,-30.762,-45.898,-199.707
1688827748.187,-21.973,-30.762,-27.832,-45.410,-121.094
1688827748.191,-42.480,-28.809,-26.855,-39.062,-35.645
1688827748.195,-45.898,-28.320,-29.785,-31.738,-20.996
1688827748.198,-26.367,-31.250,-32.227,-29.297,-116.699
1688827748.202,-9.766,-34.180,-32.227,-25.391,162.598
1688827748.206,-21.973,-38.086,-31.738,-25.879,364.746
1688827748.210,-44.922,-35.645,-28.809,-37.598,-27.344
1688827748.214,-51.270,-32.715,-28.809,-29.785,-170.898
1688827748.217,-40.039,-37.109,-28.320,-24.414,-118.652
1688827748.221,-16.113,-39.062,-26.855,-25.391,-122.070
1688827748.225,-16.602,-33.203,-26.855,-28.809,-111.816
1688827748.229,-47.852,-31.738,-23.438,-35.156,-85.938
1688827748.233,-68.359,-37.109,-25.879,-36.621,-61.523
1688827748.237,-45.410,-37.109,-25.391,-28.809,-12.207
1688827748.241,-9.277,-30.273,-22.461,-21.973,-15.137
1688827748.244,-15.625,-28.320,-21.484,-23.438,-50.293
1688827748.248,-48.828,-32.715,-23.438,-16.113,278.320
1688827748.252,-54.688,-28.320,-28.320,-14.160,212.891
1688827748.256,-33.691,-22.949,-30.273,-21.973,-173.828
1688827748.260,-10.254,-26.367,-30.762,-29.297,-50.293
1688827748.261,-7.324,-29.297,-31.250,-34.668,-6.836
1688827748.265,-33.691,-28.320,-32.715,-37.109,-186.523
1688827748.269,-56.641,-27.832,-32.227,-33.203,-221.191
1688827748.273,-34.180,-26.367,-28.320,-20.996,-168.457
1688827748.277,-3.906,-30.273,-23.926,-15.137,-117.676
1688827748.281,-9.766,-34.668,-27.344,-22.949,-33.691
1688827748.285,-26.367,-28.809,-30.273,-26.855,1.953
1688827748.288,-43.945,-27.344,-28.809,-17.090,126.465
1688827748.292,-40.039,-36.621,-35.156,-14.648,235.840
1688827748.296,-4.883,-33.203,-35.156,-16.602,-45.898
1688827748.300,11.230,-18.066,-28.320,-14.160,-169.922
1688827748.304,-16.602,-16.602,-28.809,-24.414,-130.371
1688827748.307,-48.340,-24.414,-29.785,-22.461,-106.445
1688827748.311,-43.945,-31.250,-27.344,-12.207,-77.148
1688827748.315,-14.160,-33.691,-24.414,-10.742,-66.895
1688827748.319,0.977,-34.180,-21.484,-17.578,-10.742
1688827748.323,-18.555,-32.227,-17.578,-21.484,-65.918
1688827748.327,-52.246,-28.809,-22.461,-19.043,-78.125
1688827748.331,-64.453,-25.879,-25.879,-14.648,20.996
1688827748.334,-41.504,-29.785,-27.832,-8.301,426.758
1688827748.338,-15.137,-32.715,-33.691,-22.949,344.238
1688827748.342,-28.320,-28.809,-31.738,-36.133,-198.730
1688827748.346,-58.105,-33.691,-24.902,-30.273,-142.578
1688827748.350,-52.734,-34.180,-27.344,-16.113,-67.383
1688827748.352,-23.926,-29.785,-26.367,-13.672,-132.324
1688827748.356,-9.766,-38.086,-21.973,-28.320,-180.664
1688827748.360,-29.297,-36.621,-23.438,-30.762,-155.273
1688827748.364,-60.547,-31.738,-22.461,-23.438,-78.613
1688827748.368,-67.871,-32.715,-21.973,-19.043,-75.195
1688827748.372,-34.668,-28.320,-19.531,-12.695,-85.449
1688827748.376,-9.766,-29.297,-20.020,-8.789,120.605
1688827748.379,-20.996,-32.227,-22.949,-12.207,338.867
1688827748.383,-38.086,-28.809,-22.949,-28.809,13.184
1688827748.387,-50.781,-35.645,-26.367,-34.668,-200.195
1688827748.391,-36.621,-42.969,-28.809,-27.832,-94.238
1688827748.395,-0.488,-36.621,-29.297,-24.414,-100.586
1688827748.396,1.953,-29.297,-27.832,-25.391,-173.340
1688827748.400,-31.738,-36.133,-28.809,-33.691,-135.742
1688827748.404,-39.062,-41.992,-33.691,-34.180,-42.969
1688827748.408,-10.742,-37.598,-36.133,-24.902,-91.797
1688827748.412,8.301,-31.250,-34.180,-13.672,-132.324
1688827748.416,-1.465,-28.809,-29.785,-15.137,40.527
1688827748.420,-25.879,-31.250,-29.297,-22.949,231.445
1688827748.423,-41.992,-38.574,-32.715,-28.320,15.625
1688827748.427,-38.574,-40.039,-35.645,-33.203,-99.609
1688827748.431,-11.230,-36.133,-33.691,-27.832,-41.504
1688827748.435,-4.395,-34.668,-31.738,-24.414,220.215
1688827748.439,-29.785,-30.762,-26.855,-32.227,154.297
1688827748.457,-57.617,-32.715,-30.273,-38.086,-221.191
1688827748.461,-50.293,-33.203,-34.180,-36.133,-106.934
1688827748.465,-19.043,-32.715,-31.738,-29.297,-46.875
1688827748.469,-9.277,-32.227,-29.785,-35.645,-152.832
1688827748.473,-33.203,-33.203,-27.832,-37.598,-217.285
1688827748.477,-62.012,-39.062,-34.180,-32.227,-61.035
1688827748.481,-50.781,-40.527,-32.227,-27.344,68.359
1688827748.484,-13.184,-36.133,-28.809,-20.508,-91.797
1688827748.488,6.348,-32.227,-34.668,-22.949,-120.117
1688827748.492,-16.113,-33.203,-31.250,-20.508,125.977
1688827748.496,-42.969,-30.762,-28.320,-20.996,208.008
1688827748.500,-27.832,-27.832,-32.227,-27.832,-85.938
1688827748.501,-8.789,-29.297,-30.762,-18.555,-163.574
1688827748.505,-0.977,-20.996,-26.367,-23.926,-92.773
1688827748.509,-11.230,-17.578,-29.785,-36.133,-97.656
1688827748.513,-33.203,-29.785,-36.621,-39.551,-159.668
1688827748.517,-37.109,-35.156,-34.668,-39.551,-107.910
1688827748.521,-27.832,-31.738,-31.738,-32.715,56.641
1688827748.525,-0.977,-29.297,-29.785,-22.949,37.109
1688827748.528,-3.906,-28.809,-25.879,-23.926,-24.902
1688827748.532,-32.715,-28.320,-26.855,-27.832,-19.531
1688827748.536,-42.969,-28.320,-27.344,-15.137,285.645
1688827748.540,-19.531,-28.320,-25.879,-12.695,318.848
1688827748.544,9.766,-25.391,-23.926,-26.367,-97.168
1688827748.547,-11.719,-27.832,-25.879,-31.738,-66.406
1688827748.551,-48.828,-41.016,-30.273,-41.504,4.395
1688827748.555,-63.477,-40.039,-28.809,-41.016,-139.160
1688827748.559,-44.922,-31.738,-30.762,-25.391,-85.449
1688827748.563,-15.137,-29.785,-31.250,-22.461,-42.480
1688827748.567,-14.648,-26.855,-28.809,-24.902,-58.594
1688827748.571,-44.434,-27.344,-29.785,-24.902,-7.812
1688827748.574,-59.082,-26.367,-26.367,-19.043,-155.273
1688827748.578,-42.480,-26.855,-25.391,-9.766,-7.324
1688827748.582,-19.531,-27.344,-24.414,-12.207,198.242
1688827748.586,-17.090,-29.785,-21.484,-21.973,-97.168
1688827748.590,-44.922,-32.227,-21.484,-18.066,-128.418
1688827748.592,-63.965,-28.320,-20.996,-20.020,-58.105
1688827748.596,-42.969,-24.414,-23.438,-24.902,-76.172
1688827748.600,9.277,-21.484,-32.715,-19.043,-130.859
1688827748.604,21.484,-16.113,-36.133,-6.836,-117.188
1688827748.608,-36.133,-28.809,-23.926,-18.066,-11.719
1688827748.612,-69.824,-35.156,-17.090,-33.691,-44.434
1688827748.616,-45.898,-32.715,-22.461,-20.508,-47.363
1688827748.619,-19.531,-40.039,-28.320,-20.020,52.734
1688827748.623,-22.461,-39.551,-26.855,-29.297,321.777
1688827748.627,-35.156,-30.762,-26.855,-25.879,234.863
1688827748.631,-45.410,-26.367,-31.250,-30.273,-196.289
1688827748.635,-40.527,-30.762,-29.297,-34.668,-147.461
1688827748.636,-9.766,-26.367,-30.273,-30.762,-52.734
1688827748.640,6.836,-20.996,-30.762,-28.809,-130.859
1688827748.644,-18.555,-29.785,-32.227,-39.062,-166.992
1688827748.648,-50.781,-35.156,-34.668,-37.598,-38.086
1688827748.652,-40.039,-31.738,-30.273,-34.180,11.719
1688827748.656,-11.230,-30.762,-29.785,-35.645,-2.441
1688827748.660,-6.836,-26.367,-28.809,-34.180,-2.930
1688827748.663,-27.344,-23.926,-27.832,-31.250,122.559
1688827748.667,-51.270,-32.227,-26.367,-25.391,246.582
1688827748.671,-49.805,-32.227,-24.414,-28.809,-67.871
1688827748.675,-13.184,-25.879,-23.926,-21.484,-202.637
1688827748.679,5.859,-26.855,-22.949,-19.043,-132.324
1688827748.681,-20.996,-23.438,-21.484,-20.508,-176.270
1688827748.685,-47.852,-22.461,-19.043,-19.043,-205.566
1688827748.689,-48.340,-29.785,-25.391,-20.020,-133.789
1688827748.693,-33.691,-32.715,-31.738,-20.508,-31.250
1688827748.697,-21.973,-34.180,-29.785,-27.344,-26.367
1688827748.701,-30.762,-38.574,-27.832,-27.832,-37.598
1688827748.705,-53.223,-40.039,-24.902,-23.438,40.527
1688827748.708,-59.570,-38.574,-24.902,-10.254,411.133
1688827748.712,-32.715,-38.574,-27.344,-0.488,385.742
1688827748.716,0.488,-32.715,-24.414,-8.301,-58.594
1688827748.720,-8.301,-26.367,-19.043,-24.902,-121.582
1688827748.724,-44.434,-28.320,-21.973,-38.086,-33.203
1688827748.727,-62.500,-24.414,-26.367,-32.227,-198.242
1688827748.731,-48.340,-25.879,-25.391,-27.832,-243.652
1688827748.735,-24.414,-29.785,-27.832,-31.738,-136.719
1688827748.739,-20.020,-28.320,-30.273,-41.016,-133.789
1688827748.743,-41.016,-31.250,-30.273,-49.805,-203.125
1688827748.747,-63.477,-33.203,-30.273,-47.363,-155.762
1688827748.751,-54.199,-34.668,-29.785,-36.133,165.527
1688827748.754,-33.203,-35.156,-31.250,-33.203,208.008
1688827748.758,-26.367,-31.738,-32.715,-43.945,-98.145
1688827748.762,-46.875,-31.738,-29.785,-41.504,-141.113
1688827748.766,-57.617,-31.738,-29.297,-28.320,-57.617
1688827748.770,-48.828,-31.250,-31.250,-25.879,-33.203
1688827748.771,-25.391,-32.715,-30.762,-30.273,-143.555
1688827748.775,-9.277,-35.156,-30.762,-27.832,-139.648
1688827748.779,-34.668,-30.762,-33.203,-29.297,-62.500
1688827748.783,-59.570,-29.297,-33.203,-27.832,-118.164
1688827748.787,-41.504,-36.621,-31.738,-15.137,-148.438
1688827748.791,-15.137,-34.668,-29.785,-8.301,11.230
1688827748.795,-10.742,-29.785,-31.738,-14.160,169.922
1688827748.798,-18.066,-36.133,-31.738,-10.742,50.781
1688827748.802,-27.832,-46.387,-25.391,6.348,-81.543
1688827748.806,-35.156,-37.598,-29.297,-9.277,-51.270
1688827748.810,-36.621,-27.344,-40.527,-34.668,164.062
1688827748.814,-34.668,-29.785,-43.457,-50.781,77.148
1688827748.817,-52.734,-30.273,-39.551,-62.988,-174.316
1688827748.821,-89.355,-22.949,-44.922,-80.078,-62.500
1688827748.825,-92.285,-15.137,-45.898,-83.008,25.391
1688827748.829,-51.758,-11.230,-41.016,-75.684,-115.234
1688827748.833,-45.410,-10.742,-48.828,-87.891,-123.535
1688827748.837,-86.426,-18.555,-50.781,-104.004,23.926
1688827748.841,-111.328,-16.602,-50.781,-105.469,64.941
1688827748.844,-112.793,-11.230,-50.781,-106.445,-126.953
1688827748.848,-95.215,-14.160,-49.805,-109.375,-203.613
1688827748.852,-60.059,-18.555,-48.340,-99.609,-29.785
1688827748.856,-61.035,-24.902,-48.828,-104.980,0.000
1688827748.860,-84.961,-25.391,-44.922,-108.887,-166.992
1688827748.876,-84.961,-17.578,-38.086,-91.309,-172.852
1688827748.880,-60.059,-18.066,-38.086,-75.195,-9.766
1688827748.884,-32.227,-23.438,-40.527,-72.754,54.688
1688827748.888,-24.414,-22.949,-41.992,-74.707,-125.000
1688827748.892,-54.199,-21.484,-39.062,-73.730,-80.078
1688827748.896,-83.984,-29.297,-41.504,-67.383,199.707
1688827748.900,-60.059,-36.133,-39.062,-61.035,71.289
1688827748.903,-29.785,-36.133,-37.598,-56.152,-94.727
1688827748.907,-30.762,-30.762,-35.645,-50.781,6.836
1688827748.911,-53.223,-26.855,-33.203,-45.410,260.742
1688827748.915,-64.941,-25.391,-32.227,-46.875,93.750
1688827748.919,-37.598,-22.949,-31.250,-42.480,-215.820
1688827748.922,-1.465,-29.785,-35.156,-34.668,-154.297
1688827748.926,-6.836,-31.250,-33.691,-36.621,-120.605
1688827748.930,-28.809,-27.344,-29.297,-40.527,-144.043
1688827748.934,-51.270,-30.273,-21.484,-36.621,-140.137
1688827748.938,-47.363,-31.250,-23.438,-32.227,30.762
1688827748.942,-20.020,-32.715,-25.391,-33.691,83.496
1688827748.946,-11.719,-35.645,-26.855,-34.180,42.480
1688827748.949,-20.996,-35.645,-29.297,-36.621,-110.352
1688827748.953,-47.852,-34.180,-29.785,-32.715,10.742
1688827748.957,-43.457,-33.203,-29.297,-26.855,240.723
1688827748.961,2.441,-30.273,-27.344,-35.156,-95.215
1688827748.965,16.113,-28.809,-24.414,-31.738,-199.219
1688827748.967,-12.695,-29.297,-24.414,-25.391,-108.398
1688827748.971,-47.852,-28.320,-31.250,-33.691,-126.953
1688827748.975,-52.246,-27.344,-30.273,-31.738,-185.059
1688827748.979,-21.484,-26.855,-27.832,-21.973,-69.336
1688827748.983,-5.859,-27.832,-29.785,-16.602,89.844
1688827748.987,-27.344,-36.133,-29.785,-18.555,41.992
1688827748.991,-53.711,-33.691,-24.902,-15.625,20.996
1688827748.994,-44.434,-25.879,-25.879,-14.160,8.789
1688827748.998,-10.742,-27.344,-25.879,-1.953,326.660
1688827749.002,0.488,-31.250,-25.391,4.395,401.855
1688827749.006,-15.625,-32.227,-26.367,-14.160,-83.984
1688827749.010,-40.039,-30.762,-24.902,-23.926,-194.336
1688827749.011,-48.828,-36.133,-26.367,-25.879,-153.809
1688827749.015,-35.156,-31.250,-26.367,-21.484,-208.984
1688827749.019,-17.578,-30.273,-24.414,-20.508,-166.016
1688827749.023,-25.879,-34.668,-25.879,-26.855,-98.145
1688827749.027,-47.852,-36.621,-27.832,-26.367,-89.844
1688827749.031,-53.711,-36.621,-24.902,-16.602,-37.109
1688827749.035,-36.621,-31.250,-28.809,-15.625,-55.664
1688827749.038,-20.508,-35.156,-28.320,-11.230,133.789
1688827749.042,-26.855,-30.273,-22.949,-6.836,233.887
1688827749.046,-52.246,-23.926,-22.461,-18.066,-92.285
1688827749.050,-67.383,-28.809,-22.461,-19.531,-187.500
1688827749.054,-36.621,-22.949,-20.020,-4.883,-101.562
1688827749.056,-4.395,-19.531,-20.020,-3.418,-51.270
1688827749.060,-5.859,-19.043,-23.438,-16.113,-110.352
1688827749.064,-25.391,-16.113,-22.461,-12.695,-161.133
1688827749.068,-42.969,-18.555,-24.902,-7.812,-130.859
1688827749.072,-29.297,-26.367,-31.250,-8.301,-94.238
1688827749.076,-3.906,-28.320,-30.273,-6.836,-46.387
1688827749.080,-10.742,-27.832,-26.855,-15.625,30.273
1688827749.083,-50.293,-25.879,-29.785,-15.625,380.371
1688827749.087,-76.660,-26.855,-27.832,-20.020,307.617
1688827749.091,-55.176,-26.855,-23.438,-25.391,-142.578
1688827749.095,-22.949,-28.809,-26.855,-9.766,-99.609
1688827749.099,-15.137,-33.203,-27.832,-8.301,-27.344
1688827749.101,-22.949,-27.344,-21.973,-21.973,-91.797
1688827749.105,-47.852,-28.320,-20.508,-23.438,-194.824
1688827749.109,-56.152,-33.691,-25.391,-16.113,-10.254
1688827749.113,-11.230,-28.320,-28.320,-14.648,93.750
1688827749.117,8.789,-20.508,-27.832,-24.414,-119.629
1688827749.121,-28.320,-25.391,-26.855,-28.320,-66.895
1688827749.125,-68.848,-35.645,-28.809,-19.531,200.195
1688827749.128,-57.129,-31.738,-32.715,-19.531,245.605
1688827749.132,-14.648,-28.320,-29.297,-29.785,-98.145
1688827749.136,-1.953,-32.715,-26.367,-29.785,-160.645
1688827749.140,-28.809,-32.227,-28.809,-28.320,-66.895
1688827749.144,-58.594,-32.715,-27.344,-33.691,-77.148
1688827749.147,-51.758,-35.645,-24.414,-35.156,-177.246
1688827749.151,-22.461,-31.738,-27.832,-29.297,-134.277
1688827749.155,-6.836,-32.227,-28.320,-24.902,-8.301
1688827749.159,-13.184,-36.621,-28.320,-24.902,-69.336
1688827749.163,-38.086,-31.250,-28.809,-29.297,-144.531
1688827749.167,-52.246,-28.320,-30.273,-31.738,-78.613
1688827749.171,-21.484,-33.691,-32.715,-15.137,214.355
1688827749.174,17.090,-43.457,-26.367,8.789,206.055
1688827749.178,17.578,-34.668,-20.508,0.000,-120.117
1688827749.182,-45.410,-14.160,-28.809,-37.598,-63.477
1688827749.186,-93.750,-17.578,-42.480,-61.523,144.531
1688827749.190,-60.547,-21.484,-42.480,-60.547,-37.598
1688827749.207,-22.949,-19.043,-40.527,-48.828,-190.918
1688827749.211,-37.109,-14.648,-43.945,-62.988,-131.348
1688827749.215,-82.031,-13.184,-48.828,-89.844,-108.887
1688827749.219,-97.168,-18.555,-50.781,-96.680,-166.016
1688827749.223,-81.543,-22.949,-47.852,-88.379,-225.586
1688827749.227,-70.312,-22.461,-52.246,-78.125,110.352
1688827749.231,-83.008,-23.438,-59.082,-83.984,275.879
1688827749.234,-94.238,-27.344,-61.035,-86.914,-41.992
1688827749.238,-91.797,-27.344,-51.270,-77.148,-200.195
1688827749.242,-62.988,-30.273,-40.527,-62.988,-51.270
1688827749.246,-21.484,-31.738,-38.574,-54.199,19.531
1688827749.250,-21.973,-34.668,-35.156,-48.828,-138.184
1688827749.251,-52.734,-37.598,-37.598,-49.316,-162.598
1688827749.255,-64.453,-34.180,-33.691,-41.504,-122.070
1688827749.259,-48.828,-37.109,-28.809,-35.156,-83.008
1688827749.263,-7.812,-38.086,-32.227,-37.598,-138.184
1688827749.267,17.090,-39.062,-30.762,-35.156,-117.676
1688827749.271,-14.160,-39.062,-29.785,-30.762,35.156
1688827749.275,-43.945,-36.133,-32.227,-30.273,82.520
1688827749.278,-38.574,-40.039,-28.809,-26.855,-19.043
1688827749.282,-2.930,-41.504,-29.297,-25.391,8.789
1688827749.286,8.301,-39.551,-29.785,-19.531,341.797
1688827749.290,-32.227,-41.504,-25.391,-18.066,337.402
1688827749.294,-60.547,-41.504,-24.902,-21.973,-96.680
1688827749.296,-53.223,-37.109,-23.438,-13.184,-142.090
1688827749.300,-22.949,-35.156,-26.367,-10.254,-90.820
1688827749.304,-3.906,-39.551,-30.762,-17.578,-176.270
1688827749.308,-20.996,-39.551,-34.180,-29.297,-149.902
1688827749.312,-42.480,-38.574,-32.715,-25.391,-73.730
1688827749.316,-31.250,-41.992,-32.227,-18.555,34.180
1688827749.320,-1.953,-43.457,-30.762,-14.648,63.477
1688827749.323,8.301,-42.480,-25.391,-18.066,-116.211
1688827749.327,-21.973,-42.480,-24.902,-28.809,59.570
1688827749.331,-66.895,-41.504,-26.855,-31.250,265.137
1688827749.335,-70.801,-39.062,-28.809,-28.320,-57.617
1688827749.339,-34.668,-41.504,-28.320,-24.414,-194.824
1688827749.341,-3.906,-47.363,-26.855,-28.320,-52.734
1688827749.345,-14.160,-43.457,-27.344,-36.133,-70.312
1688827749.349,-47.363,-38.574,-30.273,-34.668,-164.551
1688827749.353,-52.734,-38.086,-30.762,-27.344,-142.578
1688827749.357,-24.414,-36.621,-28.320,-22.949,-80.566
1688827749.361,-5.859,-30.762,-26.855,-17.090,-19.531
1688827749.365,-12.207,-32.227,-29.785,-16.113,30.762
1688827749.368,-39.551,-39.551,-30.273,-17.578,-5.859
1688827749.372,-62.012,-37.598,-30.273,-4.395,309.570
1688827749.376,-35.645,-30.273,-30.762,-5.371,313.477
1688827749.380,-2.441,-32.715,-27.344,-18.555,-158.203
1688827749.384,-10.742,-33.691,-28.320,-22.461,-149.414
1688827749.387,-34.668,-30.762,-37.109,-25.391,-48.340
1688827749.391,-47.852,-35.645,-33.203,-21.973,-142.578
1688827749.395,-24.902,-37.109,-28.809,-23.926,-228.516
1688827749.399,0.488,-40.527,-30.762,-28.809,-75.195
1688827749.403,-7.812,-42.969,-29.785,-32.715,-19.043
1688827749.407,-42.969,-38.574,-27.344,-31.738,-120.605
1688827749.411,-71.777,-36.133,-27.344,-27.344,-134.277
1688827749.414,-61.523,-32.227,-20.996,-18.555,97.656
1688827749.418,-24.902,-24.414,-15.625,-13.672,218.262
1688827749.422,-15.137,-26.367,-20.020,-28.320,-135.254
1688827749.426,-49.316,-35.645,-23.438,-30.762,-203.125
1688827749.430,-72.754,-31.738,-23.926,-27.344,-107.422
1688827749.432,-54.199,-29.297,-29.297,-24.902,-95.703
1688827749.436,-25.879,-28.320,-31.738,-18.066,-116.211
1688827749.440,-21.973,-29.785,-29.785,-16.113,-56.152
1688827749.444,-40.527,-33.203,-32.227,-20.508,16.602
1688827749.448,-52.246,-33.691,-31.250,-22.461,-61.035
1688827749.452,-40.039,-33.691,-29.785,-16.602,-76.660
1688827749.456,-9.277,-26.367,-30.273,-13.672,-13.184
1688827749.459,-2.441,-21.973,-33.203,-7.812,391.113
1688827749.463,-18.066,-28.320,-31.738,-8.301,342.285
1688827749.467,-37.598,-30.273,-30.273,-16.602,-210.449
1688827749.471,-43.945,-25.879,-37.109,-18.066,-133.789
1688827749.475,-10.742,-21.973,-33.203,-19.043,-60.547
1688827749.476,15.137,-22.949,-30.273,-20.508,-183.105
1688827749.480,-9.766,-24.414,-30.273,-27.344,-191.406
1688827749.484,-41.504,-23.926,-30.762,-33.691,-148.438
1688827749.488,-34.668,-25.879,-33.203,-27.344,-150.879
1688827749.492,-16.602,-31.250,-33.691,-28.320,-151.367
1688827749.496,-1.953,-29.785,-32.715,-42.480,-73.730
1688827749.500,-14.160,-30.273,-27.344,-35.156,198.730
1688827749.503,-57.617,-34.180,-29.297,-31.250,320.312
1688827749.507,-59.570,-31.738,-27.344,-31.250,-56.152
1688827749.511,-16.113,-26.855,-23.438,-17.578,-166.992
1688827749.515,2.930,-25.879,-22.949,-14.648,-80.078
1688827749.519,-17.090,-33.691,-21.484,-17.578,-109.375
1688827749.521,-35.645,-32.715,-14.648,-16.602,-190.430
1688827749.525,-44.434,-28.320,-12.695,-14.648,-142.578
1688827749.529,-28.320,-30.762,-18.555,-2.930,-29.297
1688827749.533,4.883,-33.203,-22.949,-3.418,-34.668
1688827749.537,-1.953,-38.574,-27.832,-17.090,-103.027
1688827749.541,-38.086,-40.039,-28.320,-20.020,-26.855
1688827749.545,-53.223,-36.621,-30.762,-17.578,274.902
1688827749.548,-35.645,-35.156,-35.645,-17.578,180.176
1688827749.552,-11.719,-38.086,-38.574,-28.320,-60.059
1688827749.556,-21.973,-40.039,-37.598,-36.621,-27.832
1688827749.560,-54.199,-36.133,-38.574,-26.367,224.121
1688827749.564,-51.270,-28.809,-40.039,-26.855,110.840
1688827749.566,-22.949,-27.344,-32.715,-33.691,-188.477
1688827749.570,-2.930,-28.320,-29.785,-29.297,-140.625
1688827749.574,-1.953,-26.367,-28.809,-29.785,-126.953
1688827749.578,-24.414,-29.785,-27.832,-37.109,-185.059
1688827749.582,-58.594,-36.133,-28.809,-40.527,-165.527
1688827749.586,-48.340,-37.598,-27.344,-27.832,-19.043
1688827749.590,-12.207,-32.227,-28.809,-22.949,102.051
1688827749.593,0.000,-31.250,-27.344,-27.832,10.742
1688827749.597,-21.484,-32.715,-24.902,-24.902,-185.547
1688827749.601,-53.711,-30.273,-26.855,-20.508,9.277
1688827749.605,-41.504,-27.344,-28.809,-15.625,145.020
1688827749.609,-7.324,-23.926,-25.391,-13.672,-133.789
1688827749.628,3.906,-19.531,-23.926,-10.742,-170.898
1688827749.632,-13.672,-21.973,-25.879,-18.066,-72.754
1688827749.636,-36.621,-25.391,-26.367,-18.066,-68.848
1688827749.640,-32.227,-26.367,-26.367,-7.812,-136.230
1688827749.644,-4.883,-24.902,-25.391,-4.395,-104.492
1688827749.648,-2.441,-22.461,-21.484,-9.277,36.133
1688827749.652,-26.367,-23.438,-21.973,-16.113,18.066
1688827749.655,-53.711,-26.855,-22.949,-15.137,-34.668
1688827749.659,-60.059,-31.250,-24.902,-18.066,-12.207
1688827749.663,-31.250,-32.227,-27.832,-14.648,236.328
1688827749.667,-7.812,-30.273,-32.227,-26.367,195.312
1688827749.671,-25.879,-33.203,-34.668,-45.410,-184.570
1688827749.671,-53.223,-33.203,-32.227,-41.504,-71.289
1688827749.675,-49.316,-24.414,-28.320,-35.645,-9.766
1688827749.679,-17.578,-20.996,-29.297,-27.344,-141.113
1688827749.683,12.207,-26.367,-30.762,-30.273,-175.293
1688827749.687,2.441,-30.273,-27.344,-39.062,-120.605
1688827749.691,-31.250,-27.832,-27.832,-40.039,31.250
1688827749.695,-41.504,-28.809,-30.273,-44.434,57.129
1688827749.698,-14.160,-34.180,-31.738,-40.527,-114.746
1688827749.702,-5.859,-33.203,-31.250,-31.250,83.496
1688827749.706,-20.508,-28.320,-31.250,-33.691,258.301
1688827749.710,-49.316,-24.414,-31.250,-41.992,-97.656
1688827749.714,-77.637,-29.297,-32.227,-46.875,-168.457
1688827749.717,-51.270,-29.785,-33.203,-42.969,-63.477
1688827749.721,-8.301,-26.367,-33.691,-33.203,-61.523
1688827749.725,-23.926,-31.250,-37.598,-38.574,-97.656
1688827749.729,-56.641,-26.855,-44.434,-39.551,-100.098
1688827749.733,-41.992,-15.137,-45.410,-20.996,-3.906
1688827749.737,-23.438,-24.414,-27.832,-17.090,24.414
1688827749.741,-19.043,-34.180,-5.859,-28.809,-15.137
1688827749.744,-26.855,-27.832,-11.230,-38.086,-4.883
1688827749.748,-71.777,-33.203,-23.438,-42.480,188.965
1688827749.752,-90.820,-38.086,-26.367,-48.340,40.039
1688827749.756,-65.918,-29.785,-24.414,-45.410,-209.473
1688827749.760,-44.922,-25.391,-17.090,-36.133,-47.363
1688827749.762,-49.805,-24.414,-13.184,-44.922,156.738
1688827749.766,-73.730,-20.020,-16.602,-62.012,-73.242
1688827749.770,-98.633,-16.113,-23.438,-64.453,-215.820
1688827749.774,-97.168,-17.578,-25.879,-67.871,-147.461
1688827749.778,-63.965,-20.020,-22.949,-71.289,-151.855
1688827749.782,-48.828,-18.555,-19.043,-71.777,-140.137
1688827749.786,-72.266,-18.066,-24.414,-84.961,-85.938
1688827749.789,-117.676,-21.973,-27.344,-89.844,176.758
1688827749.793,-121.582,-22.949,-27.344,-80.566,327.637
1688827749.797,-73.730,-23.438,-26.367,-83.496,-1.465
1688827749.801,-52.246,-28.809,-20.508,-73.242,-167.969
1688827749.805,-60.547,-22.461,-20.508,-59.082,-124.512
1688827749.807,-77.148,-26.367,-20.020,-62.012,-128.906
1688827749.811,-76.660,-33.203,-16.602,-63.965,-160.156
1688827749.815,-51.758,-29.785,-15.137,-59.570,-103.027
1688827749.819,-26.367,-35.645,-11.230,-44.434,-33.691
1688827749.823,-31.738,-43.945,-8.301,-44.434,-13.184
1688827749.827,-62.988,-42.969,-9.277,-39.551,-52.734
1688827749.831,-63.477,-38.574,-1.465,-19.043,18.066
1688827749.834,-37.598,-39.062,4.395,-16.113,96.191
1688827749.838,-9.277,-42.969,-3.906,-11.230,-14.160
1688827749.842,-3.906,-43.945,-4.883,-9.277,-137.695
1688827749.846,-31.738,-47.363,-1.465,-6.836,-142.090
1688827749.850,-47.852,-52.246,-2.930,17.578,286.621
1688827749.866,-3.906,-46.875,-1.953,34.180,262.695
1688827749.870,49.316,-44.434,-5.859,36.133,-165.527
1688827749.874,35.645,-46.387,-6.836,29.785,-182.617
1688827749.878,4.883,-48.340,-3.418,22.949,-150.391
1688827749.882,0.488,-41.992,-6.836,32.715,-176.270
1688827749.886,21.973,-35.645,-10.254,45.410,-190.918
1688827749.890,38.574,-35.156,-10.742,42.480,136.230
1688827749.893,23.926,-38.086,-15.137,20.996,290.039
1688827749.897,0.488,-35.645,-15.625,8.789,-146.484
1688827749.901,-15.625,-36.621,-18.066,15.625,-295.898
1688827749.905,-3.418,-42.969,-24.902,24.414,-104.980
1688827749.909,20.508,-48.340,-29.785,19.043,-57.617
1688827749.897,26.367,-45.410,-27.344,7.812,-191.406
1688827749.901,3.906,-41.504,-25.879,10.742,-180.176
1688827749.905,-21.973,-42.969,-30.762,12.207,-70.801
1688827749.909,-10.742,-40.039,-28.809,11.230,-56.641
1688827749.913,22.949,-37.109,-22.949,19.531,-157.715
1688827749.917,17.578,-38.086,-28.809,17.090,-24.902
1688827749.921,-14.160,-41.016,-30.273,9.766,135.742
1688827749.924,-25.879,-41.992,-23.926,7.812,49.316
1688827749.928,-18.066,-41.504,-22.461,1.953,-74.707
1688827749.932,2.441,-42.480,-23.438,6.348,-92.285
1688827749.936,13.672,-36.621,-22.461,23.438,288.086
1688827749.940,-8.789,-33.691,-21.484,18.066,217.285
1688827749.942,-38.086,-38.574,-26.367,8.301,-182.129
1688827749.946,-32.715,-38.086,-23.926,12.695,-15.137
1688827749.950,1.465,-37.109,-23.438,10.254,20.020
1688827749.954,25.879,-37.598,-22.949,8.301,-153.320
1688827749.958,3.418,-35.645,-24.414,3.906,-155.762
1688827749.962,-32.227,-31.738,-28.320,2.930,87.402
1688827749.966,-26.367,-32.715,-29.785,5.859,276.855
1688827749.969,12.207,-31.738,-30.273,-1.465,7.812
1688827749.973,28.809,-30.762,-36.621,-5.371,-159.668
1688827749.977,-6.836,-33.691,-40.039,-9.277,52.246
1688827749.981,-52.734,-31.738,-37.109,-17.578,55.176
1688827749.985,-54.199,-29.785,-33.203,-17.090,-160.645
1688827750.002,-23.438,-34.668,-32.227,-14.648,-133.301
1688827750.006,-3.906,-39.062,-31.250,-18.555,-67.871
1688827750.010,-15.625,-38.574,-35.645,-24.414,-97.656
1688827750.014,-39.062,-35.156,-37.598,-30.762,-125.000
1688827750.018,-45.898,-33.691,-33.203,-25.391,-91.797
1688827750.022,-25.879,-36.621,-32.227,-16.113,130.859
1688827750.026,0.488,-38.574,-31.738,-24.414,145.508
1688827750.029,-10.254,-37.109,-29.785,-29.297,-93.750
1688827750.033,-49.316,-36.133,-25.879,-25.879,-130.371
1688827750.037,-66.895,-40.527,-27.832,-20.996,241.211
1688827750.041,-36.133,-42.969,-35.156,-20.996,201.660
1688827750.045,2.930,-38.574,-32.227,-20.020,-185.547
1688827750.046,3.906,-41.992,-30.273,-15.625,-159.668
1688827750.050,-26.367,-37.109,-32.227,-22.949,-141.113
1688827750.054,-34.668,-27.344,-27.832,-17.578,-195.312
1688827750.058,-16.113,-27.832,-25.879,-6.348,-168.945
1688827750.062,-1.465,-33.203,-27.832,-9.766,-97.168
1688827750.066,-3.906,-35.645,-31.250,-18.066,-62.500
1688827750.070,-24.414,-33.203,-33.203,-23.926,-90.332
1688827750.073,-40.039,-32.715,-34.180,-24.414,-94.727
1688827750.077,-33.691,-34.180,-32.227,-16.602,96.680
1688827750.081,-5.859,-31.738,-29.785,-12.207,215.820
1688827750.085,10.742,-30.273,-32.227,-17.578,-54.688
1688827750.089,-19.043,-31.738,-36.621,-24.414,-147.949
1688827750.091,-52.246,-31.738,-35.156,-23.926,-85.938
1688827750.095,-41.016,-31.738,-31.250,-15.625,-94.727
1688827750.099,-10.742,-32.227,-30.273,-16.113,-154.297
1688827750.103,-1.465,-33.203,-31.738,-17.090,-140.137
1688827750.107,-29.785,-39.062,-37.109,-14.648,-77.637
1688827750.111,-53.223,-41.992,-39.551,-17.090,-50.293
1688827750.115,-48.828,-40.039,-33.203,-18.066,59.570
1688827750.118,-12.695,-39.062,-36.621,-9.766,142.578
1688827750.122,24.414,-41.504,-33.691,11.719,413.086
1688827750.126,-14.160,-49.805,-25.879,-10.254,381.836
1688827750.130,-70.312,-39.551,-27.344,-53.711,-83.496
1688827750.134,-68.848,-26.367,-33.691,-50.293,-156.250
1688827750.136,-37.598,-28.809,-38.574,-48.340,-110.352
1688827750.140,-38.574,-26.855,-30.762,-68.359,-198.242
1688827750.144,-47.852,-24.414,-22.949,-62.500,-202.637
1688827750.148,-63.965,-23.926,-24.902,-45.410,-114.746
1688827750.152,-72.754,-29.297,-28.320,-43.457,-71.777
1688827750.156,-45.898,-34.180,-32.227,-50.293,27.832
1688827750.160,-15.625,-34.668,-34.180,-48.340,-0.977
1688827750.163,-23.926,-33.203,-33.691,-42.480,97.656
1688827750.167,-47.363,-34.180,-34.180,-39.551,214.355
1688827750.171,-32.715,-29.785,-32.227,-40.039,-103.516
1688827750.175,-9.277,-28.809,-29.297,-36.133,-139.648
1688827750.179,9.277,-33.203,-25.879,-30.273,82.520
1688827750.181,7.324,-31.250,-21.973,-32.227,-17.578
1688827750.185,-25.879,-25.879,-23.438,-28.809,-209.473
1688827750.189,-46.875,-33.691,-25.391,-15.137,-144.043
1688827750.193,-36.133,-37.598,-25.391,-16.113,-71.777
1688827750.197,0.977,-33.691,-26.855,-20.020,-120.117
1688827750.201,-1.953,-31.250,-26.855,-19.531,-104.980
1688827750.205,-41.992,-33.203,-27.832,-31.738,0.488
1688827750.208,-56.641,-32.715,-28.809,-20.508,400.879
1688827750.212,-20.508,-32.715,-28.320,-15.625,371.094
1688827750.216,2.441,-39.062,-30.273,-24.902,-149.414
1688827750.220,-21.973,-42.480,-29.297,-18.555,-137.695
1688827750.224,-45.410,-44.434,-29.785,-24.902,-82.520
1688827750.227,-62.012,-44.922,-31.738,-30.273,-184.570
1688827750.231,-48.340,-42.480,-28.320,-25.391,-144.531
1688827750.235,-19.043,-38.086,-27.344,-15.625,17.090
1688827750.239,-10.742,-39.062,-31.250,-16.113,23.438
1688827750.243,-33.691,-38.086,-33.691,-28.809,-109.375
1688827750.247,-55.176,-30.762,-30.762,-31.738,-125.488
1688827750.251,-40.527,-31.250,-24.902,-20.020,171.875
1688827750.254,-13.672,-33.691,-30.273,-13.672,278.320
1688827750.258,-1.953,-28.320,-33.691,-16.113,-122.070
1688827750.262,-21.973,-31.738,-39.062,-27.832,-195.801
1688827750.266,-50.781,-34.180,-37.109,-29.297,-124.023
1688827750.270,-38.086,-34.180,-35.645,-20.020,-135.254
1688827750.271,-5.859,-33.203,-36.133,-18.066,-151.855
1688827750.275,5.859,-31.738,-33.203,-16.602,-123.535
1688827750.279,-12.207,-32.715,-35.156,-21.484,-95.703
1688827750.283,-41.992,-31.738,-33.203,-20.508,-124.023
1688827750.287,-40.039,-33.691,-30.273,-11.230,-124.023
1688827750.291,-9.766,-33.691,-29.297,-12.695,-74.707
1688827750.295,6.836,-33.691,-28.809,-9.766,339.844
1688827750.298,-10.254,-33.203,-29.785,-10.254,437.012
1688827750.302,-34.180,-30.762,-35.645,-21.484,-86.426
1688827750.306,-44.434,-26.855,-34.668,-11.230,-132.324
1688827750.310,-36.621,-31.250,-35.645,-9.766,5.371
1688827750.314,-11.230,-32.715,-33.691,-20.020,-152.344
1688827750.316,-14.648,-29.297,-25.879,-17.578,-244.629
1688827750.320,-42.969,-25.879,-23.438,-17.578,-178.711
1688827750.324,-57.129,-26.855,-28.809,-29.297,-110.352
1688827750.328,-31.250,-42.969,-26.855,-20.508,-107.422
1688827750.332,25.879,-48.828,-18.555,14.160,-104.980
1688827750.336,17.090,-22.461,-25.879,10.254,151.367
1688827750.340,-48.340,-10.254,-34.668,-34.180,189.453
1688827750.343,-70.312,-16.113,-39.551,-50.293,-65.918
1688827750.347,-55.176,-14.648,-45.898,-55.176,-125.977
1688827750.351,-33.691,-20.508,-48.340,-68.359,-78.125
1688827750.355,-34.668,-30.273,-50.293,-76.172,-65.918
1688827750.359,-57.129,-26.855,-50.293,-72.266,-151.367
1688827750.391,-79.590,-20.020,-47.852,-78.613,-224.609
1688827750.395,-82.031,-27.344,-53.711,-79.590,99.609
1688827750.399,-41.016,-30.762,-58.594,-64.941,221.680
1688827750.403,-33.203,-23.926,-57.617,-77.637,-119.141
1688827750.407,-71.289,-23.926,-59.082,-86.426,-152.344
1688827750.411,-79.102,-27.832,-61.523,-72.754,25.879
1688827750.415,-54.199,-27.832,-59.082,-59.570,44.922
1688827750.418,-24.414,-26.855,-53.223,-56.641,-64.941
1688827750.422,-12.695,-27.832,-48.340,-54.688,4.883
1688827750.426,-31.738,-35.156,-46.387,-46.387,352.539
1688827750.430,-46.387,-39.062,-44.922,-44.922,305.176
1688827750.434,-24.902,-36.133,-39.551,-53.223,-135.254
1688827750.421,-0.977,-33.203,-34.180,-51.270,-153.809
1688827750.425,0.977,-32.715,-34.668,-45.410,-101.074
1688827750.429,-27.344,-35.645,-36.133,-48.340,-148.438
1688827750.433,-55.176,-33.691,-32.227,-44.922,-163.086
1688827750.437,-35.645,-30.762,-29.785,-31.250,-77.637
1688827750.441,-3.418,-31.738,-33.203,-33.691,68.848
1688827750.445,-0.488,-33.691,-31.738,-41.504,20.020
1688827750.448,-23.438,-34.180,-29.297,-38.574,-102.539
1688827750.452,-42.969,-28.809,-27.832,-34.668,-57.129
1688827750.456,-31.250,-24.902,-28.320,-30.762,-5.371
1688827750.460,-0.977,-28.320,-29.785,-25.879,-70.801
1688827750.464,3.906,-36.621,-31.738,-29.785,-110.840
1688827750.466,-20.020,-38.574,-31.738,-22.461,122.559
1688827750.470,-42.480,-32.715,-28.320,-18.066,253.418
1688827750.474,-34.180,-30.273,-26.855,-22.461,-99.121
1688827750.478,-1.465,-26.367,-25.879,-17.090,-219.727
1688827750.482,21.484,-25.879,-20.508,-15.625,-131.836
1688827750.486,0.000,-29.297,-20.996,-17.578,-35.645
1688827750.490,-45.410,-26.855,-23.438,-23.926,0.977
1688827750.493,-46.387,-29.297,-22.461,-19.043,-32.715
1688827750.497,-16.113,-33.691,-24.902,-2.441,244.629
1688827750.501,-1.465,-35.645,-26.855,-11.719,258.789
1688827750.505,-17.578,-40.039,-28.809,-32.715,-179.199
1688827750.509,-42.969,-35.645,-30.273,-37.598,-203.613
1688827750.512,-52.246,-31.738,-28.809,-36.621,-166.016
1688827750.516,-34.180,-32.227,-31.738,-37.109,-163.574
1688827750.520,4.883,-29.785,-30.762,-35.156,-85.938
1688827750.524,-3.906,-32.227,-27.344,-36.621,12.207
1688827750.528,-47.852,-29.297,-24.414,-33.203,34.180
1688827750.532,-49.805,-23.926,-21.973,-20.508,-59.082
1688827750.536,-28.320,-29.297,-26.367,-23.438,-46.387
1688827750.539,-14.160,-27.832,-27.344,-20.508,140.625
1688827750.543,-17.578,-23.926,-25.879,-20.996,194.824
1688827750.547,-40.039,-30.273,-28.320,-32.227,-158.203
1688827750.551,-62.500,-30.762,-25.391,-29.785,-175.293
1688827750.555,-48.828,-29.785,-22.461,-33.203,-14.648
1688827750.557,-7.812,-29.297,-25.391,-31.738,-50.293
1688827750.561,6.348,-25.391,-25.879,-34.180,-130.859
1688827750.565,-15.137,-27.832,-27.832,-39.551,-116.699
1688827750.569,-38.086,-31.250,-27.832,-38.086,-41.992
1688827750.573,-33.691,-31.250,-23.926,-34.668,0.977
1688827750.577,-14.160,-31.250,-31.250,-40.039,-7.812
1688827750.581,-10.742,-36.621,-32.715,-44.434,1.953
1688827750.584,-39.062,-39.062,-30.273,-30.273,356.934
1688827750.588,-64.941,-38.574,-36.133,-24.414,464.844
1688827750.592,-46.875,-37.598,-34.668,-36.133,-8.301
1688827750.596,-17.578,-37.109,-31.738,-36.621,-135.742
1688827750.600,-3.418,-35.156,-36.133,-37.109,-92.285
1688827750.602,-23.438,-28.809,-42.480,-35.645,-207.031
1688827750.606,-57.617,-27.832,-36.621,-31.250,-207.520
1688827750.610,-42.969,-32.715,-29.297,-20.508,-143.555
1688827750.614,-15.137,-35.645,-33.691,-20.996,-87.402
1688827750.618,-12.207,-35.645,-34.668,-26.855,-118.164
1688827750.622,-28.320,-33.691,-31.250,-31.738,-169.922
1688827750.626,-54.688,-30.273,-26.855,-26.855,114.258
1688827750.629,-48.828,-25.391,-21.973,-13.672,269.531
1688827750.633,-11.230,-25.391,-21.484,-21.484,-88.867
1688827750.637,-2.930,-28.320,-24.414,-29.785,-218.750
1688827750.641,-10.254,-28.809,-27.344,-28.809,28.320
1688827750.645,-25.879,-24.414,-30.273,-27.832,53.223
1688827750.662,-37.109,-25.879,-28.809,-23.438,-207.031
1688827750.666,-10.742,-27.344,-26.367,-19.043,-212.402
1688827750.670,18.555,-27.344,-29.297,-16.602,-131.348
1688827750.674,10.254,-28.320,-36.133,-16.113,-105.957
1688827750.678,-19.531,-25.879,-35.156,-21.484,-139.648
1688827750.682,-39.062,-27.832,-34.180,-26.367,-92.285
1688827750.686,-32.715,-32.227,-36.133,-20.020,198.242
1688827750.689,-5.371,-33.203,-34.668,-19.043,160.645
1688827750.693,-13.672,-32.227,-30.273,-29.785,-100.098
1688827750.697,-52.734,-29.297,-24.902,-33.691,-66.895
1688827750.701,-62.012,-29.785,-24.414,-27.832,200.195
1688827750.705,-42.969,-34.668,-23.926,-25.879,75.195
1688827750.691,-14.648,-29.785,-21.484,-20.020,-183.105
1688827750.695,-10.254,-20.996,-17.578,-24.414,-120.605
1688827750.699,-33.203,-23.438,-20.508,-31.738,-102.539
1688827750.703,-54.688,-28.809,-24.414,-25.391,-151.367
1688827750.707,-42.480,-32.227,-21.973,-20.020,-158.203
1688827750.711,-12.695,-35.156,-25.879,-22.949,85.938
1688827750.715,-6.348,-33.203,-33.203,-29.785,159.668
1688827750.718,-32.227,-36.133,-31.738,-34.668,-74.219
1688827750.722,-44.434,-32.227,-23.926,-28.809,-223.633
1688827750.726,-35.156,-27.832,-21.973,-14.160,28.320
1688827750.730,-15.137,-30.273,-22.949,-8.301,145.508
1688827750.734,3.906,-29.785,-21.484,-14.648,-117.676
1688827750.753,-17.578,-31.738,-20.020,-12.695,-113.770
1688827750.757,-47.363,-31.738,-21.484,-16.602,-27.344
1688827750.761,-31.250,-37.598,-22.461,-9.766,-43.945
1688827750.765,20.508,-48.828,-20.020,19.531,-153.809
1688827750.769,33.691,-28.809,-21.973,3.418,-127.930
1688827750.773,-21.973,-16.113,-33.691,-42.969,-52.734
1688827750.777,-56.152,-23.438,-38.086,-48.828,36.133
1688827750.780,-51.758,-21.973,-34.668,-45.898,-12.695
1688827750.784,-31.250,-24.414,-35.645,-46.387,-116.699
1688827750.788,-3.418,-24.414,-38.574,-33.691,236.816
1688827750.792,-14.160,-16.602,-39.062,-45.410,204.590
1688827750.796,-48.828,-20.996,-38.086,-56.641,-212.891
1688827750.816,-55.664,-32.227,-38.086,-41.504,-160.156
1688827750.820,-29.785,-31.250,-32.227,-34.668,-97.168
1688827750.824,-14.160,-28.320,-34.180,-36.133,-62.012
1688827750.828,-27.344,-29.785,-33.691,-42.480,-122.559
1688827750.832,-57.617,-29.785,-30.273,-42.969,-47.852
1688827750.836,-61.035,-31.738,-36.133,-36.621,75.195
1688827750.840,-28.809,-35.645,-36.133,-35.645,-35.645
1688827750.843,0.977,-33.691,-32.227,-29.785,-111.328
1688827750.847,-10.254,-30.762,-27.832,-16.113,95.703
1688827750.851,-55.176,-32.227,-30.273,-15.137,236.816
1688827750.855,-62.012,-33.691,-32.227,-27.344,-84.473
1688827750.859,-31.250,-37.598,-29.785,-28.809,-112.793
1688827750.841,-3.418,-35.156,-32.227,-31.738,-28.320
1688827750.845,-7.812,-31.250,-28.809,-38.086,-105.957
1688827750.849,-39.551,-33.203,-30.273,-44.922,-177.734
1688827750.853,-62.012,-31.738,-33.203,-37.109,-153.320
1688827750.857,-50.781,-30.273,-33.203,-31.738,-45.898
1688827750.861,-14.648,-27.344,-32.227,-31.738,14.648
1688827750.865,-14.160,-25.391,-28.320,-24.902,17.578
1688827750.868,-39.551,-28.320,-29.297,-22.949,97.656
1688827750.872,-53.223,-36.133,-36.133,-30.273,112.793
1688827750.876,-31.738,-35.645,-41.992,-39.062,-42.480
1688827750.880,10.254,-30.273,-32.715,-35.156,-128.418
1688827750.884,6.836,-30.762,-22.949,-30.762,-98.145
1688827750.886,-33.691,-28.320,-22.461,-21.484,270.020
1688827750.890,-58.594,-26.367,-24.902,-18.555,291.504
1688827750.894,-37.109,-32.715,-24.902,-31.250,-92.773
1688827750.898,-7.324,-35.156,-25.879,-32.715,-149.414
1688827750.902,4.883,-29.785,-28.809,-29.785,-86.426
1688827750.906,-21.484,-24.902,-24.414,-28.320,-32.715
1688827750.910,-50.293,-29.297,-22.949,-28.809,-57.129
1688827750.913,-36.133,-34.180,-25.879,-18.555,116.699
1688827750.917,-20.020,-33.691,-26.367,-10.742,306.152
1688827750.921,-16.113,-31.250,-24.902,-11.719,-40.527
1688827750.925,-31.738,-31.738,-28.809,-21.973,-211.914
1688827750.929,-58.594,-31.250,-31.738,-31.738,-126.953
1688827750.931,-41.016,-28.320,-31.738,-21.973,-120.605
1688827750.935,-4.395,-24.902,-30.273,-16.113,-145.996
1688827750.939,8.301,-23.926,-30.762,-21.973,-160.156
1688827750.943,-13.672,-30.762,-31.250,-28.320,-146.973
1688827750.947,-41.992,-33.203,-31.738,-32.715,-119.141
1688827750.951,-43.457,-34.180,-31.250,-25.879,-62.012
1688827750.955,-25.391,-31.250,-25.391,-20.996,-101.074
1688827750.958,-10.742,-28.320,-26.855,-17.578,320.801
1688827750.962,-15.625,-31.250,-26.367,-20.020,376.953
1688827750.966,-59.082,-28.809,-24.414,-28.320,-103.027
1688827750.970,-75.684,-32.227,-28.320,-20.020,-46.387
1688827750.974,-37.109,-40.527,-32.227,-19.043,-3.906
1688827750.976,-16.113,-36.621,-32.715,-23.438,-137.207
1688827750.980,-10.254,-36.621,-32.227,-13.672,-187.012
1688827750.984,-24.902,-33.691,-29.297,-10.742,-131.348
1688827750.988,-48.340,-29.297,-23.438,-28.809,-121.094
1688827750.992,-49.805,-30.762,-28.320,-38.574,-116.211
1688827750.996,-23.438,-29.297,-36.133,-33.691,-78.125
1688827751.000,-32.715,-35.156,-36.133,-51.758,171.387
1688827751.003,-63.965,-33.691,-35.645,-68.848,267.578
1688827751.007,-67.383,-30.273,-35.645,-69.336,-135.742
1688827751.011,-49.805,-25.879,-35.156,-66.895,-171.875
1688827751.015,-18.555,-27.344,-42.969,-55.664,-78.125
1688827751.019,-17.578,-32.715,-38.574,-48.340,-125.977
1688827751.022,-34.180,-28.809,-35.645,-44.434,-110.840
1688827751.026,-31.738,-27.344,-37.109,-38.574,-106.445
1688827751.030,-11.230,-24.414,-32.227,-31.738,-27.832
1688827751.034,18.066,-24.902,-33.691,-41.016,-22.461
1688827751.038,25.391,-28.809,-30.762,-49.805,-152.832
1688827751.042,4.395,-27.344,-29.785,-46.387,-56.152
1688827751.046,-19.531,-32.227,-32.227,-35.156,245.117
1688827751.049,-9.277,-39.062,-35.645,-35.156,117.676
1688827751.053,36.621,-34.668,-36.133,-34.668,-181.641
1688827751.057,44.434,-31.250,-34.668,-28.809,-90.820
1688827751.061,9.277,-34.668,-30.762,-21.973,123.047
1688827751.065,-11.230,-31.738,-29.785,-21.973,-21.973
1688827751.081,-4.395,-27.344,-30.273,-20.996,-185.547
1688827751.085,20.020,-34.180,-32.227,-9.766,-132.812
1688827751.089,33.691,-38.574,-31.738,-7.812,-56.152
1688827751.093,24.902,-30.273,-26.367,-14.160,-43.945
1688827751.097,4.883,-28.809,-20.996,-17.578,-168.945
1688827751.101,6.348,-28.320,-20.996,-10.742,148.926
1688827751.105,43.457,-28.320,-24.414,-5.371,448.242
1688827751.108,61.035,-28.320,-24.902,-16.602,-38.574
1688827751.112,42.969,-27.344,-24.414,-32.715,-279.785
1688827751.116,10.254,-33.203,-22.949,-36.133,-143.555
1688827751.120,-12.695,-34.668,-25.391,-34.180,-142.090
1688827751.124,14.648,-30.273,-29.785,-28.320,-178.711
1688827751.126,45.898,-31.738,-28.809,-29.785,-110.840
1688827751.130,33.691,-32.715,-32.227,-34.668,-72.754
1688827751.134,1.953,-28.320,-31.250,-30.273,-138.184
1688827751.138,-8.789,-31.250,-30.273,-32.227,-150.391
1688827751.142,22.949,-29.785,-29.785,-29.297,-26.855
1688827751.146,44.434,-28.809,-26.855,-26.855,83.984
1688827751.150,33.203,-34.668,-29.297,-37.598,-1.953
1688827751.153,-1.953,-33.203,-33.691,-43.457,-97.656
1688827751.157,-4.883,-33.203,-30.762,-33.691,-22.949
1688827751.161,29.785,-32.227,-25.391,-10.742,319.824
1688827751.165,50.293,-28.320,-25.879,-7.324,307.129
1688827751.169,44.922,-22.461,-28.809,-17.578,-95.703
1688827751.171,10.742,-25.879,-29.297,-13.672,-128.906
1688827751.175,-2.441,-35.156,-33.203,-15.137,-105.469
1688827751.179,25.879,-29.785,-33.203,-5.859,-168.945
1688827751.183,46.875,-25.391,-28.320,-7.812,-171.875
1688827751.187,39.062,-30.762,-29.297,-23.926,-101.562
1688827751.191,5.859,-33.203,-31.250,-18.066,7.324
1688827751.195,-16.113,-37.598,-31.250,-7.812,-41.016
1688827751.198,9.766,-34.668,-34.180,-17.578,-110.840
1688827751.202,36.133,-31.250,-35.156,-20.996,114.258
1688827751.206,28.809,-32.227,-30.273,-19.531,312.012
1688827751.210,-4.395,-27.832,-22.461,-20.996,-6.836
1688827751.214,-36.621,-26.855,-19.531,-10.254,-185.059
1688827751.216,-20.508,-22.949,-9.277,-0.977,-109.863
1688827751.220,0.000,-22.949,-18.066,-12.207,-140.625
1688827751.224,-16.113,-33.691,-38.086,-46.875,-134.766
1688827751.228,-54.688,-35.645,-41.504,-76.172,-135.254
1688827751.232,-84.473,-33.691,-33.203,-77.637,-125.488
1688827751.236,-74.707,-26.367,-11.719,-54.199,-46.875
1688827751.240,-62.012,-20.996,-16.113,-59.082,58.594
1688827751.243,-62.500,-22.461,-34.180,-82.031,103.516
1688827751.247,-80.566,-14.648,-41.016,-83.984,301.270
1688827751.251,-114.746,-7.812,-41.504,-97.656,302.246
1688827751.255,-114.746,-6.836,-35.645,-115.234,-109.375
1688827751.259,-104.004,-6.836,-35.645,-121.094,-118.652
1688827751.261,-98.633,-10.742,-37.598,-121.094,13.672
1688827751.265,-113.281,-13.672,-32.227,-122.559,-144.531
1688827751.269,-135.742,-4.883,-32.227,-122.559,-185.547
1688827751.273,-127.930,1.953,-40.527,-126.465,-81.055
1688827751.277,-92.773,-8.789,-42.969,-120.605,-98.633
1688827751.281,-54.199,-17.090,-36.133,-106.934,-101.074
1688827751.285,-59.082,-13.184,-34.668,-104.492,-43.457
1688827751.288,-81.543,-15.625,-38.574,-87.402,83.984
1688827751.292,-64.941,-21.484,-31.250,-59.082,167.969
1688827751.296,-37.598,-27.344,-25.391,-54.199,-93.262
1688827751.300,-19.043,-34.180,-26.855,-58.105,-204.102
1688827751.304,-12.695,-31.250,-32.227,-49.805,-91.797
1688827751.307,-36.133,-35.156,-31.250,-39.551,5.859
1688827751.311,-46.387,-40.527,-26.855,-30.762,-104.980
1688827751.315,-27.832,-40.039,-31.250,-23.926,-154.297
1688827751.319,0.977,-43.457,-29.297,-12.695,4.883
1688827751.323,4.395,-51.270,-28.809,-11.719,-36.133
1688827751.327,-20.996,-53.711,-29.297,-7.324,-143.066
1688827751.331,-34.668,-49.316,-28.320,3.418,-128.418
1688827751.334,-13.184,-49.316,-27.832,18.066,281.250
1688827751.338,20.996,-44.434,-22.461,22.461,344.727
1688827751.342,16.113,-43.945,-24.902,-3.906,-181.152
1688827751.346,-9.766,-51.270,-25.391,-5.371,-202.148
1688827751.350,-32.715,-43.457,-25.879,4.395,-126.465
1688827751.351,-22.461,-36.133,-29.297,-4.395,-153.320
1688827751.355,22.949,-34.668,-26.367,0.977,-145.020
1688827751.359,28.320,-36.621,-25.391,8.301,-51.758
1688827751.363,-5.859,-43.457,-24.902,-6.348,30.762
1688827751.367,-27.344,-43.945,-28.809,-12.207,-56.152
1688827751.371,-17.090,-36.133,-30.762,-1.953,-28.320
1688827751.375,8.301,-33.691,-26.855,5.371,252.930
1688827751.378,13.672,-38.574,-22.949,6.836,416.992
1688827751.382,-12.695,-40.039,-28.809,-13.184,54.688
1688827751.386,-35.645,-44.434,-34.668,-17.578,-186.035
1688827751.390,-26.855,-47.852,-36.133,-4.883,-154.785
1688827751.394,-11.719,-45.410,-39.551,-2.930,-137.695
1688827751.396,-15.137,-43.457,-41.016,-6.348,-166.992
1688827751.400,-24.414,-43.945,-37.109,-6.348,-147.949
1688827751.404,-50.293,-49.316,-35.156,-6.836,-113.770
1688827751.408,-54.199,-51.758,-37.109,-6.348,-115.723
1688827751.412,-17.578,-49.805,-36.621,-5.859,-107.422
1688827751.416,-6.348,-47.852,-38.574,-7.812,-43.457
1688827751.420,-36.133,-46.387,-39.551,-12.695,219.238
1688827751.423,-55.664,-41.504,-40.527,-24.414,105.957
1688827751.427,-42.480,-38.086,-38.574,-25.391,-119.629
1688827751.431,-19.043,-30.273,-35.645,-20.020,-21.484
1688827751.435,0.977,-27.344,-35.156,-21.484,251.953
1688827751.439,-12.207,-34.668,-37.109,-33.203,95.215
1688827751.442,-37.598,-35.156,-37.598,-37.598,-250.000
1688827751.446,-39.062,-32.227,-34.180,-23.438,-115.234
1688827751.450,-12.207,-30.762,-25.391,-12.695,-56.152
1688827751.454,15.625,-29.297,-23.926,-15.625,-142.578
1688827751.458,3.418,-26.855,-24.902,-20.020,-172.852
1688827751.462,-26.855,-27.344,-22.461,-23.438,-89.844
1688827751.466,-26.367,-26.855,-23.926,-20.020,40.527
1688827751.469,-2.930,-25.391,-29.297,-14.160,2.930
1688827751.473,5.859,-28.809,-29.785,-13.184,-91.309
1688827751.477,-3.906,-27.832,-25.879,-11.230,72.266
1688827751.481,-34.668,-30.273,-24.902,-13.184,179.199
1688827751.485,-47.852,-32.715,-25.879,-20.020,-104.980
1688827751.501,-11.719,-26.855,-27.832,-13.672,-166.016
1688827751.505,17.090,-24.414,-25.879,-10.254,-39.551
1688827751.509,15.137,-26.367,-18.555,-18.066,-62.988
1688827751.513,-15.137,-34.180,-21.973,-20.020,-136.719
1688827751.517,-48.340,-35.645,-26.367,-13.184,-71.289
1688827751.521,-41.992,-37.598,-20.996,-5.859,11.719
1688827751.525,-24.414,-40.039,-25.391,-9.766,-22.949
1688827751.528,-20.508,-41.504,-27.832,-18.066,-0.977
1688827751.532,-34.180,-38.086,-28.320,-18.555,-34.668
1688827751.536,-57.617,-34.668,-29.785,-9.277,199.707
1688827751.540,-39.062,-38.574,-29.297,-5.371,286.133
1688827751.544,0.488,-33.203,-37.598,-11.719,-124.023
1688827751.547,-0.488,-28.320,-37.598,-13.672,-128.418
1688827751.551,-18.555,-28.320,-29.297,-10.742,5.859
1688827751.555,-30.273,-24.902,-21.973,-13.184,-138.672
1688827751.559,-27.344,-24.414,-26.855,-15.137,-205.078
1688827751.563,15.137,-15.625,-46.875,0.488,-140.137
1688827751.567,36.133,-23.438,-41.992,16.113,-14.160
1688827751.571,-4.883,-42.480,-19.043,-2.441,10.254
1688827751.574,-52.246,-38.574,-12.207,-29.785,-165.039
1688827751.578,-53.711,-33.203,-12.695,-22.461,28.809
1688827751.582,-10.254,-32.227,-19.043,-12.695,276.367
1688827751.586,7.324,-33.691,-16.602,-12.695,-5.859
1688827751.590,-20.996,-32.715,-4.395,-15.137,-138.672
1688827751.592,-52.734,-28.809,3.906,-26.367,-85.938
1688827751.596,-46.387,-29.785,2.441,-29.297,-122.559
1688827751.600,-11.719,-29.785,0.977,-28.809,-209.473
1688827751.604,9.277,-31.250,3.906,-21.484,-174.316
1688827751.608,-16.602,-32.227,8.789,-8.301,-26.855
1688827751.612,-59.082,-31.738,12.695,4.395,24.902
1688827751.616,-58.105,-32.227,3.906,0.488,20.508
1688827751.619,-13.672,-31.250,1.953,8.301,46.875
1688827751.623,11.230,-20.996,3.418,24.902,306.152
1688827751.627,2.441,-19.043,-1.465,6.348,244.629
1688827751.631,-21.973,-24.902,-2.930,-14.648,-196.777
1688827751.635,-44.922,-26.855,-10.254,-19.043,-186.035
1688827751.637,-24.414,-29.297,-12.207,-19.043,-73.730
1688827751.641,6.348,-27.344,-9.766,-17.090,-147.949
1688827751.645,-17.578,-29.297,-13.184,-20.508,-216.797
1688827751.649,-55.176,-29.785,-10.742,-9.766,-56.152
1688827751.653,-52.734,-26.855,-14.648,4.883,21.973
1688827751.657,-29.785,-28.320,-18.066,5.859,-17.090
1688827751.661,-7.812,-28.809,-17.090,-0.488,0.000
1688827751.664,-14.160,-29.297,-21.484,-10.254,120.117
1688827751.668,-31.738,-27.344,-23.438,-12.695,204.590
1688827751.672,-33.203,-21.973,-20.508,-11.719,-121.094
1688827751.676,-18.066,-23.438,-18.555,-5.371,-187.012
1688827751.680,6.348,-21.484,-21.973,-8.301,-97.168
1688827751.681,3.906,-24.902,-22.949,-13.672,-145.020
1688827751.685,-21.484,-26.367,-17.090,-14.160,-147.461
1688827751.689,-40.527,-23.438,-18.066,-15.625,-132.812
1688827751.693,-28.809,-29.297,-20.508,-17.578,-100.586
1688827751.697,3.906,-27.832,-18.555,-11.719,-125.488
1688827751.701,1.465,-27.344,-18.555,-10.742,-57.617
1688827751.705,-25.879,-25.391,-21.484,-18.066,-13.672
1688827751.708,-42.480,-31.250,-25.879,-4.883,345.703
1688827751.712,-32.227,-38.574,-24.902,4.395,442.871
1688827751.716,-2.441,-35.645,-24.902,-8.301,4.395
1688827751.720,-1.465,-34.180,-25.391,-22.949,-80.566
1688827751.724,-29.297,-35.645,-27.344,-27.344,26.855
1688827751.726,-44.434,-32.715,-28.809,-32.227,-122.559
1688827751.730,-35.156,-28.320,-22.461,-34.668,-221.191
1688827751.734,-1.953,-22.949,-29.785,-27.832,-107.910
1688827751.738,28.809,-20.996,-38.574,-15.625,-98.633
1688827751.742,10.742,-28.809,-23.438,-4.883,-163.086
1688827751.746,-53.711,-34.668,-14.160,-34.180,-212.891
1688827751.750,-89.844,-35.156,-14.648,-47.363,114.746
1688827751.753,-60.547,-27.344,-19.043,-31.738,285.645
1688827751.757,-22.949,-27.832,-22.949,-39.551,-30.273
1688827751.761,-47.852,-40.039,-16.602,-52.734,-168.945
1688827751.765,-85.449,-38.574,-13.184,-54.199,-65.918
1688827751.769,-76.660,-34.668,-10.254,-41.992,-42.480
1688827751.774,-44.922,-36.133,-9.766,-37.598,-125.000
1688827751.778,-18.066,-29.297,-8.789,-29.785,-84.961
1688827751.782,-20.020,-29.297,-7.324,-17.578,-104.004
1688827751.786,-46.387,-37.109,-12.207,-11.230,-126.953
1688827751.790,-51.758,-34.668,-16.602,-7.812,-126.953
1688827751.794,-32.227,-24.902,-18.066,-9.277,-8.301
1688827751.798,-13.184,-21.973,-15.137,-10.254,322.754
1688827751.801,-17.578,-33.203,-16.602,-16.602,226.074
1688827751.805,-43.945,-38.086,-18.066,-22.461,-82.520
1688827751.809,-51.758,-31.738,-16.113,-12.695,-64.941
1688827751.813,-23.438,-27.344,-18.066,-4.395,46.875
1688827751.817,6.836,-28.809,-17.090,-3.906,-41.504
1688827751.817,-20.020,-31.738,-15.137,-5.859,-165.527
1688827751.821,-50.781,-33.691,-21.973,-8.789,-69.824
1688827751.825,-52.246,-33.691,-26.855,-17.090,-10.742
1688827751.829,-31.738,-34.668,-24.414,-23.926,-114.746
1688827751.833,-6.836,-35.645,-23.926,-27.832,-157.715
1688827751.837,-16.602,-33.203,-25.879,-27.832,63.965
1688827751.841,-43.457,-34.668,-28.809,-21.973,553.711
1688827751.844,-54.688,-33.203,-31.738,-26.855,351.562
1688827751.848,-39.062,-28.320,-26.855,-29.297,-173.828
1688827751.852,-6.836,-33.203,-25.879,-19.043,-132.324
1688827751.856,12.207,-36.133,-30.762,-13.672,-97.656
1688827751.860,-13.184,-36.133,-32.715,-17.090,-191.895
1688827751.877,-40.039,-39.062,-33.691,-17.578,-211.914
1688827751.881,-29.785,-39.551,-39.062,-17.578,-92.285
1688827751.885,8.789,-37.109,-35.645,-20.996,-111.328
1688827751.889,32.227,-31.738,-30.273,-19.043,-179.688
1688827751.893,3.906,-31.250,-30.762,-15.137,-70.312
1688827751.897,-38.574,-32.715,-30.762,-13.672,143.066
1688827751.901,-42.480,-34.180,-31.738,-17.090,99.609
1688827751.904,-9.766,-32.227,-32.227,-19.531,-25.879
1688827751.908,0.000,-28.320,-30.762,-17.578,-52.246
1688827751.912,-31.738,-31.738,-34.180,-15.137,178.223
1688827751.916,-55.664,-35.156,-33.203,-23.438,175.781
1688827751.920,-45.898,-26.855,-29.297,-16.602,-210.449
1688827751.922,-22.461,-26.367,-31.250,-10.742,-204.102
1688827751.926,2.930,-33.691,-31.738,-32.227,-76.660
1688827751.930,-9.766,-32.715,-30.273,-47.363,-128.906
1688827751.934,-47.852,-32.227,-29.297,-51.270,-136.230
1688827751.938,-47.852,-32.715,-28.809,-41.016,67.383
1688827751.942,-21.484,-32.715,-29.297,-37.109,73.242
1688827751.946,-3.418,-36.133,-34.180,-44.434,-31.250
1688827751.949,-10.254,-36.621,-37.598,-41.016,-223.145
1688827751.953,-38.086,-32.227,-33.203,-31.738,-98.145
1688827751.957,-39.551,-28.809,-28.809,-18.555,230.469
1688827751.961,-8.789,-29.785,-29.297,-13.184,-93.750
1688827751.965,4.395,-35.645,-31.738,-13.672,-251.953
1688827751.966,-13.184,-40.039,-34.668,-18.555,-155.762
1688827751.970,-44.922,-40.527,-35.156,-24.902,-197.266
1688827751.974,-57.617,-41.016,-36.621,-28.809,-261.719
1688827751.978,-41.016,-43.945,-39.062,-27.344,-219.727
1688827751.982,-21.973,-44.434,-35.156,-26.855,-119.629
1688827751.986,-24.414,-37.109,-34.668,-25.391,-26.855
1688827751.990,-40.527,-32.715,-36.133,-29.297,12.207
1688827751.993,-49.316,-38.574,-39.062,-42.480,-60.059
1688827751.997,-41.016,-39.551,-39.551,-26.855,290.039
1688827752.001,-5.371,-34.180,-38.574,-21.484,363.281
1688827752.005,4.395,-33.203,-35.156,-42.969,-179.688
1688827752.009,-24.902,-35.156,-36.133,-44.434,-174.316
1688827752.011,-41.992,-32.227,-35.645,-37.598,-61.035
1688827752.015,-27.344,-31.250,-34.668,-41.016,-172.363
1688827752.019,2.930,-34.668,-37.598,-36.621,-169.434
1688827752.023,-15.137,-36.133,-38.574,-32.715,-116.211
1688827752.027,-43.945,-35.645,-40.527,-27.344,-84.473
1688827752.031,-42.969,-33.203,-36.621,-16.113,-77.148
1688827752.035,-38.086,-31.738,-32.715,-15.137,-72.266
1688827752.038,-19.043,-29.297,-34.180,-11.719,66.406
1688827752.042,-14.160,-36.133,-37.109,-21.484,194.336
1688827752.046,-39.062,-37.598,-38.574,-40.039,-72.266
1688827752.050,-61.523,-36.133,-33.691,-38.574,-202.148
1688827752.054,-56.641,-33.691,-29.785,-27.344,-33.691
1688827752.056,-20.996,-31.250,-31.738,-20.508,-27.832
1688827752.060,-4.395,-38.086,-30.273,-23.926,-156.250
1688827752.064,-25.391,-38.574,-26.367,-32.715,-157.227
1688827752.068,-44.434,-35.156,-32.715,-33.203,-88.379
1688827752.072,-37.109,-27.832,-32.715,-24.414,-94.238
1688827752.076,-13.184,-26.367,-24.414,-21.973,-83.496
1688827752.080,0.000,-25.391,-26.855,-34.180,-32.715
1688827752.083,-23.926,-20.996,-30.762,-36.621,345.215
1688827752.087,-47.852,-28.809,-30.762,-45.410,324.219
1688827752.091,-39.551,-37.109,-29.785,-53.223,-189.453
1688827752.095,-16.113,-33.203,-32.227,-40.527,-145.508
1688827752.099,13.672,-30.273,-36.133,-25.391,-77.637
1688827752.101,20.020,-34.180,-28.809,-22.461,-203.613
1688827752.105,-29.297,-37.598,-18.066,-37.109,-222.656
1688827752.109,-51.270,-34.668,-27.344,-39.062,-72.266
1688827752.113,-19.531,-33.203,-28.320,-20.020,-36.621
1688827752.117,10.742,-29.785,-22.461,-13.672,-129.883
1688827752.121,1.953,-26.367,-25.879,-22.949,-111.816
1688827752.125,-32.227,-36.133,-29.785,-20.020,134.766
1688827752.128,-36.133,-41.016,-28.320,-19.531,234.863
1688827752.132,-14.648,-39.062,-29.297,-28.809,-53.711
1688827752.136,1.953,-39.551,-32.715,-28.809,-118.652
1688827752.140,7.324,-38.086,-33.203,-22.949,-11.230
1688827752.144,-21.973,-40.039,-36.621,-26.367,23.926
1688827752.147,-51.758,-41.504,-40.527,-29.297,-91.309
1688827752.151,-41.504,-38.086,-39.062,-26.367,-11.719
1688827752.155,-16.602,-34.180,-33.691,-23.438,121.582
1688827752.159,-9.766,-28.320,-37.109,-21.973,-13.672
1688827752.163,-40.039,-27.832,-39.062,-31.738,-132.324
1688827752.167,-60.059,-29.785,-33.203,-32.227,-33.691
1688827752.171,-35.156,-26.367,-25.879,-14.160,254.883
1688827752.174,-8.301,-27.832,-31.250,-10.254,242.188
1688827752.178,-7.324,-33.203,-31.738,-17.090,-41.016
1688827752.182,-30.273,-29.785,-27.344,-18.555,-117.188
1688827752.186,-49.805,-23.926,-31.250,-17.578,89.844
1688827752.190,-32.227,-23.438,-32.715,-22.949,-17.090
1688827752.192,0.977,-27.832,-28.320,-20.996,-201.172
1688827752.196,10.254,-31.738,-28.320,-18.066,-87.891
1688827752.200,-16.602,-34.180,-34.180,-32.715,-78.125
1688827752.204,-43.457,-33.691,-32.227,-39.062,-160.645
1688827752.208,-36.133,-33.203,-34.180,-21.484,-164.062
1688827752.212,-21.973,-36.621,-31.738,-5.371,85.938
1688827752.216,-19.531,-35.156,-32.715,-9.277,341.309
1688827752.219,-23.438,-30.762,-35.156,-19.531,21.973
1688827752.223,-45.898,-34.668,-30.273,-27.832,-236.816
1688827752.227,-48.828,-36.621,-30.762,-29.785,-134.277
1688827752.231,-35.156,-40.039,-21.973,-26.367,-83.984
1688827752.235,-32.715,-41.016,-26.855,-31.250,-136.719
1688827752.251,-32.715,-37.598,-36.621,-37.109,-113.770
1688827752.255,-62.012,-41.016,-31.738,-34.668,-56.641
1688827752.259,-60.547,-39.551,-34.668,-26.367,-62.500
1688827752.263,-17.090,-42.480,-29.297,-25.879,-107.422
1688827752.267,-3.906,-41.016,-33.691,-35.156,-95.215
1688827752.271,-18.066,-38.574,-35.645,-41.504,36.133
1688827752.275,-43.945,-38.574,-34.668,-44.922,-2.930
1688827752.278,-39.551,-27.832,-31.738,-36.133,-124.023
1688827752.282,-18.555,-30.762,-25.391,-30.273,-77.148
1688827752.286,-8.301,-36.621,-29.785,-26.855,311.035
1688827752.290,-4.883,-29.785,-33.203,-16.113,355.469
1688827752.294,-43.945,-25.879,-29.297,-18.066,-123.047
1688827752.297,-74.219,-26.367,-28.809,-19.531,-239.746
1688827752.301,-33.691,-31.738,-25.391,-21.484,-188.477
1688827752.305,-1.465,-33.203,-22.949,-15.625,-208.984
1688827752.309,-9.766,-30.273,-29.297,-20.508,-207.520
1688827752.313,-41.016,-38.574,-37.598,-33.691,-94.238
1688827752.317,-61.523,-41.992,-33.691,-38.574,10.254
1688827752.321,-29.785,-35.156,-28.809,-33.203,-16.602
1688827752.324,7.812,-31.738,-29.785,-25.391,-146.973
1688827752.328,-7.812,-31.738,-29.297,-31.250,49.805
1688827752.332,-32.715,-34.668,-29.297,-30.762,339.355
1688827752.336,-34.668,-33.203,-29.297,-33.691,23.438
1688827752.340,-24.414,-26.855,-30.273,-35.645,-117.676
1688827752.341,1.465,-27.832,-25.391,-20.508,-60.547
1688827752.345,13.672,-28.320,-24.902,-11.230,-134.277
1688827752.349,-8.301,-33.691,-30.273,-12.207,-153.320
1688827752.353,-33.691,-38.086,-23.926,-3.906,-59.570
1688827752.357,-28.320,-24.902,-23.438,-17.578,30.762
1688827752.361,-11.230,-17.578,-33.203,-34.180,69.824
1688827752.365,-20.508,-15.625,-35.156,-30.273,53.711
1688827752.368,-43.457,-18.066,-32.715,-40.039,28.320
1688827752.372,-74.707,-28.809,-36.133,-47.852,286.133
1688827752.376,-64.941,-29.297,-36.133,-39.551,337.402
1688827752.380,-15.625,-24.902,-29.785,-35.156,-76.660
1688827752.384,-6.836,-31.738,-28.320,-33.203,-75.195
1688827752.387,-38.574,-42.480,-29.785,-33.203,-5.371
1688827752.391,-68.359,-39.551,-28.320,-36.133,-152.832
1688827752.395,-58.105,-37.109,-28.320,-28.809,-161.621
1688827752.399,-24.902,-36.133,-26.855,-20.020,-47.852
1688827752.403,-16.113,-33.691,-25.879,-31.250,-41.992
1688827752.407,-38.574,-33.203,-29.785,-37.598,-86.914
1688827752.411,-70.801,-31.250,-34.180,-32.715,-81.055
1688827752.414,-61.523,-29.785,-35.156,-24.414,125.977
1688827752.418,-29.785,-26.855,-31.738,-20.996,224.121
1688827752.422,-11.719,-21.973,-33.691,-34.668,-62.012
1688827752.426,-29.785,-27.832,-37.598,-44.922,-91.797
1688827752.430,-62.500,-36.621,-35.645,-41.992,-42.480
1688827752.432,-67.871,-30.273,-34.180,-40.039,-106.934
1688827752.436,-27.344,-24.414,-31.738,-29.785,-187.988
1688827752.440,-2.441,-25.879,-28.320,-21.973,-65.918
1688827752.444,-19.043,-28.320,-28.809,-31.250,61.523
1688827752.448,-45.410,-30.273,-32.715,-37.598,-36.621
1688827752.452,-58.105,-29.297,-31.738,-31.738,-61.035
1688827752.456,-34.180,-27.832,-31.250,-28.809,8.789
1688827752.459,-14.648,-28.320,-32.227,-26.855,389.160
1688827752.463,-18.555,-30.273,-35.645,-30.273,359.863
1688827752.467,-47.852,-30.273,-37.109,-42.969,-191.895
1688827752.471,-64.453,-28.320,-35.156,-40.527,-167.969
1688827752.475,-41.992,-33.203,-39.551,-34.668,-99.121
1688827752.476,-19.043,-40.527,-45.410,-42.969,-174.316
1688827752.480,-26.855,-35.645,-41.992,-49.316,-145.508
1688827752.484,-57.617,-38.574,-37.109,-46.387,-65.918
1688827752.488,-70.801,-43.457,-41.992,-42.969,-87.891
1688827752.492,-55.664,-37.598,-41.504,-38.086,-158.203
1688827752.496,-30.762,-40.527,-38.086,-39.062,-44.434
1688827752.500,-35.156,-44.922,-35.645,-43.457,221.680
1688827752.503,-55.176,-44.434,-28.320,-33.203,431.152
1688827752.507,-70.312,-45.410,-26.367,-35.645,83.984
1688827752.511,-62.012,-41.016,-27.344,-31.250,-188.477
1688827752.515,-31.250,-36.621,-27.344,-30.273,-80.078
1688827752.519,-18.066,-35.156,-32.227,-36.621,-108.398
1688827752.521,-29.297,-29.297,-33.691,-37.109,-136.230
1688827752.525,-54.688,-23.438,-30.273,-38.574,-110.352
1688827752.529,-57.129,-24.902,-29.297,-36.621,-139.648
1688827752.533,-26.855,-24.902,-30.762,-35.645,-146.973
1688827752.537,-10.254,-27.344,-32.715,-42.969,-132.812
1688827752.541,-42.480,-29.785,-31.738,-50.293,-53.223
1688827752.545,-66.895,-33.203,-29.785,-33.203,265.137
1688827752.548,-41.504,-35.645,-32.715,-21.484,289.062
1688827752.552,-3.906,-33.203,-32.715,-22.949,-14.648
1688827752.556,11.230,-31.738,-26.367,-22.949,-50.781
1688827752.560,-8.789,-32.715,-30.762,-20.508,137.207
1688827752.564,-41.992,-30.273,-31.250,-23.438,19.043
1688827752.567,-53.223,-24.902,-24.902,-22.461,-208.008
1688827752.571,-29.785,-32.715,-26.367,-19.043,-89.355
1688827752.575,-13.672,-37.598,-29.297,-24.414,-31.250
1688827752.579,-34.180,-33.203,-29.785,-30.273,-145.020
1688827752.583,-63.477,-38.086,-29.297,-34.668,-209.473
1688827752.587,-72.266,-40.527,-31.250,-32.227,-28.809
1688827752.591,-54.688,-35.645,-33.203,-25.879,133.789
1688827752.594,-29.785,-32.715,-28.320,-31.738,-23.438
1688827752.598,-42.480,-31.738,-27.832,-35.645,-249.023
1688827752.602,-76.172,-35.156,-33.203,-30.762,37.109
1688827752.606,-79.590,-35.156,-34.180,-27.832,234.375
1688827752.610,-45.410,-28.320,-31.738,-30.762,-148.926
1688827752.626,-6.348,-25.879,-29.297,-25.391,-221.680
1688827752.630,-15.625,-28.809,-34.180,-19.531,-117.188
1688827752.634,-57.617,-33.691,-36.133,-33.203,-95.215
1688827752.638,-62.988,-37.598,-36.133,-43.945,-177.246
1688827752.642,-29.785,-35.156,-39.062,-37.598,-133.301
1688827752.646,-9.277,-32.715,-41.504,-41.992,97.168
1688827752.650,-10.742,-30.762,-41.016,-46.875,93.262
1688827752.653,-35.156,-24.902,-39.062,-50.781,-17.578
1688827752.657,-53.711,-23.926,-29.785,-50.293,-95.703
1688827752.661,-35.645,-25.391,-29.297,-26.855,212.402
1688827752.665,-10.742,-27.832,-34.180,-20.996,253.418
1688827752.669,-14.648,-39.551,-31.250,-20.508,-215.820
1688827752.671,-16.602,-51.270,-23.438,7.812,-108.887
1688827752.675,-17.578,-33.691,-21.973,17.090,79.590
1688827752.679,-34.180,-7.812,-34.180,-21.973,-97.656
1688827752.683,-29.785,-16.113,-38.574,-51.270,-186.035
1688827752.687,-27.832,-29.785,-40.039,-46.875,-147.949
1688827752.691,-49.805,-30.762,-43.945,-35.645,-87.891
1688827752.695,-70.312,-29.297,-49.805,-41.504,-47.852
1688827752.698,-59.570,-26.855,-51.758,-48.828,-129.395
1688827752.702,-21.484,-30.762,-54.199,-36.621,41.992
1688827752.706,-8.789,-33.203,-55.176,-27.344,210.938
1688827752.710,-33.203,-28.320,-51.270,-30.762,-79.590
1688827752.714,-58.594,-25.879,-47.363,-23.926,-145.020
1688827752.717,-44.434,-31.250,-40.039,-21.973,-57.129
1688827752.721,-1.953,-35.156,-36.133,-21.484,-79.590
1688827752.725,13.184,-31.738,-41.504,-25.391,-27.344
1688827752.729,-13.184,-31.250,-44.434,-29.785,-1.465
1688827752.733,-40.039,-31.250,-42.480,-35.156,-2.930
1688827752.737,-40.039,-27.832,-39.551,-32.715,31.738
1688827752.741,-17.578,-26.367,-41.992,-25.879,-15.625
1688827752.744,0.977,-30.273,-44.434,-28.809,-31.250
1688827752.748,-11.719,-35.645,-39.062,-29.297,284.180
1688827752.752,-32.227,-35.645,-35.156,-25.391,333.496
1688827752.756,-22.949,-29.785,-35.156,-26.855,-104.980
1688827752.760,-4.395,-27.344,-36.133,-28.809,-63.477
1688827752.761,2.441,-30.273,-34.180,-25.391,30.762
1688827752.765,-19.531,-31.738,-29.297,-24.902,-132.812
1688827752.769,-47.363,-32.715,-32.227,-21.973,-191.406
1688827752.773,-60.547,-33.691,-31.738,-16.602,-83.008
1688827752.777,-43.945,-29.785,-23.926,-7.324,-26.367
1688827752.781,-12.207,-32.227,-25.879,-3.906,-55.664
1688827752.785,-15.137,-33.203,-30.273,-12.207,-53.711
1688827752.788,-56.152,-31.738,-28.809,-15.137,75.684
1688827752.792,-69.336,-32.227,-26.855,-6.348,314.941
1688827752.796,-23.926,-34.668,-27.832,-18.066,21.484
1688827752.800,2.441,-35.156,-32.715,-31.738,-161.621
1688827752.804,-20.508,-32.227,-36.133,-35.156,-120.605
1688827752.821,-48.340,-34.668,-32.227,-40.527,-176.758
1688827752.825,-56.152,-35.156,-34.180,-33.203,-140.625
1688827752.829,-30.762,-29.297,-37.109,-24.414,-147.949
1688827752.833,-0.977,-25.879,-34.180,-26.367,-96.191
1688827752.837,-9.277,-35.645,-35.156,-35.645,-90.332
1688827752.841,-38.086,-42.480,-36.133,-41.992,-117.676
1688827752.845,-52.246,-40.039,-36.621,-36.133,-29.297
1688827752.848,-44.434,-40.527,-31.738,-22.461,374.023
1688827752.852,-13.672,-38.086,-28.809,-23.926,450.195
1688827752.856,-0.488,-31.250,-25.391,-37.109,-78.613
1688827752.860,-26.855,-32.227,-25.391,-38.086,-170.898
1688827752.864,-62.500,-39.551,-31.738,-25.391,4.395
1688827752.851,-56.152,-37.109,-34.668,-18.066,-107.910
1688827752.855,-17.578,-32.715,-31.738,-18.066,-204.102
1688827752.859,-7.812,-31.738,-29.297,-14.648,-121.582
1688827752.863,-33.691,-27.344,-32.227,-11.719,-98.633
1688827752.867,-56.152,-25.391,-34.668,-20.996,-152.832
1688827752.871,-49.805,-26.855,-31.250,-20.508,-118.652
1688827752.875,-25.391,-21.973,-32.227,-16.113,114.258
1688827752.878,-24.414,-23.438,-33.203,-35.156,86.426
1688827752.882,-53.223,-24.902,-34.180,-56.152,-167.480
1688827752.886,-75.195,-20.508,-40.039,-62.500,-230.957
1688827752.890,-63.477,-23.438,-37.109,-52.734,41.016
1688827752.894,-29.785,-31.738,-32.715,-43.945,181.641
1688827752.896,-14.160,-32.227,-31.250,-52.246,-50.781
1688827752.900,-33.691,-24.414,-28.809,-46.875,-162.598
1688827752.904,-70.312,-26.855,-25.879,-30.762,103.516
1688827752.908,-74.707,-33.691,-26.855,-35.156,200.195
1688827752.912,-40.527,-33.203,-31.250,-37.598,-175.781
1688827752.916,-20.020,-32.715,-28.320,-29.785,-107.910
1688827752.920,-40.527,-34.668,-24.902,-31.738,209.473
1688827752.923,-71.289,-37.598,-27.344,-37.598,82.031
1688827752.927,-66.406,-38.086,-27.832,-34.668,-210.449
1688827752.931,-45.410,-39.062,-26.855,-22.949,-152.832
1688827752.935,-40.527,-35.645,-26.855,-22.949,111.816
1688827752.939,-41.016,-31.250,-25.391,-32.227,-17.090
1688827752.942,-50.781,-43.457,-20.996,-21.484,-161.133
1688827752.946,-46.875,-43.945,-22.949,-5.371,-4.395
1688827752.950,-23.926,-22.949,-30.762,-13.184,36.621
1688827752.954,-1.953,-20.996,-26.367,-23.926,-76.660
1688827752.958,-8.301,-31.250,-25.879,-23.438,-182.129
1688827752.962,-32.227,-32.227,-33.203,-20.996,-21.973
1688827752.966,-41.504,-31.738,-31.250,-23.438,111.328
1688827752.969,-20.020,-33.203,-30.273,-16.113,-94.238
1688827752.973,9.277,-32.227,-27.832,-6.348,-227.539
1688827752.977,-0.977,-35.156,-28.809,-13.184,13.184
1688827752.981,-36.133,-36.133,-36.621,-24.902,46.387
1688827752.985,-53.223,-34.180,-37.109,-26.367,-200.195
1688827753.001,-38.574,-29.297,-33.691,-16.113,-195.801
1688827753.005,-13.672,-26.367,-39.062,-23.926,-138.672
1688827753.009,-15.625,-34.668,-38.086,-36.133,-115.234
1688827753.013,-39.551,-33.203,-30.273,-30.273,-152.832
1688827753.017,-49.316,-29.297,-33.691,-20.508,-164.551
1688827753.021,-47.363,-31.738,-40.527,-14.648,167.969
1688827753.025,-25.879,-34.180,-35.645,-19.043,215.820
1688827753.028,-7.812,-35.645,-36.621,-25.879,-48.340
1688827753.032,-25.391,-30.273,-40.527,-36.621,-74.219
1688827753.036,-56.152,-30.273,-29.785,-30.762,195.312
1688827753.040,-53.711,-29.785,-29.785,-18.555,172.363
1688827753.044,-19.043,-27.832,-29.785,-23.438,-152.344
1688827753.046,-9.277,-29.785,-23.926,-22.461,-89.355
1688827753.050,-34.668,-24.414,-20.508,-15.137,-57.617
1688827753.054,-60.547,-19.531,-20.508,-15.625,-130.371
1688827753.058,-52.246,-22.461,-24.902,-14.648,-174.805
1688827753.062,-20.508,-24.902,-21.484,-5.859,2.930
1688827753.066,0.000,-23.926,-19.531,-1.953,109.863
1688827753.070,-17.090,-22.461,-20.020,-7.324,-18.066
1688827753.073,-42.969,-19.043,-19.531,-10.742,-75.684
1688827753.077,-35.156,-22.461,-11.230,1.953,103.516
1688827753.081,9.766,-17.090,3.418,21.973,291.992
1688827753.085,22.949,-10.742,0.000,0.000,20.020
1688827753.089,-23.926,-17.578,-22.461,-34.180,-164.551
1688827753.092,-68.359,-28.809,-41.016,-49.316,-123.047
1688827753.096,-71.289,-22.461,-31.250,-47.852,-134.277
1688827753.100,-42.969,-7.812,-5.859,-36.133,-165.039
1688827753.104,-61.523,-9.766,-30.273,-70.801,-100.098
1688827753.108,-99.609,-27.344,-54.688,-100.586,-115.234
1688827753.112,-122.559,-31.738,-49.316,-95.703,-157.227
1688827753.116,-138.672,-3.418,-53.223,-100.586,-23.438
1688827753.119,-139.160,21.484,-52.734,-125.000,-19.043
1688827753.123,-148.926,22.461,-56.641,-151.855,314.453
1688827753.127,-170.898,19.531,-72.754,-169.922,526.367
1688827753.131,-189.453,23.926,-81.055,-189.941,-22.949
1688827753.135,-208.008,28.809,-75.684,-204.590,-200.195
1688827753.137,-192.871,25.391,-70.312,-203.613,-78.125
1688827753.141,-147.461,21.484,-68.359,-179.199,-145.020
1688827753.145,-132.324,14.648,-66.406,-155.762,-181.641
1688827753.149,-147.461,4.395,-70.312,-149.414,-136.230
1688827753.153,-148.438,-3.906,-66.895,-128.418,-135.254
1688827753.157,-109.375,-10.742,-58.594,-86.914,-56.152
1688827753.161,-46.875,-7.812,-62.988,-61.523,-23.926
1688827753.164,-17.090,-11.230,-63.477,-44.434,51.270
1688827753.168,-27.344,-27.344,-57.617,-34.180,164.062
1688827753.172,-28.809,-35.156,-52.246,-31.738,-78.613
1688827753.176,-2.930,-40.039,-42.480,-13.672,-125.488
1688827753.180,34.180,-42.480,-34.180,8.789,41.016
1688827753.181,41.992,-41.992,-23.926,19.043,-53.223
1688827753.185,22.461,-43.945,-22.461,12.695,-210.938
1688827753.189,7.812,-51.270,-27.832,13.184,-194.336
1688827753.193,26.367,-52.734,-23.438,21.484,-119.629
1688827753.197,53.223,-53.711,-18.066,31.250,-121.582
1688827753.201,60.547,-58.105,-17.090,36.621,-127.930
1688827753.205,37.598,-58.105,-13.672,30.762,-86.426
1688827753.208,-0.977,-53.711,-13.672,43.457,260.254
1688827753.212,3.906,-51.758,-17.578,46.875,312.500
1688827753.216,33.691,-55.664,-17.090,23.438,-113.770
1688827753.220,34.180,-55.176,-11.719,14.160,-92.285
1688827753.224,0.488,-57.617,-14.648,11.719,-23.926
1688827753.227,-30.762,-57.129,-18.555,12.695,-87.402
1688827753.231,-33.203,-52.246,-14.648,19.043,-113.281
1688827753.235,-4.395,-56.152,-12.695,24.414,-39.551
1688827753.239,26.367,-55.664,-14.648,23.438,14.160
1688827753.243,17.090,-43.945,-17.578,22.461,-129.883
1688827753.247,-10.254,-42.480,-16.602,30.762,-160.156
1688827753.251,-11.230,-46.387,-15.137,31.250,154.297
1688827753.254,22.461,-41.992,-19.531,27.832,305.664
1688827753.258,43.457,-38.574,-21.484,21.973,-80.566
1688827753.262,14.648,-36.133,-20.996,13.672,-197.754
1688827753.266,-26.367,-38.086,-23.438,-0.488,-111.816
1688827753.270,-32.227,-40.039,-20.020,0.977,-82.520
1688827753.272,-0.488,-30.273,-20.020,13.672,-141.113
1688827753.276,33.691,-29.785,-22.949,14.648,-174.805
1688827753.280,32.715,-30.762,-20.020,4.395,-102.539
1688827753.284,9.277,-29.785,-18.066,5.859,-14.160
1688827753.288,-4.883,-33.203,-20.508,5.859,-57.617
1688827753.292,6.836,-32.227,-22.461,-0.488,-100.586
1688827753.296,25.879,-36.133,-20.020,13.184,277.344
1688827753.299,18.066,-38.574,-20.508,15.625,478.027
1688827753.303,-5.859,-33.203,-20.508,1.465,35.645
1688827753.307,-25.391,-34.668,-17.090,1.953,-71.777
1688827753.311,-6.836,-37.109,-20.020,14.648,91.309
1688827753.315,29.297,-35.156,-23.926,14.648,-78.613
1688827753.316,23.438,-38.086,-20.508,2.930,-182.617
1688827753.320,0.977,-36.133,-20.508,1.953,-114.746
1688827753.324,-11.719,-28.809,-19.043,5.859,-69.824
1688827753.328,-3.418,-31.738,-16.113,1.465,-120.605
1688827753.332,19.531,-33.691,-18.555,0.000,-137.695
1688827753.336,9.277,-31.738,-18.066,-0.977,35.156
1688827753.340,-24.414,-35.156,-21.973,-11.230,94.238
1688827753.343,-54.688,-33.203,-24.902,-9.277,-20.508
1688827753.347,-41.504,-25.391,-17.578,2.930,-125.488
1688827753.351,-13.184,-26.855,-14.648,5.371,56.641
1688827753.355,-10.742,-28.320,-23.926,0.488,206.543
1688827753.359,-37.598,-29.785,-29.297,-20.020,-143.555
1688827753.377,-62.500,-29.297,-26.367,-25.391,-233.398
1688827753.381,-43.457,-24.902,-22.461,-24.902,-110.840
1688827753.385,-9.277,-26.367,-17.090,-30.273,-90.820
1688827753.389,-5.859,-28.320,-21.484,-24.902,-164.551
1688827753.393,-38.574,-32.227,-24.902,-16.113,-152.832
1688827753.397,-79.102,-35.156,-21.484,-14.160,45.410
1688827753.401,-72.266,-34.180,-26.367,-15.625,49.805
1688827753.404,-32.715,-37.109,-26.367,-12.207,-41.504
1688827753.408,-12.207,-33.691,-22.461,-12.207,-3.418
1688827753.412,-31.738,-29.297,-22.461,-10.742,289.551
1688827753.416,-60.547,-31.250,-29.785,-15.625,336.914
1688827753.420,-51.758,-32.227,-28.320,-23.438,-103.516
1688827753.422,-15.625,-29.785,-22.461,-13.672,-186.035
1688827753.426,12.207,-27.832,-23.438,-5.859,-104.980
1688827753.430,6.836,-28.809,-24.414,-12.695,-170.898
1688827753.434,-26.855,-28.320,-24.902,-19.531,-153.320
1688827753.438,-37.598,-25.879,-24.414,-16.113,-42.969
1688827753.442,-9.277,-27.344,-20.996,-4.883,12.695
1688827753.446,5.859,-27.832,-25.391,-12.695,-56.641
1688827753.449,-13.184,-29.785,-29.785,-26.367,-159.668
1688827753.453,-50.781,-36.621,-26.855,-22.461,73.730
1688827753.457,-66.406,-36.621,-22.949,-14.648,252.930
1688827753.461,-41.504,-30.762,-22.949,-15.137,-14.160
1688827753.465,-7.812,-27.344,-21.973,-17.578,-91.309
1688827753.466,-6.836,-29.785,-19.043,-20.508,-46.387
1688827753.470,-39.551,-34.180,-18.066,-22.461,-88.867
1688827753.474,-57.129,-30.273,-20.996,-18.066,-146.484
1688827753.478,-33.203,-26.367,-23.926,-10.254,-108.887
1688827753.482,4.883,-23.926,-22.461,-3.418,-67.383
1688827753.486,12.207,-22.949,-23.926,-10.742,-21.973
1688827753.490,-15.625,-20.996,-29.297,-18.555,45.898
1688827753.493,-51.758,-20.020,-25.879,-18.555,57.617
1688827753.497,-39.062,-21.973,-21.973,-9.766,284.180
1688827753.501,4.395,-25.879,-29.785,-15.137,312.012
1688827753.505,13.672,-24.902,-33.691,-32.715,-106.445
1688827753.509,-17.090,-14.648,-24.414,-29.297,-171.875
1688827753.543,-41.504,-10.254,-24.414,-20.996,-139.160
1688827753.547,-28.809,-18.066,-31.738,-16.602,-165.527
1688827753.551,5.859,-24.902,-32.715,-16.113,-193.359
1688827753.555,1.953,-26.855,-31.738,-20.996,-89.355
1688827753.559,-42.480,-30.762,-33.203,-32.715,-27.344
1688827753.563,-73.730,-32.227,-36.621,-42.480,-116.211
1688827753.567,-67.871,-32.227,-35.645,-35.156,-102.051
1688827753.570,-37.598,-35.645,-35.156,-22.949,84.473
1688827753.574,-17.578,-34.180,-35.645,-24.414,232.422
1688827753.578,-29.297,-31.250,-37.109,-30.762,-62.012
1688827753.582,-53.223,-32.227,-39.062,-28.320,-169.434
1688827753.586,-53.223,-37.109,-34.668,-27.832,-88.379
1688827753.556,-34.180,-39.062,-35.156,-27.832,-107.422
1688827753.560,-23.926,-35.645,-33.203,-31.738,-129.395
1688827753.564,-44.922,-32.715,-35.156,-34.180,-132.812
1688827753.568,-74.219,-33.691,-41.016,-33.691,-95.703
1688827753.572,-69.336,-41.016,-41.016,-38.086,-72.754
1688827753.576,-32.227,-37.109,-39.062,-35.645,10.742
1688827753.580,-7.324,-32.227,-38.574,-39.062,61.035
1688827753.583,-8.789,-49.805,-33.691,-28.809,93.750
1688827753.587,-15.625,-50.293,-35.645,-5.859,10.742
1688827753.591,-25.391,-25.879,-42.969,-16.602,-141.602
1688827753.595,-33.203,-19.531,-44.434,-48.340,-60.059
1688827753.599,-23.438,-22.949,-41.992,-51.270,34.668
1688827753.601,-26.367,-25.391,-37.598,-46.875,-71.289
1688827753.605,-63.965,-25.391,-39.551,-52.734,-128.418
1688827753.609,-81.543,-26.367,-43.457,-51.270,-71.777
1688827753.613,-59.082,-22.949,-45.898,-34.180,289.062
1688827753.617,-18.555,-15.625,-45.410,-33.691,340.820
1688827753.621,-13.184,-14.160,-41.016,-53.223,-55.176
1688827753.625,-39.062,-16.113,-35.645,-45.898,102.539
1688827753.628,-52.246,-18.066,-37.598,-27.832,399.902
1688827753.632,-23.926,-17.090,-38.086,-24.414,-16.113
1688827753.636,5.371,-18.555,-35.645,-28.320,-249.023
1688827753.640,4.883,-22.949,-36.621,-29.785,-166.992
1688827753.644,-15.625,-21.484,-40.527,-29.785,-152.832
1688827753.649,-36.133,-20.020,-38.086,-27.832,-195.312
1688827753.653,-26.855,-28.320,-39.062,-23.438,-158.691
1688827753.657,-7.812,-33.691,-41.992,-28.809,-107.910
1688827753.661,-7.812,-32.715,-37.109,-36.621,-164.062
1688827753.665,-37.598,-33.203,-33.691,-45.898,-200.684
1688827753.669,-62.500,-34.180,-35.156,-42.480,-100.586
1688827753.673,-44.434,-32.715,-38.574,-23.926,267.578
1688827753.676,-6.348,-27.344,-40.039,-22.461,231.934
1688827753.680,1.465,-26.855,-36.621,-33.203,-116.211
1688827753.684,-21.973,-28.809,-33.691,-41.016,-73.730
1688827753.688,-41.016,-27.344,-33.691,-45.410,-58.105
1688827753.692,-38.086,-27.832,-34.668,-35.645,-147.461
1688827753.691,-22.461,-36.621,-37.598,-34.180,-180.664
1688827753.695,-20.508,-42.969,-37.109,-41.992,-40.039
1688827753.699,-43.457,-39.551,-38.574,-49.316,62.012
1688827753.703,-76.172,-39.551,-40.527,-53.223,-87.891
1688827753.707,-70.312,-44.922,-40.039,-53.223,-194.824
1688827753.711,-37.109,-47.852,-39.062,-54.688,16.113
1688827753.715,-30.762,-49.316,-38.086,-48.340,424.316
1688827753.718,-49.316,-48.340,-40.039,-47.363,255.859
1688827753.722,-73.242,-42.969,-38.574,-45.898,-170.898
1688827753.726,-66.406,-38.574,-34.180,-36.621,-192.871
1688827753.730,-35.156,-37.598,-30.273,-26.855,-161.621
1688827753.734,-15.137,-37.109,-29.785,-21.484,-89.355
1688827753.751,-25.391,-38.086,-33.203,-32.715,-105.469
1688827753.755,-48.828,-31.738,-33.203,-33.203,-54.688
1688827753.759,-45.898,-24.414,-30.273,-22.461,0.000
1688827753.763,-20.508,-29.297,-25.391,-17.578,-139.160
1688827753.767,-6.348,-34.180,-24.414,-19.531,-100.098
1688827753.771,-18.555,-29.785,-23.926,-20.020,63.965
1688827753.775,-42.969,-30.762,-24.414,-21.484,81.055
1688827753.778,-54.199,-36.133,-24.902,-19.531,10.742
1688827753.782,-35.645,-35.645,-24.902,-17.090,-96.191
1688827753.786,-14.648,-37.598,-33.691,-22.461,167.480
1688827753.790,-23.438,-40.527,-37.598,-32.715,210.449
1688827753.794,-51.758,-37.598,-36.133,-48.340,-156.250
1688827753.797,-71.289,-39.062,-41.016,-43.457,-173.828
1688827753.801,-53.223,-40.527,-39.551,-33.691,-100.586
1688827753.805,-19.531,-33.691,-35.645,-38.574,-84.961
1688827753.809,-29.785,-33.691,-35.156,-39.551,-193.848
1688827753.813,-74.219,-34.668,-33.203,-36.133,-60.547
1688827753.817,-93.262,-29.297,-29.297,-36.133,120.605
1688827753.821,-72.754,-27.832,-23.926,-37.109,17.090
1688827753.824,-41.504,-29.297,-26.855,-40.039,-101.562
1688827753.828,-44.922,-31.738,-30.273,-30.273,20.508
1688827753.832,-74.707,-32.715,-31.738,-31.738,193.848
1688827753.836,-89.844,-29.297,-34.180,-40.039,-88.379
1688827753.840,-68.359,-31.250,-32.227,-34.668,-169.434
1688827753.841,-22.949,-30.762,-34.180,-28.320,-77.637
1688827753.845,-10.742,-26.367,-38.086,-27.832,-179.688
1688827753.849,-30.273,-25.391,-33.203,-32.715,-253.906
1688827753.853,-57.617,-21.973,-32.227,-29.297,-200.684
1688827753.857,-52.246,-29.297,-34.668,-27.344,-57.617
1688827753.861,-11.719,-36.621,-35.645,-36.133,-43.945
1688827753.865,-0.977,-34.180,-37.109,-41.504,-69.336
1688827753.868,-20.508,-38.086,-35.156,-35.645,-43.457
1688827753.872,-45.898,-41.504,-34.180,-28.809,232.422
1688827753.876,-47.363,-36.621,-38.574,-25.391,339.844
1688827753.880,-12.207,-36.621,-38.574,-27.344,-49.805
1688827753.884,-0.977,-40.039,-33.203,-26.855,-143.066
1688827753.886,-25.391,-37.598,-30.273,-33.691,-89.355
1688827753.890,-63.477,-42.969,-35.156,-48.828,-165.039
1688827753.894,-74.219,-44.434,-38.574,-55.176,-180.664
1688827753.898,-38.086,-35.156,-36.621,-52.246,-82.520
1688827753.902,-2.441,-29.297,-36.621,-46.875,3.906
1688827753.906,-20.020,-35.645,-37.109,-46.875,-26.855
1688827753.910,-55.664,-35.645,-38.574,-50.293,-87.891
1688827753.913,-57.617,-35.645,-38.086,-44.434,200.195
1688827753.917,-36.133,-44.434,-38.086,-39.062,411.133
1688827753.921,-19.531,-43.457,-36.621,-46.875,69.824
1688827753.925,-34.668,-35.645,-29.785,-50.293,-163.574
1688827753.929,-83.984,-38.086,-26.367,-56.641,-140.137
1688827753.931,-99.609,-38.574,-26.367,-57.617,-127.930
1688827753.935,-58.594,-33.203,-26.855,-54.688,-132.812
1688827753.939,-22.461,-30.762,-25.391,-45.898,-133.789
1688827753.943,-27.344,-34.668,-26.855,-49.805,-116.699
1688827753.947,-62.012,-35.645,-27.832,-53.223,-116.211
1688827753.951,-74.219,-32.227,-27.344,-41.016,-89.355
1688827753.955,-43.457,-28.320,-28.809,-41.504,-42.969
1688827753.958,-7.324,-23.438,-27.344,-41.016,322.266
1688827753.962,-5.371,-20.996,-25.879,-44.922,400.391
1688827753.966,-33.691,-21.973,-28.320,-50.781,-20.996
1688827753.970,-51.270,-26.855,-26.855,-37.598,-78.613
1688827753.974,-32.715,-26.367,-20.508,-22.461,-22.949
1688827753.991,-2.930,-27.832,-19.043,-20.508,-136.719
1688827753.995,4.395,-32.227,-22.461,-28.809,-187.500
1688827753.999,-25.879,-34.180,-30.762,-40.527,-75.195
1688827754.003,-56.641,-36.621,-31.738,-36.133,-33.691
1688827754.007,-41.016,-36.133,-28.809,-21.973,-117.188
1688827754.011,-7.324,-33.203,-32.715,-21.973,-130.859
1688827754.015,-17.578,-28.320,-36.621,-28.320,148.926
1688827754.018,-47.852,-27.832,-43.945,-41.992,285.156
1688827754.022,-55.664,-25.391,-41.992,-43.457,-14.160
1688827754.026,-55.664,-24.414,-34.668,-36.621,-145.996
1688827754.030,-27.832,-24.414,-28.809,-31.738,-109.375
1688827754.034,-22.461,-26.367,-25.391,-28.809,-54.199
1688827754.022,-44.434,-32.227,-26.367,-43.457,-88.379
1688827754.026,-56.152,-36.621,-26.855,-44.922,-128.418
1688827754.030,-50.781,-39.062,-21.973,-34.668,-33.203
1688827754.034,-15.137,-29.297,-18.555,-29.785,-39.551
1688827754.038,-1.465,-26.855,-24.902,-32.715,-168.457
1688827754.042,-22.949,-32.227,-25.391,-36.621,-88.867
1688827754.046,-47.852,-31.250,-25.391,-36.621,62.988
1688827754.049,-52.246,-29.785,-26.367,-34.180,105.957
1688827754.053,-27.344,-29.785,-27.832,-38.086,-27.832
1688827754.057,-14.160,-32.227,-25.879,-36.621,-171.387
1688827754.061,-41.504,-33.203,-25.879,-28.320,190.918
1688827754.065,-73.242,-32.227,-31.250,-37.598,240.234
1688827754.096,-68.848,-32.715,-34.180,-43.457,-159.668
1688827754.100,-42.480,-26.855,-33.203,-30.273,-138.672
1688827754.104,-26.367,-28.809,-31.250,-26.367,-22.461
1688827754.108,-29.297,-35.645,-35.156,-40.527,-99.121
1688827754.112,-53.223,-36.133,-33.203,-39.062,-229.492
1688827754.116,-64.941,-33.203,-26.367,-24.902,16.113
1688827754.120,-32.715,-26.855,-27.344,-14.160,358.398
1688827754.123,7.812,-26.855,-28.320,-20.020,83.496
1688827754.127,-0.977,-31.250,-22.461,-28.809,-147.949
1688827754.131,-28.809,-36.133,-18.066,-25.391,-89.355
1688827754.135,-38.574,-35.156,-15.137,-26.367,-99.609
1688827754.139,-22.461,-36.133,-20.508,-27.344,-167.480
1688827754.126,1.953,-39.551,-22.949,-25.879,-157.227
1688827754.130,-10.254,-41.992,-21.484,-30.273,-77.637
1688827754.134,-40.039,-42.480,-28.809,-37.598,-37.598
1688827754.138,-50.781,-36.133,-29.785,-37.109,-79.590
1688827754.142,-38.574,-34.668,-27.832,-32.227,-77.637
1688827754.146,-17.090,-37.109,-30.273,-22.949,81.543
1688827754.150,-15.137,-37.598,-27.832,-23.926,22.461
1688827754.153,-38.086,-34.180,-28.809,-33.203,-31.250
1688827754.157,-57.617,-33.691,-33.691,-34.180,44.434
1688827754.161,-43.457,-32.715,-32.715,-32.227,32.715
1688827754.165,-9.766,-32.227,-33.691,-29.297,-26.855
1688827754.169,-12.695,-37.598,-32.227,-34.180,-115.234
1688827754.171,-46.387,-35.645,-25.879,-38.086,-74.707
1688827754.175,-82.520,-32.227,-33.203,-29.297,291.016
1688827754.179,-68.359,-31.738,-38.086,-31.738,236.328
1688827754.183,-15.625,-28.809,-33.203,-30.762,-188.965
1688827754.187,-8.789,-31.738,-32.715,-21.973,-154.785
1688827754.191,-36.621,-31.738,-32.715,-19.531,-79.590
1688827754.195,-60.547,-28.320,-26.855,-20.020,-103.516
1688827754.198,-43.457,-33.691,-21.973,-13.184,-137.207
1688827754.202,-3.418,-31.738,-19.531,4.883,65.918
1688827754.206,14.160,-30.273,-14.160,0.977,355.469
1688827754.210,5.371,-29.297,-13.184,-9.766,41.992
1688827754.214,-29.297,-27.832,-17.578,-6.348,-195.312
1688827754.216,-33.203,-26.855,-22.461,-3.906,-171.875
1688827754.220,-6.836,-29.297,-24.902,-1.953,-207.520
1688827754.224,10.742,-28.320,-28.809,-5.859,-224.609
1688827754.228,3.418,-21.973,-26.367,-4.883,-212.402
1688827754.232,-23.926,-21.484,-29.785,-3.906,-80.078
1688827754.236,-18.555,-20.996,-41.016,1.953,23.926
1688827754.240,21.484,-20.508,-41.992,11.719,-1.465
1688827754.243,29.785,-25.879,-27.832,-10.254,-6.836
1688827754.247,-7.324,-25.879,-17.090,-28.320,291.016
1688827754.251,-41.016,-26.367,-26.367,-28.809,378.418
1688827754.255,-52.734,-33.203,-27.832,-32.715,-57.617
1688827754.259,-31.738,-31.738,-23.926,-24.902,-93.750
1688827754.261,0.977,-26.367,-25.879,-17.578,-5.859
1688827754.265,-10.254,-26.855,-27.832,-33.203,-168.457
1688827754.269,-37.598,-30.762,-29.785,-38.086,-177.246
1688827754.273,-45.410,-32.715,-31.738,-30.273,-108.398
1688827754.277,-31.738,-36.621,-29.297,-28.320,-102.051
1688827754.281,-6.348,-36.133,-24.414,-23.926,-35.156
1688827754.285,-15.137,-32.227,-26.855,-28.809,0.000
1688827754.288,-52.246,-29.297,-26.855,-30.273,73.242
1688827754.292,-62.012,-31.250,-24.902,-26.367,180.664
1688827754.296,-42.480,-34.668,-29.297,-39.062,-48.828
1688827754.300,-12.207,-34.180,-28.320,-32.715,-151.855
1688827754.304,-19.043,-33.691,-26.855,-28.320,-79.590
1688827754.306,-50.781,-29.785,-24.414,-38.574,-73.730
1688827754.310,-58.594,-28.320,-26.367,-36.133,-141.602
1688827754.314,-46.387,-26.367,-28.320,-27.832,-151.855
1688827754.318,-20.020,-24.902,-20.020,-24.414,-36.621
1688827754.322,-21.973,-29.785,-27.344,-35.645,-81.055
1688827754.326,-39.551,-30.762,-31.250,-40.527,-105.957
1688827754.330,-58.594,-29.297,-26.855,-36.621,-4.395
1688827754.333,-61.523,-29.785,-25.879,-23.438,309.570
1688827754.337,-21.973,-24.414,-25.879,-13.672,435.059
1688827754.341,-1.465,-21.973,-27.344,-15.137,-52.246
1688827754.345,-23.438,-18.555,-23.438,-9.277,-190.430
1688827754.349,-38.086,-16.602,-25.879,-6.836,-167.969
1688827754.353,-26.367,-22.461,-27.344,-3.906,-229.004
1688827754.357,-2.930,-24.902,-21.484,-6.348,-234.863
1688827754.361,8.301,-24.414,-22.949,-13.184,-15.625
1688827754.365,-6.836,-24.902,-29.297,-22.461,51.270
1688827754.369,-29.297,-25.879,-32.715,-21.973,-132.324
1688827754.373,-34.668,-24.902,-34.180,-20.996,-83.496
1688827754.377,-22.949,-30.762,-29.785,-23.926,83.496
1688827754.380,-3.906,-35.645,-30.273,-21.973,249.023
1688827754.384,-12.695,-27.344,-38.086,-35.156,3.418
1688827754.388,-54.688,-28.809,-40.039,-41.992,-146.484
1688827754.392,-58.594,-33.691,-38.086,-36.621,-64.453
1688827754.396,-39.551,-36.621,-36.621,-38.086,-49.805
1688827754.397,-32.715,-40.039,-38.086,-42.480,-66.895
1688827754.401,-46.875,-39.551,-41.992,-45.898,-84.961
1688827754.405,-74.707,-36.133,-41.016,-49.805,-81.543
1688827754.409,-77.148,-39.062,-38.086,-52.734,-98.145
1688827754.413,-58.594,-40.527,-37.598,-49.316,-42.480
1688827754.417,-47.852,-38.086,-34.668,-44.434,-12.695
1688827754.421,-58.594,-39.551,-33.203,-40.039,304.688
1688827754.424,-84.473,-38.086,-33.203,-48.828,369.141
1688827754.428,-89.355,-34.180,-28.809,-61.523,0.977
1688827754.432,-61.035,-29.297,-31.738,-53.711,-87.402
1688827754.436,-21.973,-30.762,-33.203,-33.203,92.285
1688827754.440,-20.508,-32.715,-36.133,-42.969,14.160
1688827754.442,-50.781,-31.738,-41.504,-64.453,-225.586
1688827754.446,-58.105,-29.297,-40.527,-46.875,-151.855
1688827754.450,-26.367,-24.902,-40.039,-32.227,-124.512
1688827754.454,14.160,-23.438,-37.598,-28.320,-125.977
1688827754.458,18.066,-27.344,-34.180,-26.367,-169.434
1688827754.462,-12.695,-25.391,-35.156,-26.855,-19.043
1688827754.466,-33.691,-23.438,-33.691,-19.043,189.453
1688827754.469,-21.484,-24.414,-30.762,-11.719,8.301
1688827754.473,12.207,-21.973,-26.367,-10.254,-180.176
1688827754.477,19.043,-22.949,-23.438,-4.883,-22.461
1688827754.481,-4.883,-22.949,-20.996,-7.324,67.383
1688827754.485,-27.832,-22.461,-19.043,-18.066,-246.094
1688827754.501,-17.090,-23.926,-18.066,-7.324,-247.559
1688827754.505,17.578,-21.484,-14.648,1.953,-108.887
1688827754.509,18.555,-18.066,-18.066,-12.695,-127.930
1688827754.513,-10.742,-19.531,-23.438,-34.668,-200.195
1688827754.517,-31.250,-15.137,-20.020,-30.762,-165.039
1688827754.521,-22.949,-12.695,-20.996,-15.137,50.293
1688827754.525,3.418,-21.484,-22.461,-14.648,80.566
1688827754.528,13.672,-24.902,-20.508,-14.648,-45.898
1688827754.532,-14.160,-25.391,-24.902,-18.066,-61.035
1688827754.536,-58.105,-34.668,-25.391,-21.973,66.406
1688827754.540,-50.293,-32.227,-19.043,-18.555,43.457
1688827754.544,-20.996,-27.832,-20.996,-18.555,-126.953
1688827754.547,-20.996,-33.203,-20.508,-20.020,-109.375
1688827754.551,-20.996,-40.527,-13.672,-3.906,238.770
1688827754.555,-35.645,-35.156,-16.113,-0.488,154.785
1688827754.559,-51.270,-19.043,-25.391,-22.949,-229.004
1688827754.563,-29.785,-21.484,-26.855,-17.578,-125.977
1688827754.567,-7.324,-31.250,-27.344,-6.348,31.738
1688827754.571,-9.766,-32.715,-29.785,-16.113,1.953
1688827754.574,-34.668,-31.250,-32.715,-19.043,-153.320
1688827754.578,-53.223,-31.250,-33.203,-6.836,5.859
1688827754.582,-28.809,-31.738,-38.574,-3.906,213.379
1688827754.586,12.207,-31.738,-36.621,-12.207,-18.066
1688827754.590,16.113,-32.227,-32.715,-5.859,-163.086
1688827754.592,-27.344,-32.227,-29.785,-5.371,-102.051
1688827754.596,-54.199,-36.133,-31.250,-14.160,-90.332
1688827754.600,-19.531,-32.715,-31.738,-14.648,-154.297
1688827754.604,14.648,-29.297,-27.344,-16.602,-119.629
1688827754.608,1.953,-33.691,-33.203,-23.926,-70.312
1688827754.612,-30.273,-34.668,-37.109,-22.949,-29.297
1688827754.616,-31.738,-34.180,-36.133,-18.066,3.418
1688827754.619,-12.207,-35.156,-33.203,-19.043,-16.602
1688827754.623,5.371,-28.320,-29.785,-7.812,246.094
1688827754.627,-4.395,-24.902,-35.156,-10.742,295.410
1688827754.631,-43.945,-28.809,-37.598,-32.715,-92.285
1688827754.635,-65.918,-28.809,-32.715,-33.691,-121.582
1688827754.637,-47.363,-29.297,-30.273,-28.320,-58.594
1688827754.641,-13.672,-33.203,-29.297,-32.227,-125.977
1688827754.645,-9.277,-32.227,-29.297,-38.086,-145.996
1688827754.649,-36.621,-34.668,-24.902,-35.645,5.371
1688827754.653,-64.453,-37.109,-25.879,-39.062,41.504
1688827754.657,-58.594,-37.109,-29.297,-36.133,-21.973
1688827754.661,-21.484,-31.250,-27.832,-27.344,14.160
1688827754.664,-13.672,-27.344,-31.250,-21.484,114.258
1688827754.668,-41.016,-29.785,-34.668,-20.508,285.645
1688827754.672,-57.129,-27.344,-39.062,-34.668,92.285
1688827754.676,-37.598,-24.414,-41.504,-34.180,-95.703
1688827754.680,-15.137,-30.762,-34.180,-22.461,-65.918
1688827754.681,-5.859,-33.691,-33.203,-18.066,-80.078
1688827754.685,-18.555,-27.832,-30.762,-17.578,-113.281
1688827754.689,-54.688,-27.832,-28.320,-21.484,-107.422
1688827754.693,-52.734,-28.320,-30.273,-21.484,-55.664
1688827754.697,-18.066,-33.203,-29.785,-30.762,-27.344
1688827754.701,0.488,-32.715,-26.855,-40.039,-44.434
1688827754.705,-10.742,-27.832,-32.715,-42.969,-10.742
1688827754.708,-48.340,-30.273,-31.738,-38.574,359.375
1688827754.712,-46.875,-28.320,-30.273,-30.762,470.703
1688827754.716,-9.277,-25.391,-39.551,-39.551,-43.945
1688827754.720,7.812,-23.926,-36.621,-48.828,-185.547
1688827754.724,1.465,-19.531,-42.480,-48.828,-40.527
1688827754.726,-30.762,-16.113,-40.527,-47.852,-153.809
1688827754.730,-43.457,-20.020,-33.691,-48.828,-232.910
1688827754.734,-15.625,-24.902,-41.992,-40.527,-149.414
1688827754.738,1.953,-26.855,-41.992,-39.062,-102.051
1688827754.742,-8.789,-29.785,-33.691,-41.016,-171.387
1688827754.746,-41.016,-30.762,-31.250,-39.062,-156.250
1688827754.750,-66.895,-30.762,-33.203,-40.039,110.352
1688827754.753,-42.969,-39.062,-27.344,-32.715,322.266
1688827754.757,-7.812,-37.109,-25.879,-34.668,10.254
1688827754.761,-10.254,-25.391,-27.344,-35.156,-218.262
1688827754.765,-42.480,-24.902,-18.066,-34.180,-114.258
1688827754.769,-57.617,-23.926,-21.973,-31.250,-101.074
1688827754.771,-40.039,-21.973,-28.320,-31.250,-155.273
1688827754.775,-1.465,-20.996,-24.902,-32.227,-149.414
1688827754.779,4.883,-20.996,-24.902,-25.879,-54.199
1688827754.783,-31.738,-21.973,-26.367,-34.668,-57.617
1688827754.787,-47.363,-23.926,-22.461,-44.922,-149.414
1688827754.791,-21.973,-22.461,-21.484,-37.598,-35.156
1688827754.795,-4.883,-24.414,-25.879,-30.273,297.363
1688827754.798,-10.742,-28.809,-25.879,-38.086,215.332
1688827754.802,-23.926,-27.832,-31.738,-36.133,-148.438
1688827754.806,-49.316,-33.203,-32.715,-36.621,-196.777
1688827754.810,-50.781,-38.574,-33.203,-43.945,251.953
1688827754.814,-1.953,-33.691,-30.273,-33.691,257.812
1688827754.816,9.766,-31.738,-30.273,-31.250,-219.238
1688827754.820,-35.156,-34.180,-33.203,-31.250,-178.711
1688827754.824,-62.500,-34.668,-23.926,-37.109,-115.234
1688827754.828,-44.922,-35.156,-20.508,-37.598,-177.246
1688827754.832,-10.742,-33.203,-21.484,-24.414,-162.109
1688827754.836,-5.371,-30.762,-21.973,-20.020,76.172
1688827754.840,-25.391,-28.320,-31.250,-12.207,173.340
1688827754.843,-41.016,-27.832,-33.691,-15.625,-85.938
1688827754.847,-30.273,-27.832,-30.762,-13.672,-200.195
1688827754.851,-14.160,-31.250,-29.785,2.441,-56.152
1688827754.855,-15.625,-31.738,-17.578,-26.367,-59.570
1688827754.859,-36.133,-26.855,-16.113,-78.125,-164.551
1688827754.876,-61.523,-28.809,-35.645,-40.039,-145.020
1688827754.880,-62.012,-34.180,-38.086,2.930,118.652
1688827754.884,-39.062,-37.598,-20.020,-50.781,158.691
1688827754.888,-11.719,-37.109,-18.555,-83.496,-134.766
1688827754.892,-12.695,-29.297,-40.527,-47.852,-149.902
1688827754.896,-47.363,-24.414,-33.203,-48.340,-38.086
1688827754.900,-64.453,-30.762,-21.484,-62.012,-31.250
1688827754.903,-32.715,-32.227,-39.551,-51.270,-39.062
1688827754.907,-5.859,-27.344,-52.246,-31.738,-84.473
1688827754.911,-21.973,-31.738,-39.551,-18.066,156.250
1688827754.915,-53.223,-32.227,-28.809,-52.246,198.242
1688827754.919,-45.898,-25.391,-33.203,-72.266,-153.320
1688827754.922,-16.113,-28.809,-42.969,-27.344,-125.488
1688827754.926,-1.953,-31.250,-31.250,-46.875,-54.688
1688827754.930,-1.465,-25.879,-34.180,-133.301,-122.070
1688827754.934,-35.645,-29.785,-14.648,-136.719,-158.691
1688827754.938,-56.641,-30.762,-14.160,-8.789,7.324
1688827754.942,-23.438,-26.855,-36.621,30.273,96.191
1688827754.946,11.230,-27.832,-24.902,-41.992,-69.824
1688827754.949,11.230,-26.367,-35.156,-27.832,-172.363
1688827754.953,-20.020,-30.762,-44.434,16.113,21.484
1688827754.957,-50.293,-34.668,-37.598,11.230,238.281
1688827754.961,-37.598,-30.762,-33.203,-16.113,-35.156
1688827754.965,-5.371,-30.273,-22.949,-27.344,-157.715
1688827754.967,-10.254,-31.250,-22.461,-38.574,-97.656
1688827754.971,-50.781,-40.039,-17.578,-71.289,-119.141
1688827754.975,-62.500,-42.480,-33.691,-49.805,-138.672
1688827754.979,-48.340,-42.480,-13.184,-23.438,-103.516
1688827754.983,-32.227,-45.410,20.508,-41.016,-44.434
1688827754.987,-18.555,-33.691,-41.992,-33.203,22.949
1688827754.991,-46.875,-40.039,-48.828,-46.387,67.383
1688827754.994,-74.219,-46.387,-30.762,-44.922,36.133
1688827754.998,-48.828,-36.621,-43.457,-14.160,312.500
1688827755.002,-6.836,-36.621,-32.227,-17.090,478.516
1688827755.006,-4.395,-36.621,-27.344,-23.926,9.277
1688827755.010,-56.641,-32.227,-17.090,-93.750,-175.293
1688827755.011,-93.750,-32.715,-14.160,-132.324,-119.141
1688827755.015,-81.543,-40.527,-44.922,-65.918,-199.219
1688827755.019,-65.918,-48.340,-50.293,-38.574,-232.422
1688827755.023,-62.500,-49.805,-23.438,-73.242,-95.215
1688827755.027,-72.266,-46.387,-13.672,-94.727,-71.777
1688827755.031,-82.031,-38.086,-50.781,-50.293,-104.004
1688827755.035,-72.754,-34.668,-53.223,-47.852,-62.500
1688827755.038,-49.805,-40.039,-36.621,-53.223,53.223
1688827755.042,-39.551,-46.387,-30.273,-41.504,298.340
1688827755.046,-49.316,-45.410,-29.297,-48.340,41.504
1688827755.050,-72.754,-39.551,-33.691,-53.711,-188.477
1688827755.054,-79.590,-35.645,-35.156,-55.664,-130.859
1688827755.057,-53.711,-41.016,-32.715,-51.270,-145.020
1688827755.061,-23.926,-40.527,-25.391,-52.246,-207.520
1688827755.065,-30.273,-34.668,-32.227,-44.434,-176.758
1688827755.069,-71.289,-37.109,-33.203,-42.480,-115.234
1688827755.073,-83.008,-42.969,-30.762,-48.828,-112.305
1688827755.077,-57.129,-47.363,-33.203,-46.875,-50.293
1688827755.081,-33.691,-41.992,-29.785,-36.621,6.348
1688827755.084,-37.109,-38.086,-40.039,-18.066,297.852
1688827755.088,-64.941,-39.062,-35.645,-24.902,374.023
1688827755.092,-69.336,-39.551,-33.691,-51.758,-75.684
1688827755.096,-45.410,-40.527,-32.715,-38.574,-70.312
1688827755.100,-9.766,-37.598,-29.785,-34.180,4.883
1688827755.101,-14.648,-40.527,-27.344,-47.363,-168.945
1688827755.105,-58.105,-42.480,-26.855,-62.500,-218.750
1688827755.109,-81.055,-45.410,-31.250,-73.242,-127.441
1688827755.113,-62.012,-45.898,-37.598,-41.504,-72.754
1688827755.117,-17.578,-39.551,-38.574,-23.438,-143.555
1688827755.121,-27.344,-39.062,-29.297,-52.246,-166.016
1688827755.125,-62.012,-35.645,-34.668,-42.969,53.711
1688827755.128,-71.289,-31.250,-44.922,-26.367,219.727
1688827755.132,-51.270,-29.297,-39.062,-51.758,-61.523
1688827755.136,-15.137,-22.461,-33.691,-50.781,-171.387
1688827755.140,-6.836,-23.926,-35.645,-49.805,-75.195
1688827755.144,-33.203,-25.879,-30.762,-42.969,-100.098
1688827755.147,-54.199,-24.902,-24.902,-25.391,-145.996
1688827755.151,-48.828,-18.555,-27.344,-23.926,-31.738
1688827755.155,-11.230,-11.230,-22.949,-10.254,74.219
1688827755.159,5.371,-20.020,-21.973,-22.461,-11.230
1688827755.163,-25.879,-22.461,-26.367,-33.203,-70.312
1688827755.167,-60.059,-17.578,-22.461,-28.320,-18.555
1688827755.171,-54.688,-17.090,-22.461,-21.973,242.188
1688827755.174,-19.531,-19.531,-22.461,-17.578,259.766
1688827755.178,-5.371,-27.832,-21.484,-27.832,-88.379
1688827755.182,-24.902,-30.762,-24.902,-40.527,-141.113
1688827755.186,-48.340,-30.762,-24.414,-31.738,92.285
1688827755.190,-45.410,-36.621,-20.996,-26.367,45.410
1688827755.192,-20.508,-34.668,-19.531,-35.156,-187.988
1688827755.196,4.883,-23.926,-24.902,-12.695,-119.141
1688827755.200,-10.742,-24.414,-32.715,-3.906,-78.613
1688827755.204,-43.945,-30.273,-30.762,-7.324,-98.633
1688827755.208,-48.340,-27.832,-26.855,-8.789,-73.242
1688827755.212,-25.879,-27.344,-29.297,-9.766,87.402
1688827755.216,-6.348,-36.133,-28.320,-15.137,414.551
1688827755.219,-20.508,-41.504,-30.273,-37.598,83.496
1688827755.223,-53.711,-38.574,-36.133,-41.992,-253.906
1688827755.227,-63.477,-36.621,-29.785,-40.039,-157.715
1688827755.231,-34.668,-38.574,-28.320,-27.832,-155.762
1688827755.235,-4.883,-36.621,-30.273,-26.855,-169.434
1688827755.251,-19.531,-35.156,-27.832,-41.504,-157.227
1688827755.255,-55.176,-37.598,-26.855,-41.016,-136.230
1688827755.259,-65.430,-39.062,-31.738,-36.133,-74.219
1688827755.263,-45.410,-41.504,-38.574,-43.945,-117.188
1688827755.267,3.418,-32.227,-46.875,-20.020,-95.215
1688827755.271,5.371,-36.621,-33.691,-14.648,43.945
1688827755.275,-69.336,-54.199,-18.066,-61.035,27.832
1688827755.278,-100.586,-53.223,-19.043,-70.801,-6.836
1688827755.282,-52.246,-41.992,-23.438,-34.668,-18.555
1688827755.286,-25.391,-36.133,-23.438,-21.484,211.426
1688827755.290,-37.109,-37.598,-20.020,-37.109,329.590
1688827755.294,-50.293,-34.180,-22.949,-42.480,-52.734
1688827755.297,-68.359,-32.227,-19.531,-43.945,-126.465
1688827755.301,-62.012,-32.227,-14.648,-53.223,-94.727
1688827755.305,-22.949,-28.809,-12.695,-49.316,-152.344
1688827755.309,-12.207,-28.320,-13.184,-42.480,-119.141
1688827755.313,-38.574,-19.043,-17.578,-41.992,-59.082
1688827755.317,-60.059,-14.160,-20.020,-36.621,29.785
1688827755.321,-44.922,-20.508,-15.137,-23.926,-46.875
1688827755.324,-16.113,-20.508,-16.602,-17.090,-223.145
1688827755.328,-13.184,-23.438,-21.973,-24.902,12.695
1688827755.332,-27.832,-25.879,-18.555,-16.602,322.266
1688827755.336,-53.711,-24.902,-20.996,-23.926,-14.648
1688827755.340,-48.340,-25.391,-26.367,-34.668,-215.820
1688827755.341,-16.113,-29.297,-22.461,-29.785,-111.816
1688827755.345,-2.930,-33.203,-21.484,-28.320,-108.887
1688827755.349,-18.066,-30.762,-18.555,-33.691,-177.246
1688827755.353,-49.805,-27.832,-20.020,-35.156,-193.848
1688827755.357,-52.734,-27.344,-24.902,-32.227,-146.484
1688827755.361,-20.996,-25.879,-22.461,-17.090,-53.223
1688827755.365,-1.465,-27.344,-19.043,-8.301,-6.348
1688827755.368,-23.926,-27.344,-13.672,-14.648,-7.324
1688827755.372,-61.523,-24.414,-17.090,-15.137,285.156
1688827755.376,-56.152,-20.020,-20.508,-10.742,291.016
1688827755.380,-15.625,-18.555,-19.043,-9.766,-109.375
1688827755.384,1.953,-20.996,-29.297,-17.578,-81.543
1688827755.387,-13.184,-22.949,-26.367,-15.625,-11.230
1688827755.391,-39.551,-23.926,-21.484,-2.930,-186.523
1688827755.395,-38.086,-22.949,-21.484,0.000,-268.555
1688827755.399,-15.625,-25.391,-18.066,11.230,-96.191
1688827755.403,2.930,-25.879,-20.508,2.930,38.574
1688827755.407,-1.953,-26.367,-27.832,-14.648,-48.340
1688827755.411,-38.574,-30.762,-27.832,-25.879,-66.895
1688827755.414,-57.617,-35.645,-28.809,-20.508,134.277
1688827755.418,-44.922,-36.133,-30.762,-17.090,267.578
1688827755.422,-11.719,-30.762,-28.809,-27.832,-9.766
1688827755.426,-1.465,-32.715,-31.250,-24.414,-121.094
1688827755.430,-31.738,-35.156,-27.344,-20.508,-104.980
1688827755.432,-47.363,-27.344,-27.832,-10.254,-125.488
1688827755.436,-23.926,-25.391,-30.762,-1.953,-112.793
1688827755.440,-4.395,-27.344,-28.809,-7.324,-78.125
1688827755.444,-12.207,-31.738,-27.832,-23.926,-14.160
1688827755.448,-29.297,-32.227,-29.785,-27.344,-41.504
1688827755.452,-44.434,-28.809,-31.250,-16.113,-72.266
1688827755.456,-33.691,-30.273,-31.738,-9.277,-18.555
1688827755.459,-1.953,-27.344,-32.227,-2.930,346.680
1688827755.463,14.648,-25.879,-28.320,-12.207,391.602
1688827755.467,-4.395,-26.367,-28.320,-25.391,-130.859
1688827755.471,-23.438,-26.367,-30.273,-16.602,-178.223
1688827755.475,-13.184,-28.320,-25.879,-3.906,-54.688
1688827755.476,6.348,-25.391,-23.438,-7.812,-96.680
1688827755.480,19.043,-23.926,-25.879,-13.672,-148.438
1688827755.484,-6.836,-23.438,-21.973,-13.672,-116.699
1688827755.488,-37.598,-20.020,-18.555,-12.695,-96.680
1688827755.492,-32.715,-28.809,-20.020,-5.859,-48.340
1688827755.496,-19.043,-34.668,-21.484,-9.277,7.812
1688827755.500,-17.090,-31.738,-22.949,-15.625,149.902
1688827755.503,-35.156,-33.203,-23.438,-9.766,362.305
1688827755.507,-58.105,-37.109,-30.762,-11.719,80.078
1688827755.511,-51.270,-32.715,-32.227,-10.254,-151.855
1688827755.515,-20.996,-30.762,-22.461,-14.648,-98.633
1688827755.519,-0.977,-36.621,-27.344,-20.020,-152.832
1688827755.536,-11.230,-29.297,-29.785,-10.742,-208.984
1688827755.540,-40.527,-26.855,-22.461,-12.695,-208.984
1688827755.544,-47.363,-31.250,-30.762,-13.672,-142.090
1688827755.548,-23.926,-31.738,-35.156,-13.672,-139.160
1688827755.552,-5.371,-33.203,-33.203,-19.043,-179.199
1688827755.556,-14.648,-30.762,-34.668,-24.414,-115.234
1688827755.560,-49.805,-38.574,-32.715,-31.250,194.824
1688827755.563,-60.059,-38.086,-31.250,-33.691,160.156
1688827755.567,-13.672,-32.715,-30.762,-25.391,-119.629
1688827755.571,20.508,-35.645,-28.809,-21.973,-117.676
1688827755.575,-3.906,-36.621,-22.461,-15.137,157.715
1688827755.579,-31.738,-30.762,-22.949,-18.066,140.137
1688827755.566,-39.551,-25.391,-27.344,-27.344,-223.633
1688827755.570,-31.250,-35.156,-30.273,-24.902,-167.969
1688827755.574,-1.953,-39.062,-33.203,-20.020,-98.633
1688827755.578,1.465,-35.156,-34.180,-26.855,-154.785
1688827755.582,-36.133,-31.738,-36.621,-44.434,-194.336
1688827755.586,-58.594,-25.879,-34.180,-34.180,66.895
1688827755.590,-33.203,-25.879,-31.738,-30.762,225.586
1688827755.593,2.930,-27.344,-34.180,-33.203,-34.180
1688827755.597,3.906,-24.902,-30.762,-31.250,-190.918
1688827755.601,-36.133,-27.832,-24.414,-24.902,51.270
1688827755.605,-58.594,-33.691,-24.902,-13.184,318.848
1688827755.609,-36.621,-28.320,-22.949,-18.066,-16.602
1688827755.626,-8.301,-28.320,-26.367,-25.879,-250.000
1688827755.630,-10.254,-34.180,-26.367,-32.715,-176.270
1688827755.634,-35.645,-32.227,-27.344,-32.715,-176.758
1688827755.638,-55.664,-27.832,-27.832,-31.738,-228.516
1688827755.642,-51.758,-29.297,-29.785,-33.203,-150.879
1688827755.646,-31.250,-34.180,-31.738,-28.809,76.660
1688827755.650,-23.926,-36.621,-27.832,-22.461,72.266
1688827755.653,-38.574,-33.691,-29.785,-28.320,-31.738
1688827755.657,-31.250,-17.578,-38.086,-3.906,-59.570
1688827755.661,-15.625,-21.484,-29.297,29.297,212.891
1688827755.665,-42.480,-39.551,-7.812,-18.555,262.207
1688827755.669,-58.105,-36.133,-12.207,-56.152,-138.672
1688827755.672,-62.500,-29.297,-16.113,-32.715,-104.980
1688827755.676,-85.938,-20.020,-10.254,-27.344,-9.766
1688827755.680,-97.656,-18.066,-11.719,-59.570,-160.156
1688827755.684,-82.031,-24.902,-10.254,-77.148,-194.824
1688827755.688,-65.430,-21.484,-8.301,-74.707,-37.109
1688827755.692,-81.543,-21.484,-13.672,-81.543,83.008
1688827755.696,-107.422,-30.273,-19.043,-86.914,17.578
1688827755.699,-99.609,-29.297,-20.020,-83.984,-146.973
1688827755.703,-63.477,-30.273,-22.949,-67.871,24.902
1688827755.707,-32.715,-36.133,-24.414,-61.035,222.168
1688827755.711,-40.527,-33.691,-24.414,-69.824,-59.082
1688827755.715,-76.172,-29.785,-26.855,-66.406,-166.016
1688827755.717,-78.125,-32.227,-25.879,-54.199,-32.227
1688827755.721,-42.969,-32.227,-22.461,-47.363,-24.414
1688827755.725,-8.301,-28.809,-22.949,-44.922,-55.664
1688827755.729,-9.766,-29.785,-26.855,-43.457,-60.547
1688827755.733,-45.898,-31.738,-29.785,-38.574,-1.953
1688827755.737,-62.500,-34.180,-32.227,-38.086,95.215
1688827755.741,-36.133,-32.715,-34.180,-35.156,50.293
1688827755.744,-4.395,-33.203,-33.691,-36.133,-71.289
1688827755.748,-16.113,-36.621,-31.738,-31.250,168.457
1688827755.752,-52.734,-35.156,-33.203,-33.203,278.320
1688827755.756,-56.152,-28.809,-30.273,-37.598,-93.262
1688827755.760,-27.344,-25.879,-25.391,-27.832,-186.523
1688827755.761,6.348,-31.738,-26.855,-26.855,-144.043
1688827755.765,1.953,-33.203,-29.297,-27.832,-157.715
1688827755.769,-22.949,-28.809,-20.996,-23.926,-163.086
1688827755.773,-35.156,-27.832,-14.648,-15.625,-115.234
1688827755.777,-30.762,-35.645,-20.020,-17.578,17.578
1688827755.781,-1.953,-37.109,-20.020,-17.578,25.879
1688827755.785,7.324,-29.297,-18.555,-22.461,-101.074
1688827755.788,-26.855,-28.320,-25.879,-30.273,36.621
1688827755.792,-47.363,-32.715,-27.832,-29.785,211.914
1688827755.796,-27.832,-29.785,-29.297,-33.691,-94.727
1688827755.800,-2.930,-28.320,-31.250,-30.762,-297.363
1688827755.804,6.836,-34.668,-24.414,-20.508,-27.832
1688827755.806,-13.184,-37.109,-21.484,-28.320,23.926
1688827755.810,-37.109,-32.715,-27.344,-32.715,-208.008
1688827755.814,-35.156,-33.691,-34.668,-29.297,-188.965
1688827755.818,-11.719,-41.016,-34.180,-31.250,-104.980
1688827755.822,2.930,-41.016,-32.715,-32.227,-45.410
1688827755.826,-15.137,-38.086,-36.133,-31.250,-66.895
1688827755.830,-43.457,-36.133,-34.180,-25.391,-80.566
1688827755.833,-38.574,-33.691,-29.785,-13.672,236.816
1688827755.837,-5.371,-31.250,-26.855,-9.277,369.141
1688827755.841,11.719,-24.902,-24.902,-13.672,-59.570
1688827755.845,-6.348,-25.391,-27.344,-21.973,-202.637
1688827755.849,-38.086,-27.344,-25.391,-27.832,-8.301
1688827755.852,-34.180,-28.809,-23.438,-31.738,-65.918
1688827755.856,-11.230,-36.133,-27.832,-28.809,-204.590
1688827755.860,-0.488,-36.621,-28.320,-16.113,-136.719
1688827755.864,-15.137,-32.227,-23.926,-17.578,-98.633
1688827755.868,-35.156,-30.273,-25.391,-19.531,-138.184
1688827755.872,-41.016,-32.715,-30.762,-16.113,-92.285
1688827755.876,-28.320,-36.621,-24.902,-14.648,151.855
1688827755.879,-1.465,-36.621,-22.461,-12.695,312.012
1688827755.883,-11.230,-33.691,-30.273,-26.855,-39.062
1688827755.887,-51.270,-32.227,-33.203,-33.203,-202.148
1688827755.891,-61.035,-30.273,-30.762,-28.809,-10.254
1688827755.895,-16.113,-26.367,-29.785,-24.902,-17.578
1688827755.896,10.742,-28.809,-30.762,-21.484,-207.031
1688827755.900,-10.742,-32.227,-29.297,-20.508,-169.434
1688827755.904,-39.062,-28.809,-27.832,-21.484,-109.863
1688827755.908,-54.688,-29.785,-26.367,-24.902,-128.906
1688827755.912,-38.086,-35.156,-28.320,-20.508,-120.605
1688827755.916,9.766,-22.949,-41.016,-7.324,-9.766
1688827755.920,30.762,-19.043,-43.457,11.230,247.070
1688827755.923,-12.695,-39.062,-28.320,-7.324,234.863
1688827755.927,-79.590,-43.945,-19.531,-58.105,-72.754
1688827755.931,-75.684,-36.621,-22.949,-62.500,-135.254
1688827755.935,-20.020,-32.227,-23.926,-36.621,18.555
1688827755.939,-33.203,-32.715,-20.020,-47.852,-11.230
1688827755.942,-80.566,-31.738,-13.672,-70.801,-72.754
1688827755.946,-104.492,-30.762,-8.301,-71.289,-42.480
1688827755.950,-88.379,-33.691,-7.812,-61.523,-6.348
1688827755.954,-39.551,-33.691,-2.441,-53.711,-101.074
1688827755.958,-42.480,-30.273,0.000,-67.383,-149.902
1688827755.962,-80.566,-27.344,3.418,-62.012,47.363
1688827755.966,-102.539,-24.414,0.488,-47.852,177.246
1688827755.969,-89.355,-24.902,-4.883,-50.781,-35.645
1688827755.973,-51.758,-26.855,-5.859,-45.410,-190.430
1688827755.977,-34.180,-36.621,-4.395,-36.621,-7.812
1688827755.981,-54.199,-36.621,-2.930,-46.387,94.727
1688827755.985,-76.660,-30.273,-7.324,-58.105,-138.672
1688827756.003,-75.195,-32.715,-13.672,-47.852,-194.336
1688827756.007,-48.828,-34.180,-18.555,-40.039,-132.812
1688827756.011,-20.020,-31.738,-15.137,-32.227,-15.625
1688827756.015,-36.133,-28.320,-18.066,-25.879,0.488
1688827756.019,-67.383,-25.391,-19.531,-31.738,-99.121
1688827756.023,-64.941,-22.949,-15.137,-29.297,242.676
1688827756.027,-28.809,-21.484,-14.160,-15.625,295.898
1688827756.030,-3.906,-23.926,-13.184,-20.508,-50.781
1688827756.034,-16.113,-27.832,-19.531,-35.645,-111.328
1688827756.038,-47.852,-31.738,-22.461,-32.227,129.395
1688827756.042,-51.758,-31.250,-23.438,-30.273,94.238
1688827756.046,-26.367,-29.297,-25.391,-33.691,-190.918
1688827756.046,-5.859,-32.227,-25.879,-23.438,-132.812
1688827756.050,-17.578,-31.738,-28.320,-28.809,-110.352
1688827756.054,-49.805,-35.645,-28.320,-38.574,-184.570
1688827756.058,-59.082,-42.480,-28.809,-30.273,-228.516
1688827756.062,-24.414,-38.086,-28.809,-18.555,-64.453
1688827756.066,9.277,-34.180,-27.832,-13.184,72.266
1688827756.070,-4.395,-39.551,-27.344,-16.602,-3.906
1688827756.073,-41.016,-41.504,-24.414,-30.762,-95.703
1688827756.077,-52.246,-37.598,-28.809,-24.902,26.367
1688827756.081,-36.621,-34.668,-32.715,0.000,301.758
1688827756.085,-7.812,-30.762,-31.738,-5.371,83.008
1688827756.089,0.488,-31.738,-28.320,-19.043,-175.781
1688827756.091,-30.273,-31.738,-25.879,-18.555,-142.578
1688827756.095,-45.898,-29.785,-32.715,-21.484,-123.535
1688827756.099,-20.508,-30.762,-30.762,-19.531,-158.691
1688827756.103,1.465,-33.203,-30.273,-20.020,-154.785
1688827756.107,-2.930,-35.156,-31.738,-26.367,-72.266
1688827756.111,-34.180,-38.086,-32.715,-24.414,12.695
1688827756.115,-62.012,-37.109,-23.926,-8.789,5.371
1688827756.118,-41.504,-32.227,-20.996,0.488,-118.652
1688827756.122,-13.672,-35.645,-32.227,-8.301,208.008
1688827756.126,-15.137,-39.551,-31.250,-12.695,488.281
1688827756.130,-36.621,-39.551,-23.926,-28.320,23.926
1688827756.134,-58.105,-29.785,-29.785,-30.762,-193.359
1688827756.136,-20.508,-17.578,-39.062,-6.348,-82.031
1688827756.140,12.207,-25.391,-29.785,-1.953,-129.395
1688827756.144,-15.137,-39.062,-21.484,-32.227,-168.457
1688827756.148,-63.965,-42.969,-20.508,-57.129,-20.508
1688827756.152,-95.703,-45.410,-16.113,-64.941,-3.906
1688827756.156,-77.637,-42.969,-15.137,-54.688,-37.109
1688827756.160,-49.316,-38.574,-11.719,-54.688,5.859
1688827756.163,-44.922,-31.250,-7.812,-52.246,75.684
1688827756.167,-67.383,-32.715,-4.395,-52.734,152.344
1688827756.171,-105.957,-38.086,-3.906,-73.242,-68.848
1688827756.175,-103.516,-33.203,-5.859,-66.895,-113.770
1688827756.179,-82.031,-26.855,-4.883,-51.758,34.180
1688827756.181,-69.336,-23.926,-4.883,-56.641,1.953
1688827756.185,-70.801,-27.832,-10.254,-59.570,-143.555
1688827756.189,-89.355,-32.715,-14.648,-55.176,-188.477
1688827756.193,-87.891,-33.691,-17.090,-51.270,-148.926
1688827756.197,-55.664,-30.273,-18.555,-43.945,-142.090
1688827756.201,-21.484,-24.414,-14.648,-36.621,-112.305
1688827756.205,-31.738,-26.367,-17.578,-34.668,-36.133
1688827756.208,-70.312,-28.809,-20.508,-26.367,297.852
1688827756.212,-72.754,-27.344,-20.508,-9.766,373.047
1688827756.216,-41.016,-23.926,-18.066,-0.488,-106.445
1688827756.220,-14.160,-25.391,-16.113,-4.395,-193.848
1688827756.224,-11.719,-29.297,-18.555,-11.230,-118.164
1688827756.227,-48.340,-31.738,-18.555,-18.555,-59.082
1688827756.231,-65.430,-29.785,-20.020,-20.996,-94.238
1688827756.235,-49.805,-34.180,-23.438,-13.184,-93.262
1688827756.239,-19.531,-42.969,-25.391,-18.555,14.648
1688827756.243,-8.301,-40.039,-25.391,-26.367,-88.867
1688827756.247,-43.945,-37.598,-24.414,-29.785,-139.160
1688827756.251,-61.523,-34.668,-26.855,-23.438,27.344
1688827756.254,-44.922,-34.668,-28.320,-15.137,202.148
1688827756.258,-21.484,-33.203,-30.762,-20.020,-8.301
1688827756.262,-18.066,-29.297,-31.738,-25.391,-129.395
1688827756.266,-41.992,-30.273,-31.738,-27.832,-64.453
1688827756.270,-68.848,-32.227,-31.738,-34.180,-109.375
1688827756.271,-55.664,-34.180,-33.203,-29.785,-159.668
1688827756.275,-12.695,-35.156,-32.227,-16.113,-114.746
1688827756.279,-4.395,-31.250,-36.133,-17.090,-0.977
1688827756.283,-32.715,-29.297,-35.645,-24.902,20.020
1688827756.287,-60.547,-33.203,-26.367,-16.113,-133.789
1688827756.291,-51.758,-35.645,-28.320,-4.883,-115.723
1688827756.295,-16.602,-34.668,-27.832,0.000,196.777
1688827756.298,-1.953,-30.273,-28.809,-1.953,264.648
1688827756.302,-24.902,-27.832,-36.133,-13.184,-56.641
1688827756.306,-57.129,-26.855,-35.645,-18.555,-222.656
1688827756.310,-49.316,-27.344,-32.715,-6.348,117.676
1688827756.314,-19.531,-32.227,-36.133,-7.324,171.875
1688827756.316,1.465,-30.762,-40.527,-25.879,-223.145
1688827756.320,-7.812,-28.320,-34.668,-22.461,-204.590
1688827756.324,-32.715,-20.508,-30.273,-25.391,-141.602
