timestamps,TP9,AF7,AF8,TP10,Right AUX
1688757389.053,-20.020,-21.973,-25.391,-24.902,-116.699
1688757389.057,-20.508,-21.484,-30.273,-29.297,-109.375
1688757389.061,-25.879,-25.879,-33.691,-33.203,-131.836
1688757389.065,-34.668,-29.297,-36.621,-35.645,-56.641
1688757389.069,-40.039,-33.203,-35.645,-38.574,-47.852
1688757389.073,-36.621,-32.227,-32.715,-33.691,-51.270
1688757389.077,-24.414,-28.320,-35.156,-33.203,6.348
1688757389.080,-19.043,-24.902,-33.691,-34.668,232.422
1688757389.084,-22.461,-28.320,-34.180,-32.715,231.934
1688757389.088,-31.738,-32.227,-36.621,-39.062,-174.805
1688757389.092,-33.691,-31.250,-29.297,-32.715,-205.078
1688757389.096,-23.926,-26.855,-24.414,-20.996,-113.281
1688757389.096,-27.832,-26.367,-26.367,-17.578,-147.949
1688757389.100,-33.203,-24.902,-27.344,-23.926,-170.898
1688757389.104,-36.621,-23.926,-25.391,-31.250,-125.488
1688757389.108,-36.621,-32.715,-23.926,-25.879,-27.832
1688757389.112,-22.461,-35.645,-20.020,-11.230,-60.547
1688757389.116,-21.484,-26.855,-25.879,-15.137,-73.242
1688757389.120,-36.621,-16.602,-34.180,-37.109,86.426
1688757389.123,-40.527,-16.602,-32.715,-28.809,439.941
1688757389.127,-41.992,-19.531,-33.691,-28.809,184.082
1688757389.131,-35.645,-18.555,-37.109,-41.504,-189.941
1688757389.135,-33.203,-20.508,-35.156,-41.016,-60.547
1688757389.139,-32.227,-20.996,-36.133,-44.434,-99.121
1688757389.143,-28.320,-18.555,-41.504,-35.645,-215.820
1688757389.147,-28.320,-13.672,-33.691,-29.297,-199.219
1688757389.151,-26.855,-13.672,-28.809,-23.926,-70.312
1688757389.155,-26.367,-17.090,-33.691,-24.414,-90.820
1688757389.159,-28.809,-14.160,-35.156,-33.203,-162.109
1688757389.163,-30.762,-15.137,-34.668,-38.086,-46.387
1688757389.167,-29.785,-18.066,-36.133,-33.691,329.102
1688757389.170,-24.414,-19.531,-35.156,-21.484,245.605
1688757389.174,-22.949,-21.484,-35.156,-17.578,-164.062
1688757389.178,-21.484,-20.508,-34.180,-20.508,-99.121
1688757389.182,-28.320,-23.926,-35.645,-29.785,64.941
1688757389.186,-34.668,-25.391,-36.133,-35.645,-18.066
1688757389.186,-27.344,-19.531,-35.156,-24.902,-155.762
1688757389.190,-19.531,-20.996,-29.297,-15.625,-108.887
1688757389.194,-16.113,-20.508,-27.344,-20.020,-28.809
1688757389.198,-14.648,-11.719,-26.367,-21.973,16.602
1688757389.202,-18.555,-8.301,-19.531,-24.902,-47.852
1688757389.206,-18.555,-11.719,-20.996,-23.438,44.434
1688757389.210,-12.207,-19.043,-21.973,-13.672,454.590
1688757389.213,-12.207,-23.926,-24.902,-28.809,191.895
1688757389.217,-22.461,-24.414,-30.273,-42.480,-235.840
1688757389.221,-34.180,-25.879,-32.227,-37.109,-168.457
1688757389.225,-35.156,-25.391,-30.762,-34.180,-92.773
1688757389.229,-31.738,-20.508,-26.367,-31.250,-118.164
1688757389.249,-29.785,-20.508,-30.273,-35.156,-159.180
1688757389.253,-30.273,-23.926,-41.504,-42.969,-12.695
1688757389.257,-36.133,-25.879,-34.180,-39.062,-26.367
1688757389.261,-35.156,-19.043,-26.367,-36.621,-208.496
1688757389.265,-21.484,-11.230,-25.879,-33.691,-187.012
1688757389.269,-12.695,-13.672,-24.902,-26.855,15.625
1688757389.273,-12.695,-11.719,-25.391,-25.391,8.789
1688757389.276,-17.090,-14.160,-23.438,-26.855,-168.945
1688757389.280,-18.555,-21.484,-20.996,-17.578,-149.902
1688757389.284,-14.648,-21.484,-19.043,-11.230,174.316
1688757389.288,-21.484,-21.973,-23.926,-25.391,84.473
1688757389.292,-22.461,-20.996,-30.762,-32.227,-139.648
1688757389.291,-28.809,-20.996,-33.203,-34.180,-109.863
1688757389.295,-33.691,-22.461,-35.156,-31.738,-33.691
1688757389.299,-34.668,-24.414,-37.598,-23.926,54.199
1688757389.303,-32.227,-26.855,-35.645,-28.809,29.297
1688757389.307,-31.250,-26.855,-29.785,-29.297,18.555
1688757389.311,-36.621,-27.344,-28.809,-28.809,105.469
1688757389.315,-33.691,-25.391,-27.832,-26.367,18.555
1688757389.318,-28.809,-25.879,-28.320,-16.602,-102.539
1688757389.322,-19.531,-30.273,-29.297,-17.090,-30.762
1688757389.326,-23.438,-24.414,-24.902,-19.043,325.195
1688757389.330,-35.645,-23.926,-27.344,-30.273,210.938
1688757389.334,-40.527,-30.762,-26.855,-36.621,-178.223
1688757389.337,-33.203,-32.715,-26.855,-40.527,-86.426
1688757389.341,-36.133,-26.855,-29.785,-44.922,-83.008
1688757389.345,-48.340,-22.949,-36.133,-49.316,-188.477
1688757389.349,-44.922,-21.484,-33.691,-61.035,-138.672
1688757389.353,-44.434,-21.973,-27.344,-52.246,83.496
1688757389.357,-43.945,-27.344,-37.109,-33.203,151.855
1688757389.361,-29.785,-22.949,-35.645,-23.438,84.473
1688757389.364,-22.461,-14.648,-27.832,-30.762,12.695
1688757389.368,-34.180,-20.996,-31.250,-35.156,171.387
1688757389.372,-38.574,-27.344,-34.180,-36.621,94.238
1688757389.376,-27.344,-29.785,-34.180,-34.180,-180.176
1688757389.380,-24.902,-27.344,-36.133,-23.438,-134.766
1688757389.381,-34.180,-20.020,-30.273,-29.297,-98.633
1688757389.385,-41.992,-22.949,-27.344,-44.922,-182.617
1688757389.389,-40.039,-26.855,-32.227,-50.781,-241.699
1688757389.393,-26.367,-18.066,-33.691,-47.852,-5.371
1688757389.397,-11.719,-10.254,-32.227,-40.039,162.598
1688757389.401,-10.254,-13.672,-35.645,-43.945,29.785
1688757389.405,-14.160,-13.184,-34.180,-51.270,-16.113
1688757389.408,-12.207,-7.324,-27.344,-34.180,99.609
1688757389.412,-10.742,-4.395,-25.879,-12.207,377.441
1688757389.416,-24.902,-14.160,-34.180,-19.531,58.105
1688757389.420,-30.762,-25.391,-35.645,-23.438,-241.211
1688757389.424,-26.367,-25.391,-28.320,-15.625,-111.328
1688757389.427,-31.738,-21.484,-27.832,-20.996,-117.676
1688757389.431,-32.227,-20.996,-36.133,-20.508,-172.363
1688757389.435,-26.367,-22.949,-36.621,-16.113,-93.750
1688757389.439,-17.578,-21.484,-32.227,-17.578,-29.785
1688757389.443,-18.555,-21.973,-32.715,-26.367,-137.207
1688757389.447,-28.320,-21.973,-31.250,-29.785,-218.262
1688757389.451,-29.297,-20.020,-29.785,-19.043,-157.715
1688757389.454,-21.973,-17.578,-26.367,-13.672,137.207
1688757389.458,-21.484,-17.578,-25.879,-20.508,71.289
1688757389.462,-23.926,-18.555,-25.391,-30.273,-144.531
1688757389.466,-21.484,-15.625,-22.949,-26.855,-87.402
1688757389.470,-23.438,-14.160,-19.043,-10.254,-13.184
1688757389.471,-30.762,-13.672,-17.578,-10.742,-82.031
1688757389.475,-34.180,-18.066,-19.531,-20.020,-188.965
1688757389.479,-36.133,-20.508,-20.508,-28.809,-165.039
1688757389.483,-37.598,-23.926,-23.438,-29.785,-9.277
1688757389.487,-33.203,-26.855,-24.414,-31.738,-67.871
1688757389.491,-29.785,-22.949,-21.973,-30.273,-78.125
1688757389.495,-29.297,-14.648,-15.625,-22.461,118.164
1688757389.498,-22.461,-10.254,-14.648,-17.578,392.578
1688757389.502,-15.625,-12.695,-21.973,-21.973,67.871
1688757389.506,-19.531,-17.090,-22.461,-26.367,-243.652
1688757389.510,-25.391,-21.973,-26.855,-22.949,-135.254
1688757389.514,-20.996,-27.344,-30.762,-23.438,-104.004
1688757389.519,-22.461,-29.297,-30.762,-27.344,-139.160
1688757389.523,-26.367,-23.926,-34.180,-31.738,-157.715
1688757389.527,-23.926,-16.113,-33.691,-26.367,-20.020
1688757389.531,-21.484,-14.160,-30.273,-23.438,-42.480
1688757389.535,-20.020,-21.484,-31.738,-23.438,-161.133
1688757389.539,-28.809,-19.531,-31.250,-27.832,-50.293
1688757389.543,-33.691,-15.137,-30.762,-33.203,217.285
1688757389.546,-33.691,-16.602,-32.227,-33.691,36.621
1688757389.550,-35.156,-22.949,-31.250,-20.020,-241.211
1688757389.554,-21.484,-25.391,-29.785,-5.371,-126.465
1688757389.558,-17.090,-19.531,-40.527,-11.719,113.281
1688757389.562,-28.320,-15.137,-47.852,-31.738,22.461
1688757389.576,-27.832,-16.602,-41.504,-28.809,-120.605
1688757389.580,-24.414,-21.973,-36.621,-17.090,-171.875
1688757389.584,-24.902,-23.926,-35.156,-17.090,-58.594
1688757389.588,-18.555,-22.949,-33.203,-15.137,4.883
1688757389.592,-17.090,-21.484,-30.762,-13.672,-138.184
1688757389.596,-27.344,-22.461,-36.133,-20.508,-24.902
1688757389.600,-30.762,-24.414,-41.016,-16.602,459.473
1688757389.603,-27.832,-20.996,-34.180,-13.672,410.156
1688757389.607,-26.367,-20.020,-26.367,-23.438,-63.965
1688757389.611,-21.973,-23.926,-27.344,-30.273,-137.695
1688757389.615,-27.344,-24.902,-29.297,-38.086,-135.742
1688757389.619,-25.879,-27.344,-25.391,-36.621,-222.656
1688757389.608,-20.996,-29.785,-28.809,-29.297,-177.734
1688757389.612,-21.973,-28.320,-30.762,-26.855,-57.617
1688757389.616,-20.508,-25.879,-32.715,-34.668,-83.984
1688757389.620,-34.668,-24.902,-38.574,-43.457,-167.969
1688757389.624,-46.387,-30.273,-33.691,-39.062,-99.121
1688757389.628,-38.086,-37.109,-31.250,-30.273,199.707
1688757389.632,-32.715,-28.320,-29.785,-26.855,179.688
1688757389.635,-33.691,-20.020,-29.785,-34.668,-96.191
1688757389.639,-34.668,-23.438,-29.297,-40.527,-155.762
1688757389.643,-33.691,-26.367,-26.855,-27.344,143.555
1688757389.647,-31.738,-26.855,-27.832,-21.484,76.660
1688757389.651,-30.762,-27.832,-27.832,-27.832,-173.340
1688757389.667,-33.691,-26.367,-29.785,-33.691,-124.023
1688757389.671,-36.621,-26.855,-33.203,-39.062,-134.766
1688757389.675,-35.156,-30.762,-32.715,-39.062,-102.051
1688757389.679,-34.668,-29.297,-34.668,-35.645,-128.906
1688757389.683,-28.809,-23.438,-32.227,-26.855,-49.316
1688757389.687,-24.414,-20.508,-27.832,-22.949,332.520
1688757389.691,-27.344,-22.461,-30.273,-29.785,174.805
1688757389.694,-29.297,-22.949,-27.344,-30.273,-97.168
1688757389.698,-24.414,-19.043,-27.832,-24.414,10.254
1688757389.702,-21.484,-16.602,-24.902,-22.461,247.559
1688757389.706,-29.785,-12.207,-24.902,-38.574,-22.949
1688757389.710,-35.156,-12.695,-27.832,-46.387,-194.336
1688757389.712,-38.086,-18.555,-24.902,-43.945,-65.918
1688757389.716,-33.691,-19.531,-28.809,-39.062,-109.375
1688757389.720,-36.621,-24.414,-27.832,-34.668,-147.949
1688757389.724,-39.551,-31.250,-24.414,-34.668,-186.523
1688757389.728,-38.086,-28.320,-24.902,-39.062,-125.000
1688757389.732,-37.598,-26.855,-23.438,-45.898,-29.297
1688757389.736,-29.785,-21.973,-21.973,-38.574,-116.211
1688757389.739,-22.949,-14.160,-20.508,-30.762,-140.625
1688757389.743,-30.273,-12.695,-17.578,-30.762,153.320
1688757389.747,-44.922,-20.508,-21.973,-40.039,141.602
1688757389.751,-47.363,-19.531,-24.902,-45.898,-138.184
1688757389.755,-46.387,-15.625,-19.043,-39.551,-166.504
1688757389.756,-38.574,-15.137,-20.020,-30.273,0.000
1688757389.760,-33.203,-16.602,-26.367,-28.320,-66.406
1688757389.764,-37.109,-20.508,-33.203,-32.227,-173.340
1688757389.768,-39.062,-17.090,-30.762,-26.367,-87.402
1688757389.772,-38.086,-12.207,-24.902,-13.184,32.227
1688757389.776,-26.855,-14.648,-28.809,-14.160,47.363
1688757389.780,-20.508,-18.066,-33.203,-25.391,-47.852
1688757389.783,-27.832,-16.602,-30.762,-28.320,-48.828
1688757389.787,-37.598,-19.043,-28.320,-30.762,133.301
1688757389.791,-35.645,-17.090,-35.156,-32.227,-124.512
1688757389.795,-30.762,-18.555,-35.645,-24.414,-275.879
1688757389.799,-36.621,-24.414,-32.715,-29.297,-60.059
1688757389.803,-41.016,-28.320,-35.645,-48.828,-45.410
1688757389.807,-42.969,-32.227,-35.156,-47.852,-218.262
1688757389.811,-48.828,-32.227,-36.133,-32.227,-238.281
1688757389.815,-38.574,-30.273,-37.109,-20.508,-6.348
1688757389.819,-25.879,-25.879,-33.203,-24.414,-0.488
1688757389.823,-25.391,-17.090,-30.273,-36.133,-105.957
1688757389.827,-22.949,-18.066,-25.391,-43.457,-9.766
1688757389.830,-21.973,-26.855,-20.020,-37.598,220.703
1688757389.834,-24.902,-23.438,-17.578,-24.414,96.191
1688757389.838,-18.555,-19.531,-18.066,-21.484,-187.500
1688757389.842,-13.184,-16.602,-20.508,-26.855,-154.297
1688757389.846,-19.043,-16.602,-20.508,-29.785,-104.980
1688757389.847,-25.879,-18.066,-28.320,-27.832,-140.137
1688757389.851,-25.391,-15.625,-32.715,-20.508,-178.711
1688757389.855,-17.578,-16.113,-26.367,-18.066,-81.055
1688757389.859,-15.625,-17.578,-28.809,-20.996,51.758
1688757389.863,-15.137,-12.207,-30.273,-21.484,-29.785
1688757389.867,-16.602,-11.719,-23.438,-23.926,-2.441
1688757389.871,-26.367,-18.066,-26.367,-22.461,206.543
1688757389.874,-30.273,-29.297,-32.227,-16.602,443.848
1688757389.878,-37.109,-30.762,-34.668,-40.039,126.953
1688757389.882,-41.016,-29.785,-38.086,-56.152,-179.199
1688757389.886,-41.016,-33.691,-36.621,-43.945,27.344
1688757389.890,-44.922,-29.785,-35.645,-40.527,102.539
1688757389.907,-34.180,-23.926,-32.715,-42.480,-114.746
1688757389.911,-21.484,-22.949,-30.762,-33.691,-145.020
1688757389.915,-17.090,-25.391,-28.809,-33.203,14.648
1688757389.919,-19.043,-25.391,-22.949,-35.645,3.906
1688757389.923,-25.391,-24.414,-22.949,-28.809,-133.301
1688757389.927,-27.344,-22.949,-22.949,-23.926,-3.418
1688757389.931,-21.484,-23.438,-18.066,-22.949,363.770
1688757389.934,-23.926,-25.879,-22.949,-36.133,211.426
1688757389.938,-40.527,-25.391,-36.133,-50.293,-172.363
1688757389.942,-43.457,-27.832,-37.598,-41.016,-83.496
1688757389.946,-34.668,-28.320,-34.668,-32.715,175.781
1688757389.950,-26.367,-31.250,-34.180,-36.621,-22.949
1688757389.937,-23.926,-36.133,-31.250,-35.156,-202.637
1688757389.941,-30.762,-37.598,-32.227,-39.062,-135.254
1688757389.945,-31.738,-39.551,-33.691,-37.598,-38.574
1688757389.949,-30.762,-40.039,-40.039,-32.227,20.020
1688757389.953,-33.203,-33.203,-35.645,-38.574,-51.758
1688757389.957,-41.016,-36.621,-32.227,-45.898,-7.324
1688757389.961,-42.480,-38.574,-32.715,-40.527,62.988
1688757389.964,-45.898,-38.086,-35.156,-36.133,-3.418
1688757389.968,-45.410,-38.086,-37.109,-38.574,-82.520
1688757389.972,-34.180,-35.156,-27.344,-32.227,-51.758
1688757389.976,-33.203,-32.227,-20.996,-31.250,341.309
1688757389.980,-38.574,-31.250,-28.809,-43.457,213.867
1688757389.983,-44.434,-33.691,-34.180,-44.922,-200.684
1688757389.987,-44.434,-31.738,-35.645,-29.297,-119.629
1688757389.991,-34.180,-32.227,-33.203,-23.438,-123.535
1688757389.995,-30.762,-32.227,-27.832,-24.902,-188.965
1688757389.999,-38.574,-31.738,-27.832,-32.227,-168.457
1688757390.003,-42.969,-31.250,-31.250,-33.691,37.109
1688757390.007,-38.086,-30.762,-31.738,-23.438,83.984
1688757390.010,-29.785,-32.715,-35.156,-22.949,-142.578
1688757390.014,-28.809,-32.227,-37.598,-30.762,-191.895
1688757390.018,-27.344,-36.621,-36.133,-31.250,126.465
1688757390.022,-30.762,-32.715,-37.109,-32.715,117.676
1688757390.026,-35.156,-25.391,-36.621,-32.715,-144.043
1688757390.041,-35.156,-26.367,-30.762,-22.461,-123.535
1688757390.045,-30.762,-23.926,-25.879,-22.461,-3.418
1688757390.049,-25.879,-20.020,-23.438,-27.832,-84.961
1688757390.053,-32.227,-20.508,-29.297,-35.645,-158.691
1688757390.057,-29.785,-21.484,-32.715,-32.715,-12.695
1688757390.061,-16.113,-20.996,-27.832,-14.160,275.879
1688757390.065,-17.578,-19.043,-30.762,-25.391,73.730
1688757390.068,-24.414,-24.414,-31.250,-39.062,-189.941
1688757390.072,-23.438,-24.902,-26.855,-32.227,-69.336
1688757390.076,-26.367,-24.414,-26.855,-22.949,111.816
1688757390.080,-21.973,-21.484,-25.879,-15.625,-92.773
1688757390.084,-18.555,-20.996,-25.391,-21.973,-133.789
1688757390.087,-22.461,-24.902,-26.855,-29.297,21.484
1688757390.091,-28.809,-27.344,-27.832,-35.645,-53.223
1688757390.095,-27.344,-23.926,-27.832,-36.621,-161.621
1688757390.099,-21.484,-23.926,-29.297,-27.344,-74.707
1688757390.103,-27.344,-29.297,-33.203,-25.391,114.258
1688757390.107,-31.738,-30.273,-30.762,-32.227,54.199
1688757390.111,-33.203,-27.344,-32.715,-40.039,-43.457
1688757390.114,-40.039,-29.297,-37.109,-40.039,2.441
1688757390.118,-37.109,-36.621,-29.785,-27.832,212.402
1688757390.122,-36.621,-33.203,-30.762,-33.691,101.074
1688757390.126,-37.598,-24.902,-28.809,-48.828,-208.496
1688757390.130,-35.645,-27.832,-19.531,-51.270,-133.789
1688757390.131,-37.109,-30.273,-22.949,-44.922,-8.301
1688757390.135,-34.180,-27.344,-27.344,-31.738,-86.914
1688757390.139,-35.645,-28.809,-28.320,-31.738,-191.406
1688757390.143,-36.133,-30.273,-31.250,-35.156,24.902
1688757390.147,-26.367,-22.949,-27.344,-28.809,329.590
1688757390.151,-24.902,-22.461,-25.879,-31.250,107.910
1688757390.155,-19.043,-23.926,-26.855,-27.344,-97.656
1688757390.158,-9.277,-19.531,-31.738,-20.996,-50.293
1688757390.162,-22.949,-23.438,-36.621,-23.926,228.516
1688757390.166,-30.762,-25.879,-36.133,-33.691,-40.527
1688757390.170,-33.203,-27.832,-34.180,-39.062,-278.809
1688757390.174,-35.645,-28.320,-31.250,-36.133,-98.633
1688757390.192,-31.738,-22.949,-31.738,-31.250,-120.605
1688757390.196,-25.391,-26.367,-30.762,-31.250,-223.633
1688757390.200,-27.832,-30.762,-25.879,-24.902,-177.734
1688757390.204,-35.645,-27.344,-24.414,-23.438,-113.281
1688757390.208,-26.855,-28.809,-34.668,-24.902,-157.227
1688757390.212,-26.367,-35.156,-38.574,-23.926,-127.441
1688757390.216,-30.762,-31.738,-27.344,-20.508,25.879
1688757390.219,-30.762,-29.785,-20.508,-20.996,317.383
1688757390.223,-40.527,-30.273,-24.902,-29.297,318.359
1688757390.227,-42.969,-27.344,-24.414,-24.414,-110.840
1688757390.231,-32.715,-21.484,-22.949,-23.438,-159.180
1688757390.235,-33.203,-25.879,-21.973,-32.227,-43.457
1688757390.221,-31.250,-22.949,-14.648,-29.785,-114.258
1688757390.225,-31.250,-17.578,-17.090,-29.297,-202.148
1688757390.229,-31.250,-15.625,-20.508,-24.902,-138.672
1688757390.233,-22.461,-14.648,-20.996,-22.461,-20.996
1688757390.237,-25.879,-14.648,-20.508,-26.855,-92.285
1688757390.241,-35.156,-11.719,-22.461,-33.203,-93.750
1688757390.245,-35.156,-13.672,-26.367,-37.598,28.320
1688757390.248,-31.250,-15.137,-27.832,-35.645,3.906
1688757390.252,-28.809,-17.578,-26.855,-24.902,-36.621
1688757390.256,-25.391,-20.508,-23.438,-23.926,-114.746
1688757390.260,-29.297,-25.391,-29.785,-35.156,-42.480
1688757390.264,-33.203,-22.461,-37.598,-34.668,296.875
1688757390.268,-25.879,-17.090,-41.504,-31.250,74.219
1688757390.272,-23.926,-23.926,-45.410,-31.250,-207.031
1688757390.276,-19.531,-20.996,-44.922,-25.391,-108.398
1688757390.280,-20.020,-16.113,-38.574,-26.367,-149.414
1688757390.284,-20.996,-19.043,-32.715,-27.344,-229.004
1688757390.288,-20.020,-19.531,-33.691,-21.484,-103.516
1688757390.292,-20.996,-22.461,-31.250,-7.324,201.660
1688757390.295,-17.090,-27.344,-33.203,-11.230,72.266
1688757390.299,-23.926,-27.832,-37.109,-29.785,-200.195
1688757390.303,-36.133,-28.320,-32.227,-34.668,-122.559
1688757390.307,-40.527,-24.414,-27.832,-29.297,-36.133
1688757390.311,-41.992,-22.461,-30.273,-25.879,-64.453
1688757390.326,-35.645,-24.902,-35.156,-31.250,-82.031
1688757390.330,-29.297,-28.320,-38.086,-38.086,-81.055
1688757390.334,-33.203,-27.832,-39.551,-40.039,34.668
1688757390.338,-41.992,-28.809,-41.016,-38.574,-11.230
1688757390.342,-40.039,-22.461,-42.480,-33.691,-88.867
1688757390.346,-25.879,-19.531,-41.992,-32.227,97.168
1688757390.350,-20.020,-24.414,-41.992,-31.250,380.859
1688757390.353,-24.414,-20.996,-36.133,-33.203,169.434
1688757390.357,-33.203,-17.578,-30.762,-27.832,-157.227
1688757390.361,-36.621,-16.602,-32.227,-25.879,-110.352
1688757390.365,-29.297,-19.043,-33.203,-25.391,-118.652
1688757390.369,-23.926,-18.066,-33.691,-21.484,-187.500
1688757390.359,-20.996,-19.043,-36.621,-23.438,-150.879
1688757390.363,-19.531,-26.367,-35.156,-23.438,52.734
1688757390.367,-26.367,-30.762,-32.715,-27.344,-26.855
1688757390.371,-25.391,-30.273,-35.156,-26.855,-228.516
1688757390.375,-6.836,-40.039,-26.855,-4.883,-163.086
1688757390.379,-3.418,-41.504,-17.578,2.441,81.543
1688757390.383,-21.484,-25.879,-26.367,-25.391,110.840
1688757390.386,-38.574,-17.578,-25.879,-35.156,-100.098
1688757390.390,-49.316,-11.230,-15.137,-38.574,-115.234
1688757390.394,-55.664,-4.883,-20.508,-48.828,204.102
1688757390.398,-62.500,-11.230,-22.949,-59.570,80.078
1688757390.402,-83.496,-14.160,-27.832,-77.637,-177.246
1688757390.431,-93.750,-10.742,-31.738,-79.102,-169.434
1688757390.435,-80.078,-10.254,-29.297,-73.730,-133.789
1688757390.439,-77.148,-10.742,-34.180,-85.938,-88.379
1688757390.443,-87.402,-11.230,-40.527,-98.145,-89.844
1688757390.447,-95.215,-13.184,-41.016,-103.027,15.137
1688757390.451,-87.402,-16.113,-40.527,-90.332,470.215
1688757390.455,-78.125,-18.555,-37.109,-82.031,391.602
1688757390.458,-79.102,-20.508,-40.039,-90.820,-103.027
1688757390.462,-75.684,-21.973,-41.504,-85.449,-98.145
1688757390.466,-71.777,-21.973,-39.551,-76.660,-68.359
1688757390.470,-62.988,-18.066,-36.621,-76.172,-242.188
1688757390.474,-53.223,-16.113,-33.203,-62.500,-216.309
1688757390.461,-50.781,-20.508,-33.691,-62.012,-75.195
1688757390.465,-47.363,-20.996,-34.668,-68.359,-123.047
1688757390.469,-42.969,-20.508,-34.668,-65.430,-174.805
1688757390.473,-40.039,-26.367,-35.645,-64.941,-133.301
1688757390.477,-40.527,-30.273,-33.691,-60.547,-61.523
1688757390.481,-40.527,-29.297,-28.809,-51.270,-45.898
1688757390.485,-29.785,-25.391,-28.809,-41.504,-10.254
1688757390.488,-31.250,-23.438,-34.180,-41.504,105.469
1688757390.492,-37.598,-24.414,-34.668,-42.480,48.340
1688757390.496,-27.344,-20.020,-30.762,-31.250,-131.348
1688757390.500,-22.949,-17.578,-29.297,-23.926,-179.688
1688757390.504,-25.879,-21.484,-32.715,-18.066,-142.090
1688757390.506,-20.020,-25.879,-32.715,-18.066,191.406
1688757390.510,-28.320,-23.926,-31.738,-30.273,126.953
1688757390.514,-29.785,-16.113,-28.809,-30.273,-115.723
1688757390.518,-21.484,-18.066,-26.367,-26.367,40.039
1688757390.522,-24.414,-19.531,-24.414,-26.367,101.562
1688757390.526,-25.879,-15.625,-18.066,-29.297,64.941
1688757390.530,-38.086,-15.625,-22.949,-37.109,-59.082
1688757390.533,-36.621,-19.043,-26.367,-38.086,-33.691
1688757390.537,-27.344,-18.555,-23.438,-28.809,322.754
1688757390.541,-23.926,-19.531,-27.344,-34.668,77.637
1688757390.545,-26.367,-21.484,-31.250,-45.898,-218.262
1688757390.549,-34.668,-20.020,-27.832,-43.945,-106.934
1688757390.552,-32.227,-23.926,-25.391,-41.992,-95.703
1688757390.556,-25.879,-30.273,-27.832,-41.504,-145.020
1688757390.560,-23.438,-27.344,-28.320,-35.645,-153.809
1688757390.564,-13.184,-33.203,-17.090,-6.836,-60.547
1688757390.568,-4.883,-33.203,-9.277,0.000,-76.660
1688757390.572,-41.016,-18.555,-35.156,-55.176,-127.441
1688757390.576,-60.547,-11.719,-46.875,-82.520,-20.508
1688757390.579,-54.199,-13.672,-39.551,-69.824,247.070
1688757390.583,-66.406,-20.020,-43.457,-83.496,97.656
1688757390.587,-84.473,-19.043,-47.363,-102.051,-275.391
1688757390.591,-82.520,-18.555,-46.387,-96.191,-174.316
1688757390.595,-76.660,-24.902,-50.293,-90.820,17.578
1688757390.596,-85.449,-23.438,-54.688,-97.168,-70.312
1688757390.600,-93.262,-18.066,-53.711,-107.910,-172.852
1688757390.604,-85.938,-20.508,-53.711,-100.586,-58.105
1688757390.608,-66.406,-23.438,-50.781,-78.613,129.395
1688757390.612,-61.523,-22.949,-43.945,-67.871,-34.180
1688757390.616,-58.594,-25.391,-46.387,-58.594,-93.750
1688757390.620,-52.246,-27.832,-48.340,-58.594,87.402
1688757390.623,-51.758,-33.203,-45.410,-57.617,297.852
1688757390.627,-43.457,-34.668,-43.457,-51.758,33.691
1688757390.631,-33.203,-27.832,-36.621,-42.969,-181.152
1688757390.635,-25.879,-29.785,-36.133,-35.645,-78.125
1688757390.639,-18.555,-31.250,-41.016,-37.598,-90.820
1688757390.647,-25.391,-30.273,-40.039,-41.016,-176.758
1688757390.651,-29.785,-30.762,-40.039,-41.016,-146.484
1688757390.655,-23.438,-32.715,-35.645,-32.715,55.664
1688757390.659,-21.973,-39.062,-26.855,-22.461,-9.766
1688757390.663,-23.926,-40.527,-35.645,-25.879,-117.188
1688757390.667,-14.160,-38.574,-42.480,-27.344,-24.414
1688757390.671,-5.859,-43.457,-32.715,-16.602,182.129
1688757390.674,-4.395,-41.016,-29.297,-13.184,73.730
1688757390.678,-5.371,-35.645,-27.344,-19.043,-198.242
1688757390.682,-11.719,-40.039,-28.320,-21.973,-140.625
1688757390.686,-25.879,-43.457,-29.785,-21.973,-38.574
1688757390.690,-40.527,-46.875,-28.809,-25.879,-103.516
1688757390.686,-39.551,-51.758,-25.879,-20.020,-81.543
1688757390.690,-24.414,-46.387,-19.531,-5.859,-42.480
1688757390.694,-21.973,-41.016,-21.973,-8.789,-6.348
1688757390.698,-22.949,-38.086,-22.949,-11.719,20.508
1688757390.702,-17.090,-35.645,-20.996,-11.719,-39.551
1688757390.706,-18.555,-35.156,-20.996,-7.324,156.738
1688757390.710,-16.602,-32.227,-27.832,9.277,491.211
1688757390.713,-14.160,-34.180,-31.738,-0.977,176.758
1688757390.717,-15.625,-39.062,-32.715,-20.020,-262.695
1688757390.721,-20.020,-37.598,-36.621,-17.578,-121.094
1688757390.725,-24.902,-35.156,-28.320,-14.648,96.191
1688757390.729,-21.484,-33.691,-19.531,-22.461,-125.488
1688757390.733,-10.742,-31.738,-21.484,-19.531,-217.773
1688757390.737,-12.695,-32.227,-22.949,-18.555,-124.023
1688757390.741,-14.648,-25.879,-22.949,-27.344,-181.152
1688757390.745,-16.113,-17.578,-20.996,-34.180,-207.031
1688757390.749,-11.719,-20.020,-18.066,-33.691,-140.137
1688757390.753,-2.441,-25.879,-23.438,-23.926,43.457
1688757390.757,-15.137,-27.344,-25.391,-25.391,75.684
1688757390.760,-24.902,-31.250,-21.484,-28.320,-36.133
1688757390.764,-26.367,-32.715,-25.391,-24.902,-92.285
1688757390.768,-31.250,-34.180,-32.715,-18.066,182.129
1688757390.772,-38.086,-38.574,-28.809,-18.066,220.703
1688757390.776,-47.363,-40.039,-27.344,-29.785,-107.910
1688757390.791,-44.434,-38.574,-26.367,-19.531,-154.785
1688757390.795,-25.391,-27.832,-24.414,0.488,-77.148
1688757390.799,-26.367,-24.414,-31.738,-13.672,-4.395
1688757390.803,-43.457,-33.203,-37.598,-35.156,4.395
1688757390.807,-42.480,-29.785,-37.109,-38.086,5.859
1688757390.811,-33.691,-26.367,-31.738,-28.809,267.090
1688757390.815,-29.297,-28.809,-29.297,-26.855,108.887
1688757390.818,-23.926,-29.785,-26.855,-28.320,-186.523
1688757390.822,-14.648,-33.203,-24.902,-17.578,-31.738
1688757390.826,-12.695,-29.297,-27.344,-11.719,290.527
1688757390.830,-19.043,-31.250,-23.438,-20.996,-6.348
1688757390.834,-15.137,-36.621,-19.531,-15.137,-216.309
1688757390.837,-10.254,-32.715,-23.438,-13.672,-116.699
1688757390.841,-7.812,-33.203,-26.367,-21.973,-114.746
1688757390.845,-7.324,-32.227,-25.391,-25.391,-161.133
1688757390.849,-17.090,-30.273,-22.949,-33.203,-176.758
1688757390.853,-24.414,-28.320,-24.902,-30.273,-98.633
1688757390.857,-21.973,-26.367,-27.344,-19.043,-17.090
1688757390.861,-20.996,-28.809,-32.227,-20.996,-3.418
1688757390.864,-22.461,-28.809,-30.273,-24.902,36.133
1688757390.868,-27.344,-27.344,-20.508,-22.949,176.758
1688757390.872,-36.621,-27.832,-30.273,-28.809,57.617
1688757390.876,-44.922,-28.320,-38.574,-41.016,-189.941
1688757390.880,-39.062,-31.250,-29.785,-34.668,-74.707
1688757390.881,-34.668,-39.551,-32.227,-32.227,44.922
1688757390.885,-36.621,-41.504,-38.086,-42.969,-122.559
1688757390.889,-29.297,-29.785,-37.109,-44.434,-170.410
1688757390.893,-30.762,-19.531,-39.551,-45.410,12.695
1688757390.897,-33.203,-26.855,-42.969,-37.109,122.559
1688757390.901,-29.297,-33.691,-38.086,-34.180,41.504
1688757390.905,-28.320,-28.320,-35.645,-41.992,-81.055
1688757390.908,-34.180,-28.809,-34.668,-40.527,-31.738
1688757390.912,-42.969,-32.227,-33.691,-34.668,199.219
1688757390.916,-38.574,-27.344,-37.109,-31.738,-17.090
1688757390.920,-32.227,-24.414,-38.086,-31.250,-170.898
1688757390.924,-31.738,-29.297,-39.551,-36.133,-104.980
1688757390.928,-33.691,-31.250,-40.527,-36.621,-139.648
1688757390.932,-30.273,-27.832,-42.969,-27.344,-133.301
1688757390.936,-23.926,-27.832,-46.387,-23.926,-77.637
1688757390.940,-20.508,-27.832,-39.062,-24.902,39.062
1688757390.944,-23.926,-26.855,-37.109,-36.621,-20.996
1688757390.948,-30.762,-30.762,-37.109,-40.527,-98.145
1688757390.952,-32.715,-24.902,-29.297,-32.715,25.391
1688757390.955,-28.320,-17.578,-21.484,-27.344,98.145
1688757390.959,-21.484,-20.020,-14.160,-24.414,-35.645
1688757390.963,-17.578,-16.602,-13.184,-24.414,-185.059
1688757390.967,-17.090,-15.625,-15.625,-26.855,-164.551
1688757390.971,-23.438,-18.555,-14.648,-22.949,139.648
1688757390.971,-29.297,-22.461,-21.973,-26.367,71.289
1688757390.975,-29.297,-23.438,-26.855,-35.156,-167.969
1688757390.979,-27.832,-18.066,-19.531,-39.062,-79.590
1688757390.983,-30.762,-16.602,-14.160,-38.086,12.695
1688757390.987,-33.203,-20.020,-17.090,-32.227,-13.184
1688757390.991,-32.715,-20.508,-19.531,-28.320,-9.766
1688757390.995,-22.949,-18.555,-20.996,-17.578,2.930
1688757390.998,-18.066,-27.832,-23.438,-13.184,340.820
1688757391.002,-34.180,-35.156,-28.320,-26.367,237.793
1688757391.006,-44.434,-30.762,-28.809,-28.320,-204.102
1688757391.010,-39.551,-34.180,-30.273,-21.973,-172.363
1688757391.014,-36.133,-34.180,-35.156,-23.438,-66.406
1688757391.017,-36.133,-30.273,-35.645,-33.203,-187.988
1688757391.021,-35.156,-28.809,-32.227,-40.527,-217.285
1688757391.025,-36.621,-26.367,-28.320,-40.039,-104.004
1688757391.029,-36.621,-25.879,-31.738,-31.738,-117.188
1688757391.033,-32.227,-24.414,-29.785,-28.809,-167.480
1688757391.037,-19.043,-18.555,-22.949,-24.414,-98.145
1688757391.041,-22.461,-20.996,-28.320,-24.414,177.246
1688757391.044,-33.691,-31.738,-34.668,-32.715,109.375
1688757391.048,-28.320,-32.715,-27.832,-27.832,-166.504
1688757391.052,-15.137,-26.855,-24.902,-20.020,-101.562
1688757391.056,-14.160,-22.949,-27.832,-25.391,154.297
1688757391.060,-30.762,-23.926,-30.762,-43.945,45.898
1688757391.061,-33.203,-26.367,-31.738,-42.969,-161.621
1688757391.065,-27.344,-32.227,-27.344,-32.227,-143.555
1688757391.069,-35.645,-38.086,-27.832,-35.645,-33.203
1688757391.073,-42.480,-39.062,-26.855,-40.039,70.801
1688757391.077,-46.387,-35.156,-23.438,-52.734,-97.168
1688757391.081,-51.270,-30.273,-21.484,-57.129,-6.348
1688757391.085,-49.316,-28.809,-19.531,-47.363,486.328
1688757391.088,-45.410,-28.809,-23.438,-43.457,243.652
1688757391.092,-38.086,-27.344,-24.902,-41.504,-127.441
1688757391.096,-30.762,-22.461,-20.996,-41.016,-28.320
1688757391.100,-31.738,-19.531,-28.809,-44.434,-79.590
1688757391.104,-33.691,-20.996,-30.762,-43.457,-178.711
1688757391.108,-35.645,-23.438,-27.832,-38.574,-137.695
1688757391.112,-37.598,-18.066,-27.344,-30.762,-44.922
1688757391.116,-39.062,-14.648,-26.855,-35.645,-106.445
1688757391.120,-40.527,-17.090,-31.738,-55.176,-184.082
1688757391.124,-40.527,-21.484,-34.668,-58.105,-133.301
1688757391.128,-28.809,-17.578,-24.414,-37.598,99.121
1688757391.132,-20.996,-15.625,-24.902,-31.250,73.730
1688757391.135,-30.273,-24.902,-35.645,-41.992,-207.520
1688757391.139,-33.203,-27.344,-40.039,-44.922,-185.059
1688757391.143,-24.902,-26.367,-33.203,-20.996,131.836
1688757391.147,-24.414,-28.320,-30.273,-12.695,56.152
1688757391.151,-25.879,-28.320,-31.250,-19.043,-118.652
1688757391.166,-19.043,-27.344,-29.785,-16.113,-14.648
1688757391.170,-27.832,-28.809,-30.273,-21.484,25.391
1688757391.174,-30.762,-30.762,-32.715,-29.297,-64.453
1688757391.178,-30.273,-34.180,-31.250,-28.809,-105.957
1688757391.182,-36.621,-35.156,-29.785,-28.809,-17.090
1688757391.186,-37.598,-38.086,-29.297,-35.645,219.238
1688757391.190,-35.156,-36.133,-24.902,-45.410,18.555
1688757391.193,-37.109,-35.156,-25.879,-43.945,-193.848
1688757391.197,-37.598,-33.203,-24.414,-40.527,-105.957
1688757391.201,-30.273,-27.344,-19.531,-33.203,-59.570
1688757391.205,-25.879,-24.414,-18.066,-29.297,-133.789
1688757391.209,-28.809,-24.414,-15.625,-40.527,-205.566
1688757391.212,-28.320,-18.555,-9.766,-34.180,-62.500
1688757391.216,-28.320,-8.301,-9.766,-23.438,75.195
1688757391.220,-29.785,-9.277,-19.043,-26.367,-104.980
1688757391.224,-22.949,-11.230,-21.973,-33.203,-133.789
1688757391.228,-29.785,-13.184,-20.996,-34.668,82.031
1688757391.232,-39.062,-23.438,-30.762,-36.133,57.617
1688757391.236,-29.297,-23.926,-33.691,-35.645,-69.336
1688757391.239,-25.879,-21.973,-30.762,-27.832,-41.016
1688757391.243,-21.484,-24.414,-28.809,-23.438,191.406
1688757391.247,-20.020,-22.949,-27.344,-32.227,105.469
1688757391.251,-22.461,-26.367,-29.785,-38.574,-194.336
1688757391.255,-10.742,-26.855,-26.855,-35.645,-129.883
1688757391.256,-0.488,-22.461,-22.949,-23.926,-52.246
1688757391.260,-7.324,-17.090,-24.414,-18.066,-85.449
1688757391.264,-17.090,-15.625,-22.949,-26.855,-150.879
1688757391.268,-29.297,-21.973,-22.461,-34.668,-91.797
1688757391.272,-46.875,-25.879,-28.320,-36.621,155.762
1688757391.276,-45.410,-26.367,-32.227,-35.156,129.883
1688757391.280,-38.574,-25.391,-33.691,-38.574,-95.215
1688757391.283,-40.039,-25.879,-35.645,-43.945,-92.773
1688757391.287,-39.062,-27.344,-31.738,-43.457,221.680
1688757391.291,-43.457,-27.832,-30.273,-44.434,7.324
1688757391.295,-41.016,-27.344,-31.738,-45.410,-221.680
1688757391.299,-42.480,-31.250,-40.039,-44.434,-28.809
1688757391.302,-45.410,-32.715,-42.480,-46.387,-43.945
1688757391.306,-46.875,-28.809,-38.086,-54.688,-178.223
1688757391.310,-46.875,-32.227,-33.203,-51.758,-187.500
1688757391.314,-37.109,-34.668,-31.738,-33.203,-83.008
1688757391.318,-28.320,-31.250,-31.738,-28.320,-65.430
1688757391.322,-36.133,-33.691,-32.715,-41.992,-40.039
1688757391.326,-39.062,-37.598,-35.645,-51.758,-0.488
1688757391.329,-40.039,-38.086,-31.738,-41.504,273.926
1688757391.333,-37.109,-33.203,-27.344,-28.320,292.969
1688757391.337,-24.902,-30.273,-31.250,-27.832,-99.121
1688757391.341,-25.391,-32.715,-38.574,-31.738,-176.270
1688757391.345,-25.879,-24.414,-30.762,-31.250,-124.512
1688757391.346,-15.625,-18.066,-24.902,-23.926,-180.664
1688757391.350,-11.719,-28.320,-31.250,-22.461,-211.914
1688757391.354,-7.812,-25.879,-27.344,-13.184,-70.312
1688757391.358,-3.418,-22.461,-16.113,-11.719,67.383
1688757391.362,-14.648,-27.344,-20.508,-28.809,-60.547
1688757391.366,-29.785,-29.785,-24.902,-31.738,-110.352
1688757391.370,-33.203,-30.762,-19.043,-28.809,74.707
1688757391.373,-39.062,-29.297,-20.508,-25.879,365.723
1688757391.377,-42.969,-28.320,-23.926,-34.180,69.824
1688757391.381,-36.133,-30.762,-27.344,-38.574,-174.316
1688757391.385,-38.574,-31.738,-26.855,-29.785,10.254
1688757391.389,-44.922,-26.367,-26.367,-21.484,-24.902
1688757391.393,-32.227,-23.438,-27.344,-23.438,-179.199
1688757391.397,-17.090,-25.879,-24.902,-27.344,-156.738
1688757391.401,-24.902,-28.809,-20.020,-26.367,-41.992
1688757391.405,-33.691,-27.344,-16.602,-31.250,-112.305
1688757391.409,-30.273,-25.391,-13.672,-31.250,-201.172
1688757391.413,-30.762,-26.367,-11.230,-22.461,-108.887
1688757391.417,-38.086,-28.809,-12.207,-25.879,268.066
1688757391.420,-43.945,-26.367,-16.113,-36.621,189.941
1688757391.424,-39.062,-23.926,-19.043,-38.574,-143.555
1688757391.428,-31.738,-20.996,-20.996,-20.996,-125.488
1688757391.432,-29.297,-21.973,-19.043,-9.766,-122.559
1688757391.436,-23.926,-27.832,-20.996,-9.766,-92.773
1688757391.437,-16.602,-30.762,-24.902,-20.508,-68.848
1688757391.441,-16.602,-27.832,-28.320,-37.109,-87.891
1688757391.445,-23.438,-32.715,-29.785,-30.273,8.789
1688757391.449,-25.879,-38.086,-32.227,-22.949,-6.836
1688757391.453,-25.879,-32.715,-34.180,-31.250,-104.004
1688757391.457,-23.926,-32.715,-27.832,-34.180,15.625
1688757391.461,-27.344,-33.691,-26.855,-32.715,433.594
1688757391.464,-18.066,-22.949,-45.410,-41.504,206.543
1688757391.468,11.230,-20.996,-48.340,-23.926,-182.617
1688757391.472,-0.488,-36.621,-23.926,-12.207,-130.371
1688757391.476,-33.203,-44.922,-15.137,-37.109,-149.414
1688757391.480,-36.621,-42.480,-21.484,-43.457,-209.961
1688757391.497,-28.809,-38.574,-26.367,-29.297,-204.102
1688757391.501,-29.785,-36.133,-32.715,-13.672,-114.746
1688757391.505,-30.762,-38.086,-25.391,-9.766,-29.785
1688757391.509,-25.879,-42.480,-24.414,-15.137,-4.395
1688757391.513,-25.391,-42.480,-28.320,-12.695,-104.004
1688757391.517,-24.902,-47.363,-20.996,-6.836,217.285
1688757391.521,-26.855,-49.316,-18.555,-5.859,318.359
1688757391.524,-27.832,-45.410,-20.020,-1.465,-110.840
1688757391.528,-24.902,-44.922,-18.555,-4.395,-169.922
1688757391.532,-34.180,-41.992,-19.043,-11.230,-7.324
1688757391.536,-36.133,-42.480,-23.438,-13.672,-146.973
1688757391.540,-30.762,-44.922,-27.832,-8.301,-196.777
1688757391.542,-22.461,-39.551,-30.762,6.836,-94.727
1688757391.546,-21.973,-34.180,-28.809,-1.465,-83.496
1688757391.550,-34.180,-33.691,-29.297,-19.531,-66.406
1688757391.554,-34.668,-28.320,-29.785,-23.926,-66.406
1688757391.558,-28.320,-24.902,-23.926,-20.020,12.207
1688757391.562,-27.344,-27.832,-19.043,-11.230,301.758
1688757391.566,-23.438,-29.785,-17.578,-17.578,193.848
1688757391.569,-27.832,-32.227,-20.020,-28.809,-75.684
1688757391.573,-28.809,-32.227,-20.020,-23.438,-17.578
1688757391.577,-26.855,-33.203,-18.555,-16.113,279.297
1688757391.581,-31.738,-31.250,-23.438,-20.020,18.066
1688757391.585,-26.855,-38.086,-27.344,-23.438,-202.148
1688757391.587,-17.090,-39.062,-24.902,-24.902,-52.246
1688757391.591,-39.062,-28.809,-22.949,-31.738,-92.773
1688757391.595,-42.969,-30.273,-23.438,-27.344,-183.105
1688757391.599,-20.996,-30.273,-22.949,-17.578,-145.996
1688757391.603,-25.391,-26.855,-25.879,-16.113,-58.105
1688757391.607,-25.879,-27.832,-26.855,-19.043,-13.184
1688757391.611,-19.043,-33.691,-22.461,-22.949,-41.504
1688757391.614,-17.578,-37.109,-21.484,-19.043,-110.352
1688757391.618,-14.648,-33.203,-16.602,-0.977,222.656
1688757391.622,-20.508,-34.180,-15.625,-4.883,311.523
1688757391.626,-26.855,-38.086,-20.020,-25.879,-119.629
1688757391.630,-27.832,-32.715,-27.832,-20.508,-188.477
1688757391.631,-35.156,-29.297,-25.879,-17.090,-112.793
1688757391.635,-26.855,-25.391,-20.996,-13.184,-135.742
1688757391.639,-11.719,-17.578,-20.508,-6.836,-182.617
1688757391.643,-13.672,-15.625,-24.902,-22.949,-42.480
1688757391.647,-20.020,-10.742,-28.320,-32.227,108.887
1688757391.651,-21.973,-11.230,-23.926,-28.809,9.766
1688757391.655,-21.973,-18.066,-21.484,-24.902,-5.371
1688757391.658,-15.137,-19.043,-22.949,-15.625,49.316
1688757391.662,-18.555,-24.414,-21.484,-19.531,247.559
1688757391.666,-30.762,-28.809,-17.090,-32.715,-25.391
1688757391.670,-34.180,-24.414,-19.531,-22.949,-177.734
1688757391.674,-27.832,-19.043,-18.555,-14.648,-37.109
1688757391.679,-32.227,-21.973,-19.043,-13.184,-66.406
1688757391.683,-26.367,-18.066,-20.996,-15.625,-167.969
1688757391.687,-21.973,-18.066,-21.973,-22.461,-161.621
1688757391.691,-30.273,-22.461,-23.438,-23.438,-51.758
1688757391.695,-34.668,-22.461,-28.809,-26.855,-51.270
1688757391.699,-43.945,-27.344,-35.156,-20.996,-38.574
1688757391.703,-44.434,-29.297,-32.715,-17.578,25.391
1688757391.706,-45.898,-30.273,-34.668,-29.785,181.152
1688757391.710,-54.199,-31.738,-39.551,-38.574,108.398
1688757391.714,-48.340,-29.785,-36.133,-38.574,-155.273
1688757391.718,-41.992,-30.762,-37.109,-38.086,-158.203
1688757391.722,-28.809,-29.785,-36.621,-40.039,-98.633
1688757391.722,-25.391,-32.227,-36.621,-39.551,-115.723
1688757391.726,-30.273,-32.227,-35.156,-39.062,-200.195
1688757391.730,-24.414,-24.902,-29.785,-32.715,-110.840
1688757391.734,-19.531,-24.902,-28.320,-22.949,265.625
1688757391.738,-22.949,-27.832,-32.715,-28.320,22.949
1688757391.742,-24.414,-22.949,-29.785,-41.992,-181.641
1688757391.746,-25.391,-16.113,-23.438,-38.086,77.637
1688757391.749,-25.391,-16.602,-19.043,-20.996,289.062
1688757391.753,-20.020,-19.531,-20.020,-19.531,61.523
1688757391.757,-11.230,-22.461,-21.973,-20.508,-122.070
1688757391.761,0.000,-20.508,-22.949,-15.625,-107.910
1688757391.765,3.418,-19.043,-23.926,-12.207,-158.691
1688757391.767,-2.441,-13.184,-15.137,-9.766,-167.969
1688757391.771,-3.418,-9.766,-13.672,-13.672,-145.508
1688757391.775,3.418,-12.207,-20.996,-15.625,-56.152
1688757391.779,-4.883,-18.066,-21.973,-26.855,-21.973
1688757391.783,-21.484,-22.461,-20.996,-43.457,-97.168
1688757391.787,-27.832,-25.391,-22.461,-38.086,4.395
1688757391.791,-17.090,-22.949,-20.508,-23.926,389.160
1688757391.794,-15.137,-21.973,-23.438,-28.809,375.488
1688757391.798,-30.273,-20.020,-30.762,-41.504,-105.957
1688757391.802,-39.551,-17.090,-30.762,-46.875,-167.480
1688757391.806,-35.156,-21.484,-31.250,-37.109,-86.426
1688757391.810,-22.949,-21.973,-19.531,-10.254,-151.367
1688757391.811,-14.648,-13.672,-19.043,-3.418,-162.109
1688757391.815,-33.691,-11.230,-34.180,-36.621,-123.047
1688757391.819,-44.922,-20.996,-41.504,-50.781,-70.801
1688757391.823,-35.156,-30.273,-38.574,-42.480,-9.766
1688757391.827,-30.273,-28.809,-29.297,-37.109,-84.473
1688757391.831,-20.996,-27.344,-27.344,-22.461,39.551
1688757391.835,-15.625,-30.762,-28.809,-8.301,463.379
1688757391.838,-23.438,-32.715,-32.227,-22.461,287.598
1688757391.842,-30.273,-40.039,-37.109,-32.227,-178.711
1688757391.846,-32.715,-43.457,-30.762,-31.738,-158.691
1688757391.850,-29.297,-41.992,-24.902,-26.367,-70.312
1688757391.854,-20.508,-41.504,-23.926,-21.484,-179.199
1688757391.858,-24.902,-37.109,-25.391,-31.738,-196.777
1688757391.862,-33.691,-36.133,-21.973,-29.297,-93.262
1688757391.866,-30.762,-31.738,-22.461,-17.090,-91.797
1688757391.870,-27.832,-28.320,-34.180,-15.137,-160.645
1688757391.874,-27.344,-25.391,-32.227,-12.695,-103.516
1688757391.878,-30.273,-29.297,-27.344,-20.020,107.422
1688757391.882,-38.574,-31.250,-25.879,-31.738,84.961
1688757391.885,-37.109,-23.438,-21.484,-26.855,-75.195
1688757391.889,-30.273,-22.461,-23.438,-18.555,-20.020
1688757391.893,-30.762,-27.832,-21.973,-19.043,46.875
1688757391.897,-39.062,-32.715,-20.020,-25.391,-82.520
1688757391.901,-40.527,-30.273,-24.414,-33.203,-103.027
1688757391.916,-37.598,-27.832,-29.297,-42.969,-101.074
1688757391.920,-36.621,-31.250,-28.320,-41.504,161.621
1688757391.924,-39.551,-32.227,-32.227,-39.551,98.145
1688757391.928,-39.551,-34.180,-32.227,-39.551,-188.477
1688757391.932,-37.109,-32.715,-32.715,-37.598,-79.590
1688757391.936,-34.180,-28.320,-35.156,-25.391,162.109
1688757391.940,-29.785,-23.438,-33.203,-21.484,16.113
1688757391.943,-25.879,-23.438,-32.715,-22.461,-172.363
1688757391.947,-19.043,-25.879,-31.250,-21.973,-50.781
1688757391.951,-17.578,-23.438,-29.297,-28.809,71.777
1688757391.955,-27.344,-23.438,-28.809,-29.297,-112.793
1688757391.959,-28.809,-27.832,-29.785,-24.414,-206.543
1688757391.961,-22.461,-32.227,-29.297,-23.438,-57.617
1688757391.965,-22.461,-31.738,-32.715,-28.320,-36.621
1688757391.969,-29.785,-31.250,-36.621,-29.297,-168.457
1688757391.973,-33.691,-31.738,-34.180,-29.297,-136.230
1688757391.977,-29.297,-28.320,-29.297,-27.344,-75.684
1688757391.981,-29.297,-23.438,-31.250,-26.855,53.223
1688757391.985,-15.625,-25.879,-30.273,-24.902,65.430
1688757391.988,-22.461,-24.902,-34.668,-32.227,-105.469
1688757391.992,-30.762,-21.484,-33.691,-35.156,134.277
1688757391.996,-25.391,-24.902,-24.902,-33.691,159.180
1688757392.000,-25.391,-24.414,-20.996,-35.645,-132.324
1688757392.004,-31.250,-17.090,-23.438,-42.969,-137.207
1688757392.006,-34.180,-17.578,-29.297,-51.270,-96.680
1688757392.010,-21.484,-26.855,-22.461,-27.344,-140.625
1688757392.014,-8.789,-29.785,-19.531,-8.789,-169.434
1688757392.018,-35.645,-16.602,-37.598,-36.621,-54.688
1688757392.022,-67.383,-11.230,-40.527,-71.289,243.164
1688757392.026,-60.547,-21.973,-28.809,-72.266,107.910
1688757392.030,-61.035,-24.414,-32.715,-68.359,-100.098
1688757392.033,-78.125,-16.113,-45.410,-87.402,-26.855
1688757392.037,-69.336,-8.301,-49.316,-87.402,199.219
1688757392.041,-54.199,-8.301,-47.363,-84.961,-2.930
1688757392.045,-64.453,-10.742,-44.434,-93.262,-222.168
1688757392.049,-72.266,-16.602,-42.969,-89.844,-133.301
1688757392.052,-63.477,-20.020,-45.898,-83.984,-136.230
1688757392.056,-59.570,-23.926,-47.363,-79.102,-188.965
1688757392.060,-52.246,-26.367,-43.945,-71.289,-126.953
1688757392.064,-43.945,-23.438,-41.016,-61.035,64.453
1688757392.068,-47.852,-21.484,-40.527,-56.641,1.953
1688757392.072,-47.852,-21.973,-34.180,-50.781,-107.910
1688757392.076,-51.758,-21.973,-32.227,-46.875,-60.059
1688757392.079,-45.898,-18.066,-29.785,-35.645,219.238
1688757392.083,-39.551,-20.020,-32.715,-39.062,234.375
1688757392.087,-45.898,-19.043,-36.621,-53.711,-113.281
1688757392.091,-50.293,-19.043,-32.715,-46.387,-124.023
1688757392.095,-43.457,-27.832,-31.250,-37.109,-42.480
1688757392.096,-37.598,-26.855,-37.109,-37.598,-89.844
1688757392.100,-44.922,-24.414,-40.527,-58.105,-145.508
1688757392.104,-46.387,-25.879,-31.250,-65.918,-122.070
1688757392.108,-41.992,-30.762,-25.879,-49.805,-17.578
1688757392.112,-40.039,-26.855,-23.438,-45.898,-69.824
1688757392.116,-31.738,-24.902,-21.973,-42.969,-145.020
1688757392.120,-30.762,-27.832,-20.020,-40.039,36.133
1688757392.123,-35.156,-27.832,-19.531,-39.062,443.848
1688757392.127,-41.016,-29.785,-23.926,-46.875,213.867
1688757392.131,-35.156,-28.809,-22.949,-48.340,-198.242
1688757392.135,-27.832,-25.391,-21.484,-40.527,-92.285
1688757392.139,-30.273,-24.902,-21.484,-44.434,-56.641
1688757392.142,-27.832,-22.461,-14.648,-39.551,-165.039
1688757392.146,-28.809,-24.902,-14.160,-36.133,-180.176
1688757392.150,-24.902,-28.809,-17.578,-31.250,-65.918
1688757392.154,-23.926,-30.762,-22.461,-25.879,-62.988
1688757392.158,-19.043,-28.809,-25.391,-23.438,-126.953
1688757392.162,-11.230,-20.508,-16.113,-18.066,-70.312
1688757392.166,-20.508,-20.996,-14.160,-12.695,160.156
1688757392.169,-27.344,-25.879,-25.879,-13.184,118.652
1688757392.173,-28.320,-26.367,-31.250,-23.438,-53.711
1688757392.177,-20.996,-27.344,-35.156,-33.691,-13.184
1688757392.181,-18.555,-23.926,-33.691,-35.645,-7.812
1688757392.185,-27.832,-21.973,-31.738,-33.691,-149.902
1688757392.186,-27.832,-27.832,-34.668,-38.574,-175.781
1688757392.190,-12.207,-34.668,-20.996,-12.695,-140.137
1688757392.194,0.977,-33.203,-10.254,12.207,-92.773
1688757392.198,-35.156,-23.438,-29.785,-34.668,-59.082
1688757392.202,-78.125,-27.344,-47.852,-79.102,-177.246
1688757392.206,-67.871,-23.926,-47.852,-64.453,34.668
1688757392.210,-53.711,-16.113,-43.457,-49.805,501.953
1688757392.213,-56.152,-21.973,-43.945,-60.547,235.840
1688757392.217,-63.477,-18.555,-49.316,-75.684,-166.016
1688757392.221,-62.500,-20.996,-48.828,-77.637,-122.070
1688757392.225,-59.082,-30.762,-43.945,-73.730,-66.406
1688757392.229,-64.941,-28.809,-42.969,-69.336,-148.438
1688757392.234,-57.617,-30.762,-41.992,-58.594,-218.262
1688757392.238,-43.945,-32.227,-36.133,-47.363,-65.430
1688757392.242,-45.410,-25.391,-35.645,-41.016,-38.086
1688757392.246,-47.852,-29.297,-36.133,-41.504,-162.598
1688757392.250,-45.410,-35.156,-38.086,-41.992,-102.539
1688757392.254,-40.527,-32.227,-39.551,-39.062,89.844
1688757392.258,-37.598,-30.762,-39.551,-40.527,94.727
1688757392.261,-35.156,-34.180,-37.598,-43.457,-124.512
1688757392.265,-32.227,-32.227,-37.109,-39.062,-176.758
1688757392.269,-25.879,-27.832,-35.645,-30.273,163.086
1688757392.273,-18.066,-29.785,-33.203,-27.344,101.562
1688757392.277,-15.625,-31.738,-32.227,-32.227,-175.293
1688757392.291,-24.902,-30.762,-34.668,-34.180,-128.906
1688757392.295,-24.902,-33.203,-33.203,-24.902,8.301
1688757392.299,-19.531,-34.180,-33.203,-19.531,-44.434
1688757392.303,-16.113,-30.273,-29.785,-21.484,-125.977
1688757392.307,-18.066,-32.715,-25.391,-27.832,-21.973
1688757392.311,-35.156,-39.551,-26.855,-26.367,403.809
1688757392.315,-40.527,-35.645,-28.809,-27.344,385.254
1688757392.318,-22.461,-29.297,-27.344,-20.020,-66.895
1688757392.322,-13.184,-31.250,-27.832,-14.648,-113.770
1688757392.326,-21.973,-35.156,-30.762,-25.391,-84.961
1688757392.330,-30.762,-41.504,-34.180,-35.156,-186.523
1688757392.334,-29.785,-39.551,-32.227,-36.621,-152.344
1688757392.336,-28.320,-32.715,-31.250,-28.809,-97.168
1688757392.340,-32.715,-35.645,-29.785,-25.879,-109.863
1688757392.344,-25.879,-30.273,-24.414,-25.391,-165.527
1688757392.348,-27.832,-29.297,-27.832,-34.668,-119.629
1688757392.352,-21.484,-32.227,-18.555,-22.949,69.336
1688757392.356,-9.277,-25.879,-11.719,-1.953,95.703
1688757392.360,-14.160,-24.414,-29.785,-12.207,42.969
1688757392.363,-17.090,-22.461,-31.738,-23.926,-69.336
1688757392.367,-31.738,-32.715,-40.527,-34.668,73.730
1688757392.371,-48.828,-41.016,-51.758,-40.039,32.227
1688757392.375,-36.621,-27.832,-30.273,-23.926,-177.734
1688757392.379,-29.785,-29.297,-24.414,-21.484,-115.234
1688757392.381,-27.832,-33.203,-30.273,-25.879,-70.801
1688757392.385,-27.832,-28.320,-39.062,-33.203,-105.957
1688757392.389,-33.203,-33.203,-48.340,-37.598,-179.199
1688757392.393,-33.691,-37.598,-36.133,-34.668,-65.430
1688757392.397,-21.484,-26.367,-20.020,-20.996,115.234
1688757392.401,-8.789,-19.531,-20.508,-13.184,44.922
1688757392.405,-19.043,-20.508,-28.320,-25.391,-27.832
1688757392.408,-26.855,-18.066,-24.414,-29.785,94.727
1688757392.412,-29.297,-29.297,-22.949,-21.484,375.977
1688757392.416,-33.691,-38.574,-25.879,-19.043,74.219
1688757392.420,-32.715,-30.762,-26.367,-19.531,-195.801
1688757392.424,-36.133,-27.832,-30.762,-20.996,-160.645
1688757392.427,-41.016,-31.250,-33.203,-34.180,-195.312
1688757392.431,-37.598,-29.297,-36.133,-28.809,-167.480
1688757392.435,-24.414,-29.297,-38.086,-9.277,-117.188
1688757392.439,-34.668,-37.598,-35.156,-21.973,-56.641
1688757392.443,-51.270,-45.410,-32.227,-46.387,-95.703
1688757392.447,-47.852,-45.898,-41.016,-43.457,-62.988
1688757392.451,-58.105,-44.434,-41.992,-47.852,-9.277
1688757392.454,-68.848,-44.922,-38.574,-54.688,162.109
1688757392.458,-57.617,-46.875,-42.969,-53.711,175.781
1688757392.462,-53.711,-42.480,-42.969,-51.758,-100.586
1688757392.466,-52.734,-40.039,-43.457,-46.875,-181.152
1688757392.470,-48.828,-43.945,-46.387,-43.945,22.461
1688757392.471,-41.504,-41.504,-43.945,-43.457,-26.855
1688757392.475,-32.715,-42.969,-40.527,-44.922,-161.621
1688757392.479,-41.504,-44.922,-40.039,-48.828,-71.777
1688757392.483,-41.504,-41.992,-36.621,-48.340,-25.879
1688757392.487,-39.062,-41.016,-31.738,-41.992,-112.793
1688757392.491,-35.156,-37.598,-30.273,-33.691,-86.914
1688757392.495,-33.691,-38.574,-38.574,-29.785,43.945
1688757392.498,-35.156,-40.039,-38.574,-26.855,220.703
1688757392.502,-34.668,-35.645,-30.273,-28.809,37.598
1688757392.506,-35.156,-35.156,-32.715,-23.926,-177.734
1688757392.510,-32.227,-34.180,-38.086,-19.043,-38.574
1688757392.514,-37.109,-36.621,-40.527,-25.391,212.891
1688757392.531,-30.273,-36.621,-41.992,-35.156,-14.160
1688757392.535,-33.203,-33.203,-39.062,-35.645,-195.312
1688757392.539,-39.551,-29.785,-36.621,-38.574,-26.367
1688757392.543,-32.227,-30.273,-38.086,-43.945,-51.758
1688757392.547,-32.715,-34.668,-37.598,-41.992,-180.664
1688757392.551,-41.016,-35.645,-34.668,-42.969,-38.086
1688757392.555,-39.062,-37.598,-28.320,-46.387,257.812
1688757392.558,-35.645,-38.086,-32.227,-44.434,155.273
1688757392.562,-36.621,-36.621,-42.480,-43.945,-188.477
1688757392.566,-34.180,-39.062,-36.621,-30.762,-152.832
1688757392.570,-31.250,-33.203,-33.691,-29.785,-33.203
1688757392.574,-32.715,-29.297,-31.738,-40.039,-134.766
1688757392.562,-34.668,-32.715,-33.203,-42.480,-195.312
1688757392.566,-44.922,-39.062,-40.527,-43.945,-93.262
1688757392.570,-48.828,-41.504,-33.691,-47.852,55.664
1688757392.574,-36.133,-34.180,-34.668,-50.781,53.223
1688757392.578,-39.551,-33.691,-46.387,-49.316,-102.539
1688757392.582,-43.457,-30.762,-45.898,-41.992,32.227
1688757392.586,-40.039,-25.879,-42.480,-36.133,399.902
1688757392.589,-36.133,-30.762,-38.086,-32.715,119.629
1688757392.593,-32.227,-34.180,-35.156,-27.344,-214.844
1688757392.597,-32.715,-34.668,-34.180,-34.180,-38.574
1688757392.601,-41.504,-36.133,-31.250,-37.109,253.906
1688757392.605,-49.316,-32.227,-27.344,-31.250,-16.602
1688757392.608,-39.551,-23.926,-23.438,-19.531,-159.180
1688757392.612,-26.855,-24.902,-25.391,-16.602,0.488
1688757392.616,-27.832,-26.855,-20.020,-28.809,-31.738
1688757392.620,-32.715,-22.949,-22.461,-30.273,-118.164
1688757392.624,-37.598,-27.832,-30.273,-32.715,-62.012
1688757392.628,-31.738,-27.344,-28.320,-27.832,245.605
1688757392.632,-20.508,-19.043,-31.738,-24.414,241.699
1688757392.635,-20.508,-26.367,-39.062,-37.109,-128.906
1688757392.639,-24.902,-33.203,-29.297,-41.504,-187.012
1688757392.643,-20.996,-25.879,-21.973,-32.227,-12.207
1688757392.647,-17.090,-24.414,-26.855,-24.414,-114.746
1688757392.651,-19.043,-27.832,-23.926,-20.020,-195.312
1688757392.666,-16.602,-25.391,-19.043,-25.391,-138.672
1688757392.670,-18.555,-21.484,-19.043,-32.715,-125.000
1688757392.674,-24.414,-20.508,-19.043,-32.715,-96.680
1688757392.678,-30.273,-21.973,-16.113,-26.367,-96.191
1688757392.682,-29.297,-20.020,-14.648,-23.438,15.625
1688757392.686,-37.598,-21.973,-19.531,-32.227,381.348
1688757392.690,-46.387,-26.855,-23.438,-44.434,200.195
1688757392.693,-41.992,-30.273,-28.809,-47.852,-42.480
1688757392.697,-34.180,-33.203,-28.809,-41.504,20.996
1688757392.701,-32.715,-31.250,-28.809,-42.969,28.320
1688757392.705,-31.738,-28.320,-32.227,-54.688,-129.883
1688757392.709,-26.367,-19.531,-28.320,-52.246,-238.281
1688757392.711,-31.738,-19.531,-26.367,-42.969,-90.332
1688757392.715,-39.551,-24.414,-34.180,-44.434,57.617
1688757392.719,-34.180,-27.344,-35.156,-46.387,-132.324
1688757392.723,-29.785,-26.855,-29.297,-38.086,-191.406
1688757392.727,-41.016,-27.344,-36.621,-43.945,-81.543
1688757392.731,-46.387,-26.855,-38.086,-46.875,-111.328
1688757392.735,-43.457,-14.648,-29.297,-38.086,-178.711
1688757392.738,-34.668,-6.836,-27.832,-26.367,-170.410
1688757392.742,-27.344,-18.555,-31.250,-19.531,115.234
1688757392.746,-31.250,-30.273,-37.109,-29.785,161.133
1688757392.750,-35.156,-29.785,-33.691,-39.062,-120.605
1688757392.754,-39.551,-25.391,-30.273,-31.250,-104.980
1688757392.756,-37.109,-20.996,-28.320,-18.555,0.977
1688757392.760,-31.250,-20.508,-26.367,-18.555,-79.590
1688757392.764,-31.738,-20.020,-26.367,-25.879,-164.062
1688757392.768,-35.156,-14.648,-26.855,-29.297,-62.012
1688757392.772,-42.969,-14.648,-23.926,-34.668,112.793
1688757392.776,-38.574,-14.648,-25.391,-37.109,18.066
1688757392.780,-33.203,-17.578,-34.180,-41.992,-43.945
1688757392.783,-33.691,-20.020,-31.738,-44.922,71.777
1688757392.787,-27.344,-19.043,-21.973,-43.457,208.496
1688757392.791,-30.273,-19.043,-25.391,-53.223,-22.949
1688757392.795,-9.277,-10.742,-36.621,-30.762,-186.035
1688757392.799,18.555,-10.742,-28.320,6.348,-74.707
1688757392.802,0.488,-17.090,-17.578,-9.277,-29.785
1688757392.806,-14.648,-12.695,-22.949,-17.578,-149.414
1688757392.810,-13.672,-14.648,-19.531,-8.789,-219.238
1688757392.814,-18.066,-20.996,-18.555,-5.371,0.488
1688757392.818,-5.859,-23.438,-23.438,14.160,47.852
1688757392.822,-3.418,-24.902,-19.043,14.648,-8.301
1688757392.826,-11.719,-28.320,-20.020,-3.418,16.602
1688757392.829,-20.996,-34.180,-13.672,1.465,157.715
1688757392.833,-21.973,-35.156,-11.719,1.953,159.180
1688757392.837,-22.461,-34.668,-20.020,-3.906,-107.910
1688757392.841,-21.973,-41.016,-10.742,0.000,-177.734
1688757392.845,-20.996,-37.598,-6.348,1.953,-115.723
1688757392.847,-23.926,-35.156,-15.625,2.930,-140.137
1688757392.851,-29.297,-41.992,-26.367,-6.348,-202.148
1688757392.855,-24.414,-42.969,-37.109,-15.137,7.812
1688757392.859,-17.578,-36.133,-36.133,-8.301,312.500
1688757392.863,-24.414,-32.715,-29.785,-11.230,33.691
1688757392.867,-26.367,-33.691,-27.344,-27.344,-140.625
1688757392.871,-25.879,-33.691,-25.879,-21.973,89.355
1688757392.874,-24.414,-35.156,-29.785,-7.324,377.930
1688757392.878,-20.996,-35.645,-32.227,-16.113,126.465
1688757392.882,-29.297,-35.156,-28.809,-35.645,-257.812
1688757392.886,-32.227,-35.156,-25.879,-36.133,-223.145
1688757392.890,-24.902,-36.133,-20.020,-24.902,-171.387
1688757392.892,-26.367,-37.598,-15.625,-15.625,-179.688
1688757392.896,-23.926,-34.180,-18.555,-15.625,-126.465
1688757392.900,-28.809,-31.250,-19.531,-24.414,11.719
1688757392.904,-39.062,-32.715,-18.066,-24.414,-23.926
1688757392.908,-25.879,-29.297,-19.043,-18.555,-70.312
1688757392.912,-19.531,-26.855,-18.066,-15.625,33.691
1688757392.916,-25.879,-28.809,-21.973,-10.742,365.723
1688757392.919,-15.625,-26.855,-24.902,-15.625,425.781
1688757392.923,-11.230,-21.484,-26.855,-25.879,-111.328
1688757392.927,-9.766,-21.973,-26.855,-22.949,-240.234
1688757392.931,-7.324,-26.855,-20.508,-14.160,-135.254
1688757392.935,-10.742,-28.320,-17.090,-9.277,-174.805
1688757392.937,-20.996,-20.508,-20.996,-14.648,-179.688
1688757392.941,-25.879,-20.020,-20.508,-19.531,-159.180
1688757392.945,-20.996,-26.855,-17.090,-13.184,-71.777
1688757392.949,-27.344,-24.902,-14.648,-10.254,13.672
1688757392.953,-27.344,-26.367,-17.578,-11.230,-61.523
1688757392.957,-34.180,-28.320,-26.855,-19.043,-9.766
1688757392.961,-35.156,-27.832,-26.855,-27.832,350.586
1688757392.964,-31.250,-26.367,-25.391,-30.273,247.070
1688757392.968,-41.992,-27.344,-28.320,-36.621,-118.652
1688757392.972,-42.480,-36.621,-32.227,-38.086,-98.633
1688757392.976,-39.551,-40.039,-34.668,-37.598,-46.387
1688757392.980,-37.598,-34.668,-32.715,-46.875,-210.449
1688757392.983,-39.062,-29.785,-33.691,-44.434,-236.328
1688757392.987,-31.738,-23.438,-31.250,-30.762,-148.926
1688757392.991,-27.344,-27.344,-32.227,-29.785,-106.445
1688757392.995,-35.645,-25.879,-35.156,-42.480,-129.395
1688757392.999,-37.109,-27.344,-36.621,-47.363,-166.016
1688757393.003,-40.039,-30.762,-41.016,-41.016,31.250
1688757393.007,-45.898,-30.762,-31.738,-38.086,98.633
1688757393.010,-55.664,-29.297,-24.902,-34.668,-78.125
1688757393.014,-53.711,-26.855,-26.367,-37.598,-102.051
1688757393.018,-46.387,-34.180,-26.855,-40.527,171.875
1688757393.022,-43.945,-40.527,-33.203,-47.852,111.816
1688757393.026,-44.434,-38.086,-33.203,-48.340,-138.672
1688757393.041,-45.898,-41.504,-31.738,-41.992,-127.441
1688757393.045,-47.363,-43.945,-36.621,-44.922,-88.867
1688757393.049,-39.551,-42.969,-41.016,-60.547,-65.918
1688757393.053,-44.922,-38.574,-40.039,-64.453,-53.223
1688757393.057,-41.016,-31.250,-36.621,-49.805,0.488
1688757393.061,-39.062,-22.949,-41.504,-34.180,352.539
1688757393.065,-20.020,-23.926,-37.598,-15.625,166.992
1688757393.068,-10.254,-33.691,-20.020,-20.996,-225.098
1688757393.072,-44.434,-31.738,-14.648,-54.199,-110.840
1688757393.076,-64.941,-27.832,-19.531,-61.035,131.836
1688757393.080,-61.523,-28.320,-16.113,-57.129,-3.906
1688757393.084,-36.621,-33.691,-13.184,-53.223,-133.789
1688757393.086,-43.457,-33.203,-14.648,-58.594,24.902
1688757393.090,-60.059,-30.762,-17.090,-72.266,0.977
1688757393.094,-69.336,-28.320,-16.602,-70.312,-166.504
1688757393.098,-75.195,-30.273,-17.578,-64.941,-165.527
1688757393.102,-33.203,-40.039,-20.020,-53.711,-26.855
1688757393.106,-39.062,-44.434,-25.391,-62.012,50.781
1688757393.110,-51.270,-37.109,-26.855,-60.059,-21.484
1688757393.113,-40.039,-33.203,-19.531,-48.340,-93.750
1688757393.117,-44.922,-31.250,-12.695,-38.086,123.535
1688757393.121,-49.805,-27.832,-22.461,-36.621,92.285
1688757393.125,-55.664,-26.367,-24.414,-42.480,-189.941
1688757393.129,-58.105,-24.902,-21.973,-44.922,-178.711
1688757393.132,-53.223,-23.438,-26.855,-39.551,-149.902
1688757393.136,-52.734,-19.043,-29.785,-30.273,-132.812
1688757393.140,-46.875,-20.020,-33.691,-25.391,-122.559
1688757393.144,-39.551,-23.438,-27.832,-20.020,50.293
1688757393.148,-49.805,-24.902,-26.855,-31.738,367.188
1688757393.152,-58.105,-24.414,-32.227,-44.922,218.262
1688757393.156,-48.828,-18.555,-29.785,-47.852,-32.227
1688757393.159,-43.457,-21.484,-31.250,-47.852,-29.297
1688757393.163,-45.410,-29.785,-28.320,-41.016,202.148
1688757393.167,-48.828,-29.785,-20.996,-48.828,-60.547
1688757393.171,-51.270,-19.043,-17.090,-49.316,-245.605
1688757393.175,-54.688,-20.020,-12.695,-32.227,-109.375
1688757393.177,-52.734,-29.785,-13.184,-30.273,-107.422
1688757393.181,-40.527,-25.879,-15.625,-34.180,-144.043
1688757393.185,-34.180,-23.926,-19.531,-39.551,-144.043
1688757393.189,-32.715,-25.391,-23.438,-41.992,-97.168
1688757393.193,-18.066,-25.391,-28.320,-39.062,-71.777
1688757393.197,-26.855,-22.949,-30.273,-32.227,-63.965
1688757393.201,-20.996,-14.160,-27.832,-32.715,-75.195
1688757393.204,-16.113,-10.742,-24.414,-29.785,209.961
1688757393.208,-34.180,-10.742,-24.902,-30.762,312.012
1688757393.212,-30.273,-13.672,-27.344,-37.109,-114.746
1688757393.216,-27.832,-16.602,-32.715,-32.227,-199.707
1688757393.220,-34.180,-13.672,-39.551,-22.461,-57.617
1688757393.221,-25.391,-18.066,-39.062,-19.531,-99.121
1688757393.225,-32.227,-23.438,-36.133,-27.344,-132.324
1688757393.229,-38.574,-24.902,-28.320,-22.949,-72.266
1688757393.233,-35.156,-29.785,-23.926,-19.043,10.254
1688757393.237,-25.391,-27.832,-29.785,-15.625,-75.195
1688757393.241,-19.531,-19.043,-30.762,-11.719,-99.609
1688757393.245,-20.996,-17.578,-16.602,-12.207,-0.488
1688757393.248,-24.902,-18.555,-10.742,2.930,344.727
1688757393.252,-31.738,-19.043,-18.555,5.371,304.688
1688757393.256,-24.414,-28.320,-25.391,-9.277,-94.238
1688757393.260,-23.438,-30.273,-26.367,-17.578,-118.164
1688757393.264,-29.785,-23.926,-26.855,-27.832,-124.512
1688757393.268,-29.785,-15.625,-28.320,-26.855,-199.219
1688757393.272,-32.715,-17.090,-24.414,-16.602,-151.367
1688757393.276,-38.574,-23.926,-24.902,-19.043,-39.551
1688757393.280,-46.387,-21.484,-28.320,-25.391,-74.219
1688757393.284,-38.086,-25.879,-24.902,-30.273,-191.895
1688757393.288,-35.156,-31.250,-22.949,-31.250,-112.305
1688757393.292,-35.645,-34.180,-25.879,-23.926,250.000
1688757393.295,-22.949,-29.785,-28.320,-20.020,226.074
1688757393.299,-24.414,-21.484,-29.785,-28.809,-186.523
1688757393.303,-36.621,-26.855,-32.227,-35.645,-210.449
1688757393.307,-37.109,-34.180,-34.668,-28.320,-32.227
1688757393.311,-42.480,-37.598,-36.133,-28.320,-85.938
1688757393.311,-42.480,-40.039,-36.621,-31.738,-157.227
1688757393.315,-28.320,-41.016,-33.203,-30.273,-92.285
1688757393.319,-33.203,-43.457,-43.457,-40.039,-27.344
1688757393.323,-35.645,-41.016,-54.199,-40.039,-61.035
1688757393.327,-28.809,-38.574,-41.504,-37.109,-166.504
1688757393.331,-21.973,-29.785,-31.738,-23.438,-43.457
1688757393.335,-0.977,-20.508,-34.180,13.672,454.590
1688757393.338,-11.719,-19.531,-33.691,1.953,255.371
1688757393.342,-53.223,-27.344,-31.250,-51.758,-204.590
1688757393.346,-65.918,-29.297,-28.809,-67.383,-184.570
1688757393.350,-53.223,-26.855,-33.691,-60.059,-125.000
1688757393.354,-50.293,-22.461,-40.039,-67.871,-118.164
1688757393.359,-70.312,-22.949,-37.109,-88.867,-53.223
1688757393.363,-88.379,-30.762,-31.250,-87.891,25.879
1688757393.367,-89.355,-32.227,-30.762,-75.195,9.766
1688757393.371,-80.078,-31.250,-30.273,-67.871,-99.121
1688757393.375,-69.824,-30.762,-25.879,-62.988,-107.910
1688757393.379,-60.059,-27.344,-23.926,-57.129,83.984
1688757393.383,-68.848,-28.809,-28.809,-62.012,71.777
1688757393.386,-65.918,-34.668,-22.949,-65.430,-101.562
1688757393.390,-46.387,-32.227,-12.207,-62.012,-108.398
1688757393.394,-41.504,-37.109,-21.484,-55.664,117.188
1688757393.398,-45.898,-39.062,-30.762,-58.105,66.406
1688757393.402,-46.875,-29.785,-30.762,-58.594,-125.977
1688757393.416,-42.480,-30.762,-29.297,-43.945,-117.188
1688757393.420,-33.691,-30.273,-25.391,-27.832,-79.102
1688757393.424,-30.762,-27.344,-25.879,-28.809,-56.641
1688757393.428,-25.391,-23.926,-20.508,-34.668,-82.520
1688757393.432,-24.414,-23.926,-19.531,-35.156,9.766
1688757393.436,-31.250,-29.297,-29.785,-29.785,427.734
1688757393.440,-40.039,-37.109,-34.180,-31.738,360.352
1688757393.443,-24.902,-34.668,-31.250,-39.551,-113.281
1688757393.447,-17.090,-30.273,-27.344,-35.645,-148.926
1688757393.451,-32.715,-34.668,-29.785,-37.598,-91.309
1688757393.455,-37.109,-34.668,-34.180,-38.086,-170.410
1688757393.459,-31.250,-30.762,-34.180,-32.227,-158.691
1688757393.461,-19.043,-24.414,-30.762,-25.879,-59.570
1688757393.465,-20.020,-21.484,-32.227,-28.320,-58.105
1688757393.469,-24.902,-25.879,-40.039,-38.086,-148.438
1688757393.473,-29.785,-29.297,-41.016,-33.203,-134.277
1688757393.477,-27.344,-26.367,-34.180,-21.484,44.922
1688757393.481,-19.043,-27.832,-31.250,-19.531,46.387
1688757393.485,-18.066,-31.738,-35.645,-27.832,-27.344
1688757393.488,-24.902,-29.785,-36.621,-37.109,-31.738
1688757393.492,-26.855,-24.902,-31.250,-30.762,195.312
1688757393.496,-23.438,-21.484,-28.320,-16.602,281.738
1688757393.500,-23.926,-26.367,-31.250,-24.414,-101.074
1688757393.504,-23.926,-21.973,-36.133,-33.691,-192.383
1688757393.506,-29.297,-21.484,-32.227,-30.762,-113.770
1688757393.510,-40.527,-27.832,-27.344,-31.250,-124.023
1688757393.514,-45.410,-31.250,-30.762,-45.410,-147.949
1688757393.518,-41.016,-27.832,-31.250,-46.875,-68.848
1688757393.522,-32.227,-26.855,-29.785,-44.922,80.078
1688757393.526,-32.227,-30.273,-31.250,-52.246,63.965
1688757393.530,-33.691,-27.344,-27.832,-46.875,-54.688
1688757393.533,-26.367,-22.949,-26.367,-37.598,-87.402
1688757393.537,-20.996,-17.090,-21.484,-20.996,299.805
1688757393.541,-23.438,-17.090,-20.508,-15.137,121.094
1688757393.545,-23.438,-18.555,-21.973,-26.855,-233.887
1688757393.549,-30.273,-13.672,-20.996,-31.738,-166.992
1688757393.552,-33.203,-11.719,-20.020,-29.785,-168.457
1688757393.556,-14.160,-11.230,-15.625,-25.391,-240.234
1688757393.560,-11.719,-13.184,-17.090,-20.020,-184.570
1688757393.564,-23.926,-20.508,-20.996,-27.344,-77.148
1688757393.568,-36.621,-26.367,-21.973,-40.039,-60.547
1688757393.572,-41.016,-23.438,-25.391,-37.598,-13.672
1688757393.576,-41.992,-24.414,-31.738,-38.574,-21.973
1688757393.579,-35.645,-31.250,-35.645,-44.922,154.785
1688757393.583,-34.668,-33.203,-40.039,-44.434,130.371
1688757393.587,-37.598,-26.367,-38.574,-40.039,-150.391
1688757393.591,-33.691,-21.484,-23.438,-30.273,-57.617
1688757393.595,-32.227,-19.043,-22.461,-26.855,155.273
1688757393.611,-35.156,-20.996,-30.273,-33.203,-29.785
1688757393.615,-31.250,-24.414,-30.762,-36.133,-201.660
1688757393.619,-37.598,-28.809,-35.156,-37.109,-129.883
1688757393.623,-52.246,-28.809,-36.133,-44.922,-49.805
1688757393.627,-51.270,-27.344,-35.156,-53.711,-38.086
1688757393.631,-38.574,-26.855,-27.832,-47.363,-39.062
1688757393.635,-34.180,-26.855,-23.926,-41.504,16.602
1688757393.638,-32.227,-26.855,-26.367,-37.598,249.512
1688757393.642,-31.250,-23.438,-22.461,-34.668,58.594
1688757393.646,-28.809,-18.555,-18.066,-32.227,-196.289
1688757393.650,-30.273,-14.160,-21.973,-31.250,-70.312
1688757393.654,-33.691,-16.602,-21.484,-34.668,-39.551
1688757393.644,-35.156,-18.066,-20.508,-29.785,-112.305
1688757393.648,-35.645,-21.484,-23.438,-23.438,-132.812
1688757393.652,-29.297,-20.508,-24.902,-26.367,-53.711
1688757393.656,-29.785,-19.043,-28.809,-32.715,-61.035
1688757393.660,-29.297,-21.973,-26.855,-34.180,-160.645
1688757393.664,-30.762,-21.484,-17.090,-27.832,-70.801
1688757393.668,-36.621,-16.602,-15.137,-30.273,88.867
1688757393.671,-36.133,-17.090,-20.996,-27.832,-2.930
1688757393.675,-35.645,-21.484,-23.438,-24.414,-155.273
1688757393.679,-30.762,-24.414,-24.902,-27.344,-127.930
1688757393.683,-33.691,-26.367,-24.902,-22.461,135.254
1688757393.687,-38.574,-20.508,-23.438,-29.297,60.547
1688757393.687,-30.762,-20.996,-17.578,-32.227,-175.781
1688757393.691,-23.926,-28.320,-22.949,-33.203,-119.141
1688757393.695,-22.461,-25.879,-28.809,-36.621,-43.945
1688757393.699,-24.414,-19.043,-24.902,-35.156,-12.207
1688757393.703,-31.250,-16.602,-30.762,-32.227,-11.719
1688757393.707,-36.621,-21.484,-38.086,-40.039,6.836
1688757393.711,-34.668,-29.785,-30.762,-35.156,381.836
1688757393.714,-27.344,-36.621,-27.832,-26.855,401.855
1688757393.718,-27.832,-35.156,-29.297,-35.645,-132.324
1688757393.722,-38.574,-31.738,-29.785,-38.574,-234.863
1688757393.726,-36.621,-30.273,-30.762,-36.133,-167.969
1688757393.730,-28.320,-25.391,-32.715,-33.691,-194.336
1688757393.732,-25.879,-19.043,-26.367,-33.203,-147.949
1688757393.736,-22.461,-14.160,-20.508,-35.156,-12.695
1688757393.740,-21.973,-16.113,-24.902,-40.039,-22.949
1688757393.744,-30.273,-22.461,-27.832,-49.805,-162.598
1688757393.748,-29.785,-26.367,-26.855,-34.180,-95.215
1688757393.752,-23.926,-27.832,-28.809,-18.555,157.227
1688757393.756,-28.320,-27.344,-31.738,-34.668,120.605
1688757393.759,-23.438,-25.879,-31.250,-39.551,-51.758
1688757393.763,-18.066,-19.043,-32.715,-35.156,-128.906
1688757393.767,-26.367,-23.926,-36.133,-30.762,153.320
1688757393.771,-33.691,-31.738,-41.016,-32.227,218.262
1688757393.775,-25.879,-26.855,-41.504,-34.668,-101.562
1688757393.792,-26.855,-26.367,-36.621,-35.156,-167.969
1688757393.796,-30.762,-29.297,-35.156,-37.598,-125.000
1688757393.800,-25.391,-33.203,-36.621,-22.461,-109.375
1688757393.804,-26.855,-33.203,-34.668,-14.160,-106.445
1688757393.808,-24.414,-34.668,-26.367,-18.066,-26.367
1688757393.812,-31.250,-32.227,-22.461,-23.438,373.047
1688757393.816,-40.039,-30.762,-21.973,-27.344,161.621
1688757393.819,-40.039,-33.691,-19.531,-36.621,-270.508
1688757393.823,-33.691,-33.691,-18.066,-34.668,-50.781
1688757393.827,-32.227,-39.551,-16.113,-20.508,250.000
1688757393.831,-39.062,-37.109,-24.414,-33.203,-44.434
1688757393.835,-38.574,-30.762,-29.297,-42.969,-269.531
1688757393.836,-38.086,-31.250,-19.043,-32.227,-160.645
1688757393.840,-32.715,-24.414,-15.625,-21.973,-117.188
1688757393.844,-25.879,-25.879,-20.508,-27.832,-152.832
1688757393.848,-29.297,-27.344,-24.414,-37.598,-137.207
1688757393.852,-29.785,-23.926,-25.391,-36.621,-42.480
1688757393.856,-31.738,-28.320,-29.785,-30.762,7.324
1688757393.860,-33.691,-28.320,-30.273,-25.879,17.578
1688757393.863,-32.227,-23.926,-30.273,-34.180,-53.711
1688757393.867,-35.156,-20.508,-24.902,-33.691,148.438
1688757393.871,-31.738,-19.043,-18.555,-24.414,208.496
1688757393.875,-33.691,-22.949,-20.508,-28.320,-103.516
1688757393.879,-33.691,-22.461,-16.113,-29.785,-7.324
1688757393.881,-24.902,-17.578,-16.602,-25.391,92.285
1688757393.885,-25.879,-22.461,-23.438,-30.273,-94.238
1688757393.889,-31.250,-22.461,-21.484,-47.852,-199.219
1688757393.893,-33.691,-21.973,-19.043,-51.758,-94.238
1688757393.897,-26.855,-26.855,-19.531,-49.316,99.609
1688757393.901,-23.438,-26.367,-21.484,-52.246,114.746
1688757393.905,-28.809,-27.832,-25.391,-52.734,-37.598
1688757393.908,-33.691,-35.156,-27.832,-52.246,-69.336
1688757393.912,-37.109,-34.668,-31.738,-37.598,221.191
1688757393.916,-31.738,-28.320,-30.762,-28.809,15.137
1688757393.920,-27.344,-21.973,-26.855,-32.715,-191.895
1688757393.924,-30.273,-17.090,-28.809,-39.551,-65.430
1688757393.928,-31.250,-18.066,-32.715,-39.062,-63.477
1688757393.932,-34.668,-21.973,-31.250,-31.738,-64.941
1688757393.936,-37.598,-24.902,-31.738,-34.180,-142.090
1688757393.940,-37.598,-23.438,-35.645,-32.227,-63.477
1688757393.944,-37.598,-25.879,-35.156,-31.250,-53.711
1688757393.948,-39.551,-30.273,-26.367,-41.504,-94.727
1688757393.952,-44.434,-24.902,-24.902,-48.828,-77.637
1688757393.955,-38.574,-22.949,-37.109,-42.969,101.074
1688757393.959,-26.367,-27.832,-36.621,-40.527,110.840
1688757393.963,-22.949,-31.738,-32.227,-43.457,-180.664
1688757393.967,-26.367,-28.320,-31.738,-42.969,-180.664
1688757393.971,-27.832,-28.320,-28.320,-35.645,-124.512
1688757393.971,-30.762,-24.414,-25.391,-29.297,-179.199
1688757393.975,-21.973,-16.602,-23.926,-24.902,-205.078
1688757393.979,-9.766,-19.043,-22.949,-20.508,-109.375
1688757393.983,-22.461,-21.484,-23.926,-26.855,36.621
1688757393.987,-31.250,-19.531,-22.949,-29.785,16.113
1688757393.991,-28.320,-20.020,-20.508,-23.926,-15.137
1688757393.995,-33.203,-24.902,-22.461,-20.996,29.297
1688757393.998,-30.762,-20.996,-26.367,-20.508,315.430
1688757394.002,-26.855,-18.066,-29.785,-27.344,249.023
1688757394.006,-30.273,-20.020,-21.973,-25.879,-159.180
1688757394.010,-24.414,-17.090,-19.043,-13.184,-138.184
1688757394.014,-23.926,-20.508,-25.879,-13.672,-82.520
1688757394.017,-25.391,-20.508,-27.832,-23.926,-157.715
1688757394.021,-23.438,-8.301,-20.996,-27.344,-160.645
1688757394.025,-32.715,-10.742,-19.043,-27.344,-26.367
1688757394.029,-39.062,-20.508,-23.926,-24.902,-1.465
1688757394.033,-32.227,-17.578,-30.273,-24.414,-80.566
1688757394.037,-24.414,-21.484,-39.062,-24.902,-0.977
1688757394.041,-26.855,-23.926,-41.992,-27.344,261.719
1688757394.044,-34.668,-18.555,-33.203,-40.527,203.125
1688757394.048,-38.086,-22.461,-28.320,-41.016,-174.316
1688757394.052,-28.320,-24.414,-28.809,-31.738,-178.711
1688757394.056,-19.531,-26.855,-32.715,-32.227,52.246
1688757394.060,-28.809,-34.180,-41.992,-38.086,-6.348
1688757394.061,-29.785,-30.762,-41.016,-38.086,-141.602
1688757394.065,-18.555,-25.879,-38.574,-26.367,-159.180
1688757394.069,-19.043,-26.855,-37.109,-16.602,-55.664
1688757394.073,-23.438,-27.344,-33.203,-23.438,47.852
1688757394.077,-26.855,-30.273,-33.691,-29.297,-68.848
1688757394.081,-24.414,-32.227,-32.227,-22.949,-39.551
1688757394.085,-28.809,-33.691,-36.133,-15.137,446.777
1688757394.088,-40.039,-35.156,-44.434,-28.320,339.355
1688757394.092,-34.668,-33.203,-40.527,-41.016,-115.723
1688757394.096,-36.133,-31.250,-33.203,-45.898,-77.148
1688757394.100,-47.363,-35.645,-29.785,-53.711,-62.988
1688757394.104,-44.922,-37.109,-33.203,-49.316,-201.172
1688757394.107,-48.340,-37.109,-41.016,-44.434,-149.414
1688757394.111,-38.086,-33.203,-38.086,-36.133,-41.992
1688757394.115,-14.648,-28.320,-32.715,-36.621,-100.098
1688757394.119,-22.461,-30.273,-33.691,-47.852,-155.273
1688757394.123,-30.762,-35.645,-31.250,-49.316,-134.766
1688757394.127,-28.809,-36.133,-27.344,-45.410,15.625
1688757394.131,-36.133,-36.621,-28.809,-44.434,12.695
1688757394.134,-44.434,-36.621,-30.762,-53.711,-118.652
1688757394.138,-44.922,-40.039,-32.715,-67.383,-160.156
1688757394.142,-44.922,-38.086,-32.715,-61.035,83.984
1688757394.146,-46.387,-33.203,-34.180,-50.293,65.430
1688757394.150,-34.668,-32.715,-38.086,-41.016,-120.605
1688757394.166,-36.621,-34.180,-42.480,-47.852,-69.336
1688757394.170,-37.109,-35.645,-41.992,-49.805,36.133
1688757394.174,-36.133,-37.598,-36.133,-37.598,-46.875
1688757394.178,-44.434,-35.156,-32.227,-31.738,-32.227
1688757394.182,-35.156,-29.785,-27.832,-24.414,2.930
1688757394.186,-30.762,-30.273,-30.273,-26.855,257.324
1688757394.190,-32.715,-29.785,-31.738,-36.133,177.246
1688757394.193,-32.715,-21.484,-29.785,-36.133,-154.785
1688757394.197,-30.273,-24.902,-31.250,-27.832,-144.043
1688757394.201,-25.879,-26.855,-33.691,-18.555,10.254
1688757394.205,-23.438,-17.090,-31.250,-21.484,-106.934
1688757394.209,-18.555,-13.672,-26.855,-22.949,-195.801
1688757394.229,-21.484,-12.695,-20.508,-20.996,-88.379
1688757394.233,-29.297,-18.066,-23.438,-24.414,-19.531
1688757394.237,-30.273,-27.344,-34.180,-27.832,-71.289
1688757394.241,-32.715,-27.344,-27.344,-29.785,-189.941
1688757394.245,-37.109,-23.438,-22.949,-40.527,-48.828
1688757394.249,-38.574,-21.484,-28.320,-43.457,52.246
1688757394.253,-40.039,-23.926,-29.297,-30.762,-91.797
1688757394.256,-40.527,-25.879,-27.832,-20.508,-55.664
1688757394.260,-40.527,-26.367,-25.879,-25.391,185.547
1688757394.264,-41.504,-27.832,-25.391,-36.621,135.742
1688757394.268,-48.828,-26.855,-26.855,-44.922,-167.969
1688757394.272,-51.270,-24.414,-28.320,-41.992,-187.012
1688757394.256,-38.086,-24.902,-25.391,-27.832,-97.656
1688757394.260,-24.414,-21.973,-23.438,-26.367,-92.285
1688757394.264,-22.949,-18.066,-25.391,-37.109,-94.727
1688757394.268,-33.691,-25.391,-32.227,-45.410,-4.883
1688757394.272,-39.551,-27.344,-32.227,-45.410,66.895
1688757394.276,-29.297,-20.996,-27.832,-34.668,-2.441
1688757394.280,-24.414,-25.879,-38.086,-31.738,-28.320
1688757394.283,-29.297,-28.809,-43.457,-38.574,-9.766
1688757394.287,-30.273,-25.391,-40.039,-38.574,-15.137
1688757394.291,-30.762,-16.602,-35.645,-22.949,-113.770
1688757394.295,-36.133,-15.137,-30.273,-19.531,-243.652
1688757394.299,-32.227,-23.926,-21.973,-25.879,-148.438
1688757394.302,-32.227,-30.273,-20.020,-23.438,294.922
1688757394.306,-41.016,-28.320,-28.320,-29.297,203.125
1688757394.310,-38.574,-23.438,-29.785,-34.668,-190.918
1688757394.314,-31.250,-20.508,-25.391,-25.391,-157.227
1688757394.318,-31.250,-24.902,-29.297,-24.414,-132.324
1688757394.322,-30.762,-32.227,-30.762,-28.809,-87.891
1688757394.326,-40.527,-35.156,-31.250,-38.574,-93.750
1688757394.329,-49.316,-33.203,-39.062,-49.316,150.391
1688757394.333,-38.574,-31.250,-38.574,-36.133,286.133
1688757394.337,-28.320,-34.668,-35.645,-32.227,-154.785
1688757394.341,-22.949,-32.715,-31.250,-31.738,-276.855
1688757394.345,-24.902,-28.320,-27.832,-23.438,-196.777
1688757394.346,-33.203,-27.832,-30.273,-36.621,-263.184
1688757394.350,-35.645,-32.227,-31.738,-43.945,-235.840
1688757394.354,-32.715,-35.645,-30.273,-33.203,-135.254
1688757394.358,-25.391,-30.273,-30.762,-38.574,1.465
1688757394.362,-26.367,-28.320,-32.227,-52.734,-28.809
1688757394.366,-31.738,-29.785,-37.598,-55.176,-82.520
1688757394.370,-34.668,-37.598,-40.527,-50.781,71.777
1688757394.373,-35.156,-41.504,-33.203,-41.504,285.156
1688757394.377,-32.227,-35.645,-31.250,-36.133,60.547
1688757394.381,-31.738,-35.156,-31.250,-41.016,-206.543
1688757394.385,-30.273,-39.551,-26.855,-45.410,-121.094
1688757394.389,-41.504,-43.945,-26.855,-42.480,132.324
1688757394.392,-51.758,-42.480,-28.809,-46.875,-59.082
1688757394.396,-41.504,-33.691,-28.320,-39.062,-179.199
1688757394.400,-30.762,-34.668,-25.879,-35.156,-52.734
1688757394.404,-38.574,-36.133,-25.879,-43.457,-116.699
1688757394.408,-40.039,-30.762,-24.414,-34.668,-158.203
1688757394.412,-16.602,-21.973,-25.879,-8.301,-13.184
1688757394.416,5.371,-18.555,-26.855,7.812,263.672
1688757394.419,-1.465,-29.297,-18.555,0.000,193.848
1688757394.423,-26.855,-36.133,-13.672,-22.461,-214.355
1688757394.427,-32.227,-31.250,-18.555,-33.691,-225.098
1688757394.431,-19.043,-28.809,-23.926,-19.043,-86.914
1688757394.435,-16.602,-34.180,-29.297,-11.719,-15.137
1688757394.437,-30.762,-36.133,-27.832,-23.438,-38.086
1688757394.441,-32.227,-34.180,-23.926,-28.320,-62.988
1688757394.445,-30.762,-34.668,-27.344,-24.902,71.777
1688757394.449,-34.180,-38.086,-35.156,-28.320,27.344
1688757394.453,-34.668,-38.086,-37.598,-33.691,-123.535
1688757394.457,-30.762,-34.668,-32.227,-32.227,-111.816
1688757394.461,-32.227,-35.645,-27.344,-25.391,283.691
1688757394.464,-40.039,-35.156,-26.367,-21.484,165.039
1688757394.468,-32.227,-29.297,-26.855,-20.508,-254.395
1688757394.472,-21.484,-21.484,-26.855,-21.484,-169.434
1688757394.476,-15.625,-22.461,-32.227,-28.320,-28.320
1688757394.480,-14.160,-23.438,-28.809,-27.832,-35.645
1688757394.484,-18.555,-15.137,-24.414,-21.973,-76.172
1688757394.488,-9.766,-9.766,-31.250,-20.020,3.418
1688757394.492,-12.207,-21.484,-37.598,-23.438,100.098
1688757394.496,-19.043,-34.668,-33.203,-31.738,8.301
1688757394.500,-27.832,-30.273,-29.297,-37.598,-93.750
1688757394.504,-33.203,-30.762,-29.785,-34.668,205.078
1688757394.508,-39.062,-36.621,-30.762,-33.203,355.469
1688757394.511,-36.621,-37.598,-38.574,-38.086,0.488
1688757394.515,-21.973,-33.691,-42.480,-35.645,-137.695
1688757394.519,-17.090,-24.414,-36.621,-27.344,28.320
1688757394.523,-16.602,-20.996,-38.574,-22.461,-4.883
1688757394.527,-18.066,-25.391,-30.273,-21.973,-140.625
1688757394.541,-23.438,-27.832,-19.531,-20.020,-112.793
1688757394.545,-26.855,-31.738,-27.344,-12.207,-77.148
1688757394.549,-30.273,-38.574,-28.320,-15.625,-73.730
1688757394.553,-31.250,-34.180,-22.949,-22.949,-84.473
1688757394.557,-31.250,-27.344,-20.020,-19.531,-7.324
1688757394.561,-31.738,-30.762,-20.996,-13.672,437.012
1688757394.565,-25.391,-27.832,-25.879,-19.043,315.918
1688757394.568,-29.297,-30.762,-22.461,-34.668,-178.223
1688757394.572,-41.016,-28.320,-21.973,-33.691,-163.086
1688757394.576,-40.527,-26.855,-23.926,-24.414,-32.715
1688757394.580,-33.203,-32.715,-15.625,-20.508,-208.008
1688757394.584,-26.367,-35.156,-18.555,-10.742,-220.703
1688757394.587,-26.367,-32.715,-24.414,-13.672,-86.426
1688757394.591,-32.227,-25.391,-27.832,-29.785,-87.891
1688757394.595,-29.785,-12.695,-21.973,-28.320,-126.465
1688757394.599,-20.020,-10.254,-12.695,-24.414,-115.234
1688757394.603,-10.254,-14.160,-15.625,-26.855,-62.012
1688757394.607,-13.672,-22.461,-23.926,-24.902,-72.266
1688757394.611,-35.156,-28.320,-37.109,-38.574,-106.934
1688757394.614,-41.992,-22.949,-32.227,-41.992,-43.457
1688757394.618,-31.738,-16.602,-20.020,-25.879,218.262
1688757394.622,-30.762,-15.625,-27.832,-25.879,191.895
1688757394.626,-33.203,-20.996,-34.668,-40.039,-111.328
1688757394.630,-32.715,-23.926,-36.133,-47.852,-156.250
1688757394.631,-34.180,-21.484,-33.691,-39.062,122.559
1688757394.635,-31.250,-21.484,-33.203,-35.156,48.340
1688757394.639,-23.926,-27.832,-35.645,-31.738,-130.859
1688757394.643,-21.484,-29.785,-33.203,-29.785,31.250
1688757394.647,-30.273,-31.250,-32.715,-39.062,133.301
1688757394.651,-31.738,-27.344,-31.738,-42.969,1.465
1688757394.655,-29.297,-26.855,-28.320,-35.156,-47.363
1688757394.658,-27.344,-30.273,-27.832,-24.902,42.969
1688757394.662,-13.672,-27.832,-28.320,-14.648,207.031
1688757394.666,-13.184,-22.461,-20.996,-29.785,-15.625
1688757394.670,-16.113,-24.902,-20.508,-40.527,-192.871
1688757394.674,-18.066,-28.320,-23.438,-35.156,-59.082
1688757394.680,-6.836,-21.484,-17.578,-24.414,-20.020
1688757394.684,-6.348,-19.043,-18.066,-22.461,-123.047
1688757394.688,-19.531,-24.414,-18.555,-28.320,-134.277
1688757394.692,-30.762,-25.879,-20.996,-25.879,-74.219
1688757394.696,-41.504,-24.414,-29.297,-21.973,-88.867
1688757394.700,-41.016,-23.926,-33.203,-20.508,-77.637
1688757394.704,-28.809,-27.344,-30.762,-14.648,-33.691
1688757394.707,-24.414,-25.391,-22.461,-14.160,164.062
1688757394.711,-30.762,-21.973,-25.879,-26.855,174.316
1688757394.715,-30.762,-25.391,-30.762,-29.297,-157.715
1688757394.719,-27.832,-25.391,-28.809,-23.926,-185.547
1688757394.723,-33.691,-21.973,-27.832,-29.785,-77.148
1688757394.721,-39.551,-29.785,-36.133,-46.387,-41.992
1688757394.725,-37.598,-34.180,-42.480,-53.223,-122.070
1688757394.729,-37.598,-33.203,-39.551,-48.828,-95.215
1688757394.733,-33.691,-30.762,-30.273,-45.410,69.336
1688757394.737,-30.762,-28.320,-28.809,-43.945,-57.617
1688757394.741,-27.832,-26.855,-31.738,-39.551,-40.527
1688757394.745,-27.832,-25.391,-29.297,-37.109,54.688
1688757394.748,-30.273,-21.973,-30.762,-28.320,239.258
1688757394.752,-28.320,-18.555,-29.297,-16.602,193.848
1688757394.756,-23.438,-23.438,-25.391,-18.555,-155.273
1688757394.760,-26.367,-28.320,-24.902,-30.273,-152.832
1688757394.764,-36.621,-27.832,-24.902,-45.410,-83.008
1688757394.769,-35.156,-24.414,-23.438,-43.457,-169.922
1688757394.773,-24.902,-26.855,-23.438,-24.902,-154.297
1688757394.777,-23.926,-30.762,-20.996,-15.625,7.812
1688757394.781,-20.996,-28.809,-18.066,-19.043,-47.363
1688757394.785,-22.461,-25.879,-19.043,-19.043,-162.109
1688757394.789,-23.438,-21.973,-16.113,-7.812,-57.129
1688757394.793,-17.578,-19.531,-22.949,-5.371,302.246
1688757394.796,-20.508,-22.461,-31.250,-13.184,319.336
1688757394.800,-14.648,-22.461,-22.461,-21.973,-68.359
1688757394.804,-8.789,-19.043,-17.578,-20.508,-107.910
1688757394.808,-16.602,-14.160,-19.531,-13.184,57.129
1688757394.812,-15.625,-15.137,-20.996,-19.043,-55.176
1688757394.812,-5.859,-17.090,-23.926,-17.578,-162.598
1688757394.816,-1.465,-18.066,-23.926,-3.418,-109.863
1688757394.820,-20.996,-27.832,-25.391,-21.484,-81.543
1688757394.824,-52.246,-32.715,-23.926,-47.852,-84.473
1688757394.828,-60.059,-34.180,-19.531,-43.945,-138.184
1688757394.832,-50.293,-32.227,-16.602,-28.320,8.301
1688757394.836,-43.457,-32.715,-16.113,-16.602,480.469
1688757394.839,-45.898,-40.527,-19.043,-34.668,366.699
1688757394.843,-51.758,-40.039,-22.949,-49.316,-152.344
1688757394.847,-50.293,-40.039,-26.855,-36.621,-186.035
1688757394.851,-41.504,-40.527,-24.414,-28.320,-60.059
1688757394.855,-37.109,-38.086,-25.879,-34.668,-131.348
1688757394.858,-37.109,-38.574,-26.367,-37.109,-156.738
1688757394.862,-35.645,-32.715,-19.043,-42.969,-112.305
1688757394.866,-38.574,-28.809,-29.297,-42.969,-111.328
1688757394.870,-40.039,-38.086,-36.621,-34.180,-180.664
1688757394.874,-35.645,-42.480,-32.227,-31.250,-162.598
1688757394.878,-32.227,-32.227,-30.273,-31.738,46.387
1688757394.882,-38.086,-31.738,-34.180,-35.156,10.254
1688757394.885,-41.504,-37.109,-41.992,-34.668,-99.609
1688757394.889,-40.039,-34.180,-40.527,-29.297,-76.172
1688757394.893,-27.344,-29.785,-33.203,-30.762,8.789
1688757394.897,-21.973,-31.738,-32.227,-45.898,-62.500
1688757394.901,-27.344,-32.715,-35.156,-47.852,-127.930
1688757394.916,-28.809,-27.832,-37.109,-39.551,-118.652
1688757394.920,-28.809,-27.832,-26.855,-30.273,160.156
1688757394.924,-23.438,-25.391,-27.832,-34.668,227.051
1688757394.928,-21.973,-22.461,-30.273,-42.480,-22.461
1688757394.932,-30.762,-24.414,-25.391,-35.156,-68.848
1688757394.936,-36.133,-24.414,-29.785,-21.973,194.824
1688757394.940,-26.367,-21.973,-31.250,-19.043,101.074
1688757394.943,-21.973,-23.438,-31.738,-24.902,-177.734
1688757394.947,-27.832,-23.438,-38.574,-29.785,-93.750
1688757394.951,-32.227,-22.949,-34.180,-39.062,142.090
1688757394.955,-42.480,-27.832,-27.344,-46.387,-9.277
1688757394.959,-46.875,-32.715,-29.297,-47.363,-163.086
1688757394.961,-32.227,-26.855,-29.785,-34.668,-56.152
1688757394.965,-20.996,-19.531,-29.785,-28.809,-24.414
1688757394.969,-29.297,-25.391,-33.691,-39.551,-187.500
1688757394.973,-39.551,-27.344,-36.133,-45.410,-188.477
1688757394.977,-31.250,-27.832,-39.062,-32.227,-55.664
1688757394.981,-30.273,-28.809,-39.551,-29.297,35.645
1688757394.985,-44.922,-28.320,-36.621,-41.992,25.391
1688757394.988,-42.969,-25.391,-29.297,-42.969,-28.809
1688757394.992,-36.621,-20.020,-23.438,-37.598,172.852
1688757394.996,-37.109,-18.066,-24.902,-36.133,169.922
1688757395.000,-30.762,-21.973,-28.809,-32.715,-93.750
1688757395.004,-22.461,-28.320,-31.250,-27.832,-103.027
1688757395.006,-31.250,-30.762,-33.203,-34.180,22.949
1688757395.010,-45.410,-27.832,-28.320,-51.270,-72.266
1688757395.014,-46.387,-31.250,-26.367,-41.504,-209.473
1688757395.018,-33.691,-36.133,-25.391,-18.555,-104.980
1688757395.022,-23.926,-29.297,-27.344,-15.625,181.152
1688757395.026,-24.902,-22.949,-25.391,-20.020,110.352
1688757395.030,-26.855,-23.438,-16.602,-22.949,-159.668
1688757395.033,-27.344,-26.367,-20.020,-21.973,-81.055
1688757395.037,-16.113,-20.508,-20.508,-11.230,210.938
1688757395.041,-9.277,-20.020,-21.484,-11.719,-9.766
1688757395.045,-18.555,-21.973,-25.391,-22.949,-231.445
1688757395.049,-31.738,-19.531,-34.180,-29.297,-146.484
1688757395.053,-34.180,-23.926,-40.527,-33.691,-135.742
1688757395.057,-26.855,-26.367,-39.062,-37.109,-157.227
1688757395.061,-28.809,-28.320,-37.109,-41.504,-148.438
1688757395.065,-29.785,-29.297,-31.738,-42.480,7.324
1688757395.069,-34.668,-30.273,-22.949,-41.992,-23.438
1688757395.073,-30.762,-23.438,-17.090,-34.180,-93.262
1688757395.077,-30.273,-18.555,-21.484,-28.809,-5.371
1688757395.080,-35.645,-26.367,-19.531,-29.297,208.496
1688757395.084,-31.738,-30.762,-14.648,-36.133,138.184
1688757395.088,-33.691,-32.715,-20.508,-41.016,-194.336
1688757395.092,-40.527,-30.273,-23.438,-40.527,-162.598
1688757395.096,-34.180,-29.297,-17.578,-34.180,-71.777
1688757395.096,-23.926,-34.668,-18.555,-26.367,-153.809
1688757395.100,-28.809,-30.762,-21.484,-31.250,-212.402
1688757395.104,-30.762,-35.645,-19.531,-34.668,-143.555
1688757395.108,-32.715,-41.992,-20.508,-32.715,64.941
1688757395.112,-38.574,-38.574,-26.855,-29.297,45.410
1688757395.116,-34.668,-39.551,-34.180,-30.762,-60.547
1688757395.120,-27.344,-40.039,-31.250,-28.809,-27.344
1688757395.123,-25.879,-34.668,-24.902,-19.531,363.770
1688757395.127,-22.949,-27.344,-27.832,-19.531,350.586
1688757395.131,-26.367,-29.297,-37.598,-24.902,-131.348
1688757395.135,-23.926,-32.715,-34.668,-27.832,-164.062
1688757395.139,-24.414,-31.738,-31.250,-36.133,-105.469
1688757395.142,-33.691,-36.621,-32.227,-41.016,-186.035
1688757395.146,-41.016,-38.086,-29.785,-41.504,-191.406
1688757395.150,-41.992,-37.109,-27.344,-40.527,-117.188
1688757395.154,-38.086,-35.156,-27.832,-34.180,-97.168
1688757395.158,-36.133,-32.227,-33.203,-36.133,-166.992
1688757395.162,-39.551,-33.203,-31.738,-44.922,-101.074
1688757395.166,-40.039,-30.762,-28.320,-41.504,172.363
1688757395.169,-40.527,-28.809,-28.809,-38.086,171.387
1688757395.173,-40.527,-25.391,-33.203,-33.203,-80.566
1688757395.177,-37.598,-25.879,-43.945,-35.645,-138.184
1688757395.181,-45.410,-34.668,-46.387,-42.480,2.930
1688757395.185,-44.922,-36.133,-43.945,-45.410,-67.871
1688757395.186,-40.039,-32.715,-38.574,-39.551,-127.441
1688757395.190,-38.574,-29.785,-30.762,-28.809,-116.699
1688757395.194,-35.645,-31.250,-35.156,-35.156,-81.055
1688757395.198,-38.086,-33.203,-42.969,-48.340,-9.277
1688757395.202,-45.898,-33.691,-45.898,-56.152,-86.426
1688757395.206,-46.875,-36.133,-43.457,-53.711,-28.809
1688757395.210,-37.109,-35.645,-38.574,-33.203,373.535
1688757395.213,-29.785,-29.785,-34.668,-29.297,307.617
1688757395.217,-31.250,-31.250,-28.809,-35.645,-103.516
1688757395.221,-34.668,-34.668,-29.785,-41.016,-192.383
1688757395.225,-35.645,-38.574,-32.715,-46.875,-152.344
1688757395.229,-33.691,-39.551,-34.180,-37.598,-103.027
1688757395.234,-29.785,-34.180,-32.715,-23.926,-174.316
1688757395.238,-21.973,-27.832,-20.508,-17.578,-114.746
1688757395.242,-29.297,-29.785,-24.902,-27.344,-41.504
1688757395.246,-40.039,-31.250,-33.203,-34.668,-143.555
1688757395.250,-37.109,-28.809,-29.297,-30.273,-137.207
1688757395.254,-28.320,-23.926,-26.367,-25.391,62.500
1688757395.258,-21.484,-20.996,-25.391,-29.785,95.215
1688757395.261,-20.996,-23.926,-27.832,-36.133,-79.590
1688757395.265,-26.367,-27.832,-30.273,-32.715,-164.551
1688757395.269,-32.715,-29.785,-25.391,-30.273,86.426
1688757395.273,-36.621,-27.832,-28.809,-35.645,103.516
1688757395.277,-27.832,-26.367,-28.320,-35.645,-132.812
1688757395.291,-26.855,-20.020,-20.020,-31.250,-109.375
1688757395.295,-38.574,-18.555,-25.391,-40.527,12.207
1688757395.299,-39.551,-21.973,-33.203,-42.480,-35.645
1688757395.303,-32.715,-21.484,-30.273,-34.668,-29.785
1688757395.307,-28.809,-23.438,-32.715,-40.527,14.648
1688757395.311,-32.715,-24.414,-30.762,-37.109,342.773
1688757395.315,-33.691,-21.973,-29.785,-35.645,188.477
1688757395.318,-32.227,-19.043,-37.109,-34.180,-231.934
1688757395.322,-32.715,-20.996,-34.668,-26.855,-166.504
1688757395.326,-39.062,-30.273,-29.297,-31.250,-2.441
1688757395.330,-43.945,-24.902,-29.785,-43.945,-140.137
1688757395.334,-45.410,-21.973,-25.391,-43.457,-222.168
1688757395.336,-42.480,-28.809,-24.902,-38.086,-100.098
1688757395.340,-42.969,-29.297,-28.809,-39.062,-35.156
1688757395.344,-35.156,-21.484,-27.832,-37.598,-49.316
1688757395.348,-30.762,-14.160,-26.855,-39.062,11.719
1688757395.352,-26.855,-19.043,-30.762,-35.156,69.336
1688757395.356,-26.367,-20.508,-29.785,-29.785,56.641
1688757395.360,-27.344,-18.066,-29.785,-19.043,-10.742
1688757395.363,-18.066,-20.996,-28.809,-15.625,-117.188
1688757395.367,-14.648,-21.484,-21.484,-14.648,80.078
1688757395.371,-30.762,-26.855,-23.438,-30.273,98.145
1688757395.375,-43.457,-29.785,-29.297,-39.551,-207.520
1688757395.379,-36.621,-21.484,-27.832,-38.086,-124.512
1688757395.381,-22.949,-20.508,-24.902,-45.898,-11.719
1688757395.385,-22.949,-20.996,-21.484,-46.387,-133.301
1688757395.389,-20.020,-15.625,-18.555,-40.527,-173.828
1688757395.393,-18.066,-14.648,-18.066,-33.691,18.066
1688757395.397,-16.602,-20.508,-17.090,-23.438,169.434
1688757395.401,-19.531,-25.391,-17.578,-20.508,41.504
1688757395.405,-27.832,-20.508,-13.672,-28.320,-31.250
1688757395.408,-26.855,-18.555,-19.531,-30.762,27.344
1688757395.412,-28.809,-20.020,-30.762,-26.367,250.000
1688757395.416,-28.809,-23.438,-28.809,-34.180,61.523
1688757395.420,-20.020,-24.902,-21.973,-36.621,-201.660
1688757395.424,-21.484,-24.902,-21.484,-38.574,-124.512
1688757395.427,-26.855,-27.832,-23.926,-36.133,-143.555
1688757395.431,-27.344,-33.691,-19.043,-20.996,-215.332
1688757395.435,-34.180,-31.738,-18.066,-18.555,-190.918
1688757395.439,-34.180,-25.391,-22.949,-21.484,-33.203
1688757395.443,-22.461,-22.461,-27.832,-23.438,-3.418
1688757395.447,-27.832,-23.438,-36.133,-30.762,-39.551
1688757395.451,-38.086,-24.414,-36.133,-32.227,-3.418
1688757395.454,-29.297,-22.461,-26.367,-16.113,208.984
1688757395.458,-21.973,-28.320,-32.227,-16.113,235.352
1688757395.462,-29.297,-34.668,-36.621,-30.273,-130.859
1688757395.466,-34.668,-36.133,-31.250,-33.691,-203.125
1688757395.470,-41.504,-32.715,-29.297,-38.086,8.789
1688757395.471,-34.668,-27.832,-24.902,-31.250,-73.242
1688757395.475,-22.949,-32.715,-22.461,-27.832,-184.570
1688757395.479,-24.902,-34.668,-24.414,-30.273,-73.730
1688757395.483,-23.926,-23.438,-21.484,-24.414,4.883
1688757395.487,-24.902,-21.484,-20.020,-17.090,-84.473
1688757395.491,-29.297,-24.902,-24.414,-20.508,-148.926
1688757395.495,-23.926,-26.855,-26.855,-23.926,59.082
1688757395.498,-20.996,-31.250,-30.762,-25.391,430.664
1688757395.502,-27.344,-26.855,-33.691,-43.945,181.152
1688757395.506,-33.691,-27.832,-38.574,-56.152,-170.410
1688757395.510,-36.133,-31.738,-38.086,-54.688,-105.957
1688757395.514,-26.367,-30.762,-31.738,-50.293,-93.262
1688757395.518,-16.602,-34.180,-35.645,-46.875,-131.348
1688757395.522,-29.297,-34.668,-42.969,-53.223,-122.070
1688757395.526,-48.828,-37.598,-39.062,-51.270,-4.883
1688757395.530,-52.246,-29.297,-32.227,-42.969,40.039
1688757395.534,-46.387,-27.344,-34.668,-40.527,-104.980
1688757395.538,-44.434,-36.133,-34.180,-35.645,-0.977
1688757395.542,-39.551,-32.227,-32.227,-34.668,298.828
1688757395.545,-46.387,-26.855,-26.367,-38.574,222.656
1688757395.549,-47.852,-25.391,-18.066,-36.133,-156.738
1688757395.553,-31.250,-24.902,-19.531,-26.855,-187.988
1688757395.557,-28.320,-37.598,-27.832,-29.297,-58.594
1688757395.561,-46.387,-47.852,-37.109,-39.062,-96.680
1688757395.577,-45.898,-41.992,-42.480,-39.062,-155.762
1688757395.581,-37.598,-40.527,-41.016,-29.785,-2.441
1688757395.585,-41.992,-41.016,-35.645,-19.531,145.020
1688757395.589,-36.621,-35.645,-31.738,-19.043,7.812
1688757395.593,-40.527,-35.645,-36.133,-26.855,-149.414
1688757395.597,-43.457,-33.203,-35.156,-35.645,-100.586
1688757395.601,-38.086,-30.273,-32.227,-36.621,291.992
1688757395.604,-36.621,-25.879,-30.273,-34.668,201.172
1688757395.608,-38.086,-28.809,-30.762,-35.156,-192.383
1688757395.612,-29.297,-33.691,-38.574,-32.227,-149.414
1688757395.616,-19.043,-25.879,-38.574,-29.785,-148.438
1688757395.620,-25.391,-23.438,-32.227,-35.645,-210.449
1688757395.622,-30.273,-22.949,-28.809,-37.598,-178.223
1688757395.626,-28.320,-15.137,-28.809,-33.691,-86.426
1688757395.630,-20.020,-19.043,-32.715,-27.344,-79.102
1688757395.634,-23.926,-20.996,-34.180,-37.109,-95.215
1688757395.638,-36.133,-23.926,-35.645,-52.734,-32.227
1688757395.642,-38.574,-34.180,-36.133,-53.711,94.727
1688757395.646,-34.180,-37.109,-33.203,-42.969,66.895
1688757395.649,-36.133,-26.367,-30.273,-37.598,-73.730
1688757395.653,-40.527,-18.066,-36.133,-41.992,-151.855
1688757395.657,-35.645,-25.879,-34.668,-32.715,146.484
1688757395.661,-39.062,-34.180,-27.344,-21.973,306.152
1688757395.665,-51.758,-38.574,-32.227,-27.344,-108.398
1688757395.667,-46.387,-38.086,-29.785,-23.438,-159.180
1688757395.671,-37.598,-34.180,-24.902,-21.484,-58.105
1688757395.675,-37.598,-35.645,-26.855,-26.367,-100.586
1688757395.679,-32.715,-33.691,-25.879,-23.926,-16.113
1688757395.683,-31.250,-27.832,-21.484,-22.949,-34.668
1688757395.687,-24.414,-28.809,-19.531,-27.344,-31.738
1688757395.691,-20.508,-29.785,-21.484,-30.273,-44.434
1688757395.694,-31.250,-32.715,-29.785,-38.574,-154.297
1688757395.698,-38.086,-34.668,-36.621,-37.598,-152.344
1688757395.702,-29.785,-33.203,-38.574,-18.555,255.371
1688757395.706,-23.438,-32.715,-35.156,-22.461,241.699
1688757395.710,-27.344,-28.809,-32.715,-41.504,-181.152
1688757395.711,-31.250,-27.832,-37.109,-39.062,-163.574
1688757395.715,-37.109,-33.203,-46.387,-39.551,-130.859
1688757395.719,-39.551,-34.180,-41.016,-39.062,-198.242
1688757395.723,-38.086,-29.785,-39.062,-36.133,-128.906
1688757395.727,-37.109,-32.227,-41.016,-45.410,-41.016
1688757395.731,-40.527,-32.227,-33.691,-41.992,3.418
1688757395.735,-42.480,-30.273,-30.762,-33.691,-2.930
1688757395.738,-38.574,-25.879,-28.809,-26.367,-51.270
1688757395.742,-29.785,-29.785,-27.832,-24.902,137.695
1688757395.746,-30.762,-40.039,-34.180,-38.086,71.777
1688757395.750,-40.527,-40.527,-40.527,-49.805,-207.031
1688757395.754,-35.156,-37.109,-36.133,-45.410,-178.711
1688757395.756,-24.902,-32.715,-30.273,-31.250,176.270
1688757395.760,-25.879,-31.738,-33.691,-29.785,140.137
1688757395.764,-21.973,-31.250,-40.039,-35.645,-117.188
1688757395.768,-20.996,-29.297,-37.598,-38.574,39.551
1688757395.772,-26.367,-26.855,-37.109,-32.715,169.434
1688757395.776,-28.320,-32.715,-38.574,-31.250,24.414
1688757395.780,-22.949,-34.180,-33.203,-38.086,-145.508
1688757395.783,-21.484,-30.273,-33.203,-48.828,-89.844
1688757395.787,-24.902,-23.926,-33.691,-43.457,227.051
1688757395.791,-27.344,-21.973,-30.273,-34.668,-2.930
1688757395.795,-24.902,-25.391,-37.598,-26.855,-260.254
1688757395.799,-21.973,-20.020,-43.945,-20.020,-85.938
1688757395.801,-12.207,-20.508,-38.574,-26.855,-60.059
1688757395.805,-12.207,-29.785,-34.668,-28.320,-185.059
1688757395.809,-30.273,-32.715,-30.273,-25.879,-195.801
1688757395.813,-35.645,-31.738,-27.344,-26.855,-9.277
1688757395.817,-28.809,-25.391,-25.879,-27.832,29.785
1688757395.821,-23.438,-24.414,-26.367,-27.344,4.883
1688757395.825,-30.762,-25.879,-26.855,-31.738,31.250
1688757395.828,-35.156,-23.438,-27.344,-38.574,88.867
1688757395.832,-39.551,-24.414,-27.344,-35.156,104.980
1688757395.836,-42.969,-23.926,-26.367,-26.855,-155.273
1688757395.840,-37.598,-22.949,-23.926,-25.391,-203.125
1688757395.844,-36.621,-19.531,-16.602,-30.273,-85.938
1688757395.847,-36.621,-21.973,-15.625,-38.574,-135.742
1688757395.851,-36.133,-24.414,-16.113,-37.109,-148.438
1688757395.855,-32.227,-23.926,-13.184,-23.926,52.734
1688757395.859,-31.250,-29.785,-16.602,-31.738,272.949
1688757395.863,-34.180,-30.762,-20.996,-49.316,81.055
1688757395.867,-42.969,-26.855,-20.020,-54.688,-41.504
1688757395.871,-44.922,-36.133,-18.555,-42.969,12.695
1688757395.874,-20.508,-41.016,-18.555,-10.254,246.582
1688757395.878,-12.695,-20.996,-33.203,-20.996,61.035
1688757395.882,-23.926,0.488,-47.852,-60.547,-209.961
1688757395.886,-41.504,-3.906,-49.805,-74.219,-136.230
1688757395.890,-57.129,-25.879,-48.828,-69.336,-128.418
1688757395.892,-50.781,-31.250,-40.527,-62.012,-193.359
1688757395.896,-42.969,-26.855,-38.086,-58.105,-185.547
1688757395.900,-51.270,-31.250,-41.016,-59.570,-155.273
1688757395.904,-59.082,-32.227,-42.480,-57.129,-175.781
1688757395.908,-55.176,-29.785,-40.527,-48.828,-107.422
1688757395.912,-41.016,-30.273,-32.715,-44.434,-107.422
1688757395.916,-32.715,-21.973,-29.297,-31.738,218.262
1688757395.919,-32.715,-20.996,-32.227,-29.297,465.332
1688757395.923,-37.109,-25.879,-34.180,-39.062,-12.695
1688757395.927,-32.227,-23.926,-34.668,-34.180,-180.176
1688757395.931,-20.508,-26.367,-29.785,-25.391,-52.734
1688757395.935,-17.578,-26.855,-24.902,-17.090,-114.746
1688757395.937,-16.602,-30.273,-25.879,-20.508,-166.992
1688757395.941,-15.625,-33.203,-28.809,-24.414,-105.957
1688757395.945,-16.602,-25.879,-30.273,-25.391,-57.617
1688757395.949,-17.578,-24.414,-24.414,-19.531,-71.777
1688757395.953,-20.996,-36.133,-35.156,-18.555,-88.379
1688757395.957,-18.555,-33.691,-43.457,-27.344,21.484
1688757395.961,-21.973,-29.785,-30.273,-33.203,374.512
1688757395.964,-37.109,-40.527,-30.273,-47.852,333.984
1688757395.968,-36.621,-41.992,-39.062,-55.664,-110.352
1688757395.972,-34.668,-35.156,-39.062,-43.457,-187.500
1688757395.976,-35.645,-35.645,-35.156,-37.598,-63.477
1688757395.980,-31.738,-33.691,-32.715,-40.527,-118.652
1688757395.982,-33.691,-28.809,-33.691,-39.551,-206.055
1688757395.986,-33.691,-32.715,-37.598,-38.086,-145.996
1688757395.990,-25.879,-36.133,-38.086,-34.180,-38.574
1688757395.994,-19.531,-38.574,-40.527,-29.785,-82.520
1688757395.998,-23.438,-39.551,-45.410,-33.203,-169.434
1688757396.002,-32.715,-35.645,-41.504,-37.109,44.922
1688757396.006,-36.133,-34.668,-40.039,-37.109,109.375
1688757396.009,-36.621,-33.203,-37.109,-30.762,-68.848
1688757396.013,-25.879,-27.832,-32.715,-22.461,-135.742
1688757396.017,-18.555,-26.855,-33.691,-18.555,225.586
1688757396.021,-29.785,-32.715,-37.109,-24.902,263.672
1688757396.025,-29.785,-26.367,-41.504,-32.715,-161.133
1688757396.041,-16.602,-20.508,-28.809,-20.020,-187.988
1688757396.045,-16.602,-21.973,-17.090,-16.602,-118.652
1688757396.049,-22.949,-17.578,-24.414,-30.273,-134.277
1688757396.053,-22.461,-12.695,-25.879,-33.203,-185.547
1688757396.057,-20.996,-12.207,-21.484,-23.926,-99.121
1688757396.061,-21.973,-14.160,-23.926,-14.160,334.473
1688757396.065,-19.531,-17.578,-29.297,-19.531,173.340
1688757396.068,-19.531,-24.902,-33.203,-39.551,-196.777
1688757396.072,-36.621,-29.297,-37.598,-48.828,-119.141
1688757396.076,-45.410,-32.227,-35.645,-35.156,77.148
1688757396.080,-46.875,-34.668,-29.785,-31.250,-68.359
1688757396.084,-37.109,-34.668,-26.367,-29.297,-114.258
1688757396.086,-26.367,-32.227,-23.438,-27.344,16.113
1688757396.090,-27.832,-32.227,-20.020,-34.180,-26.855
1688757396.094,-37.109,-35.645,-26.367,-36.621,-140.137
1688757396.098,-45.410,-35.645,-32.227,-31.738,-153.809
1688757396.102,-36.133,-35.645,-27.832,-28.320,-59.082
1688757396.106,-30.762,-35.156,-24.902,-30.273,-43.457
1688757396.110,-33.691,-31.250,-27.832,-43.945,-62.012
1688757396.113,-39.062,-33.691,-30.273,-48.828,-129.395
1688757396.117,-47.852,-36.133,-27.832,-39.062,87.891
1688757396.121,-43.457,-35.645,-26.855,-40.039,145.508
1688757396.125,-27.832,-29.297,-36.133,-30.273,-124.512
1688757396.129,-27.832,-22.461,-35.645,-26.855,-128.906
1688757396.132,-63.965,-31.250,-31.738,-58.105,-82.520
1688757396.136,-83.496,-36.133,-41.016,-76.172,-112.305
1688757396.140,-73.242,-33.203,-43.945,-62.500,-114.258
1688757396.144,-57.617,-30.273,-35.645,-52.734,-33.691
1688757396.148,-55.176,-28.809,-26.367,-55.176,272.461
1688757396.152,-67.383,-30.762,-27.832,-68.848,256.348
1688757396.156,-54.199,-26.855,-30.273,-69.824,-20.508
1688757396.159,-43.457,-24.902,-17.090,-50.293,-58.105
1688757396.163,-39.551,-27.344,-15.137,-47.852,157.227
1688757396.167,-33.691,-20.508,-25.391,-52.246,-23.926
1688757396.171,-44.922,-16.113,-24.414,-52.246,-246.582
1688757396.175,-51.758,-23.926,-27.344,-53.223,-169.434
1688757396.191,-41.016,-26.855,-29.785,-40.527,-123.047
1688757396.195,-29.785,-26.367,-26.855,-33.203,-157.715
1688757396.199,-23.926,-25.879,-27.344,-26.855,-164.551
1688757396.203,-21.973,-23.438,-28.809,-24.414,-59.570
1688757396.207,-19.043,-20.996,-32.715,-28.320,-35.156
1688757396.211,-13.672,-22.949,-27.832,-19.043,-13.672
1688757396.215,-13.184,-22.461,-20.020,-22.461,5.859
1688757396.218,-11.719,-16.113,-15.625,-21.973,224.121
1688757396.222,-18.066,-16.602,-22.461,-25.879,364.258
1688757396.226,-28.320,-19.043,-37.598,-40.527,-70.801
1688757396.230,-25.879,-24.902,-34.668,-28.320,-204.102
1688757396.234,-25.879,-36.621,-31.250,-29.297,-27.344
1688757396.221,-29.785,-32.715,-29.297,-41.992,-116.699
1688757396.225,-31.250,-17.578,-25.391,-41.992,-243.652
1688757396.229,-38.574,-20.508,-28.320,-42.969,-133.789
1688757396.233,-34.668,-22.949,-25.391,-31.738,72.754
1688757396.237,-21.973,-18.066,-21.484,-20.508,-51.270
1688757396.241,-26.367,-20.020,-22.949,-25.879,-141.113
1688757396.245,-30.762,-22.949,-25.391,-30.762,79.590
1688757396.248,-29.785,-23.926,-24.902,-26.367,304.199
1688757396.252,-34.668,-25.391,-29.297,-28.809,30.762
1688757396.256,-35.156,-24.414,-33.691,-26.367,-196.289
1688757396.260,-27.344,-19.531,-31.738,-22.461,-49.805
1688757396.264,-24.902,-16.602,-25.391,-28.320,289.062
1688757396.267,-29.297,-15.625,-24.414,-31.250,90.820
1688757396.271,-30.273,-20.508,-25.391,-25.879,-182.617
1688757396.275,-20.020,-31.250,-29.297,-20.996,-124.023
1688757396.279,-16.113,-26.367,-34.180,-20.020,-158.691
1688757396.283,-20.508,-20.508,-32.715,-28.809,-213.379
1688757396.287,-27.344,-20.020,-33.203,-32.227,-142.578
1688757396.291,-31.250,-20.508,-30.762,-21.973,163.086
1688757396.294,-29.297,-25.391,-38.574,-16.113,203.613
1688757396.298,-28.809,-22.949,-40.039,-22.949,-138.184
1688757396.302,-32.715,-21.484,-29.785,-35.645,-139.648
1688757396.306,-32.227,-23.926,-23.438,-32.715,50.293
1688757396.310,-23.926,-19.531,-19.531,-23.926,-63.965
1688757396.327,-26.855,-22.461,-24.902,-21.484,-157.715
1688757396.331,-35.645,-34.180,-35.156,-26.855,-88.379
1688757396.335,-41.016,-39.062,-41.016,-43.457,-37.109
1688757396.339,-37.598,-31.738,-45.898,-46.387,-20.508
1688757396.343,-27.344,-25.879,-45.410,-40.527,-125.488
1688757396.347,-18.066,-27.344,-38.574,-36.621,-71.777
1688757396.351,-18.555,-17.090,-34.180,-32.715,354.492
1688757396.354,-24.902,-12.695,-28.320,-37.598,274.414
1688757396.358,-32.715,-16.113,-28.320,-44.434,-180.176
1688757396.362,-35.156,-17.090,-26.855,-41.016,-201.172
1688757396.366,-38.574,-17.090,-33.203,-33.203,-129.395
1688757396.370,-35.156,-17.578,-32.227,-30.273,-77.637
1688757396.371,-32.227,-20.020,-28.809,-39.062,-11.230
1688757396.375,-41.504,-26.855,-36.621,-37.109,9.766
1688757396.379,-41.504,-28.809,-36.133,-27.832,-8.301
1688757396.383,-35.645,-31.250,-34.668,-27.832,-141.113
1688757396.387,-32.715,-29.297,-32.715,-27.344,-114.258
1688757396.391,-28.809,-24.414,-30.273,-26.855,40.039
1688757396.395,-32.227,-35.156,-32.227,-30.273,-14.160
1688757396.398,-32.715,-39.062,-41.992,-39.062,-100.098
1688757396.402,-23.926,-23.438,-46.387,-42.969,-147.461
1688757396.406,-10.742,-13.184,-39.062,-32.715,75.195
1688757396.410,-15.137,-18.555,-32.715,-30.762,116.699
1688757396.414,-27.344,-36.133,-28.809,-42.480,-170.898
1688757396.417,-33.203,-35.156,-27.832,-42.969,-170.410
1688757396.421,-43.457,-28.809,-27.344,-36.133,-80.566
1688757396.425,-41.992,-38.086,-25.391,-33.691,-83.496
1688757396.429,-40.039,-40.039,-20.020,-39.551,-35.156
1688757396.433,-47.363,-33.691,-21.973,-46.387,60.547
1688757396.437,-43.945,-31.738,-30.273,-36.133,362.793
1688757396.441,-37.598,-38.574,-27.832,-33.691,184.082
1688757396.444,-30.762,-43.945,-27.832,-28.320,-186.523
1688757396.448,-20.996,-37.598,-29.785,-17.578,-95.215
1688757396.452,-29.785,-28.809,-36.621,-20.020,249.512
1688757396.456,-41.016,-33.691,-47.852,-30.762,70.801
1688757396.460,-39.062,-36.621,-40.527,-28.809,-171.387
1688757396.461,-34.668,-28.320,-26.367,-19.043,-39.551
1688757396.465,-34.180,-31.738,-23.926,-28.320,-51.270
1688757396.469,-36.621,-34.668,-29.297,-37.109,-170.898
1688757396.473,-33.203,-28.809,-29.297,-31.738,-153.320
1688757396.477,-30.762,-21.973,-26.367,-25.879,-120.605
1688757396.481,-34.180,-25.879,-27.832,-32.715,-40.527
1688757396.485,-34.668,-26.855,-29.785,-41.504,36.133
1688757396.488,-33.691,-24.902,-28.809,-38.574,-0.488
1688757396.492,-30.762,-24.902,-19.043,-34.180,170.898
1688757396.496,-28.320,-16.602,-15.137,-25.391,300.293
1688757396.500,-28.320,-22.949,-20.508,-10.254,-54.688
1688757396.504,-15.625,-38.086,-24.902,5.371,-181.152
1688757396.506,-4.883,-22.949,-31.738,-1.465,-62.012
1688757396.510,-18.555,-6.348,-37.109,-34.180,-196.777
1688757396.514,-26.367,-12.207,-32.227,-46.875,-224.121
1688757396.518,-18.555,-15.625,-28.320,-33.691,-7.324
1688757396.522,-9.766,-15.137,-29.785,-23.926,156.250
1688757396.526,-5.859,-11.719,-33.203,-23.926,50.781
1688757396.530,-11.230,-12.207,-35.156,-29.297,-110.840
1688757396.533,-12.695,-14.160,-35.645,-30.762,-17.578
1688757396.537,-4.883,-12.207,-35.156,-20.996,304.688
1688757396.541,1.465,-8.789,-38.086,-19.531,145.996
1688757396.545,-0.977,-13.672,-40.039,-29.297,-181.641
1688757396.549,-15.137,-19.043,-30.762,-38.086,-190.918
1688757396.567,-21.973,-21.973,-28.320,-39.062,-184.082
1688757396.571,-21.973,-27.344,-30.762,-28.320,-158.691
1688757396.575,-18.555,-30.273,-32.227,-26.855,-148.926
1688757396.579,-13.184,-26.367,-30.273,-32.715,-92.773
1688757396.583,-14.160,-21.484,-31.250,-28.320,-89.844
1688757396.587,-25.391,-27.832,-36.621,-27.832,-67.383
1688757396.591,-28.320,-34.180,-35.645,-22.949,34.180
1688757396.594,-21.973,-37.109,-36.133,-15.137,184.570
1688757396.598,-25.879,-44.434,-43.457,-29.297,176.270
1688757396.602,-28.320,-45.410,-44.922,-42.480,-136.719
1688757396.606,-27.832,-43.457,-50.781,-38.086,-157.715
1688757396.610,-35.156,-41.016,-48.340,-30.273,29.785
1688757396.596,-40.527,-41.504,-43.457,-31.250,-76.172
1688757396.600,-36.621,-47.363,-49.316,-41.504,-199.219
1688757396.604,-38.574,-47.363,-46.875,-45.898,-104.980
1688757396.608,-39.062,-46.387,-39.551,-40.527,48.340
1688757396.612,-41.504,-44.434,-40.527,-37.598,-42.480
1688757396.616,-40.527,-39.551,-41.504,-31.250,-77.637
1688757396.620,-31.250,-40.039,-38.086,-32.227,16.113
1688757396.623,-27.344,-39.062,-41.016,-48.340,-4.883
1688757396.627,-31.738,-30.273,-42.969,-46.875,-140.625
1688757396.631,-26.367,-23.926,-41.016,-29.785,-228.516
1688757396.635,-22.461,-21.973,-37.598,-23.926,-65.918
1688757396.639,-21.484,-23.438,-37.109,-25.391,304.199
1688757396.644,-28.320,-28.320,-44.434,-37.598,129.883
1688757396.648,-38.574,-30.273,-42.969,-41.504,-162.109
1688757396.652,-34.180,-27.832,-38.086,-30.762,-38.574
1688757396.656,-28.809,-25.391,-39.062,-32.227,3.906
1688757396.660,-21.973,-29.297,-35.156,-23.926,-100.098
1688757396.664,-20.020,-27.832,-31.250,-19.043,-89.844
1688757396.668,-28.809,-28.320,-30.273,-20.996,168.457
1688757396.671,-27.344,-31.738,-31.738,-20.508,215.332
1688757396.675,-29.297,-35.156,-35.645,-33.203,-108.398
1688757396.679,-34.180,-46.875,-33.203,-33.691,-178.711
1688757396.683,-12.207,-48.340,-22.949,-13.672,-80.566
1688757396.687,-10.254,-32.227,-33.691,-18.066,-79.590
1688757396.686,-35.645,-23.438,-46.875,-43.945,-110.352
1688757396.690,-39.551,-27.344,-42.480,-41.992,-91.797
1688757396.694,-26.855,-34.180,-40.527,-24.414,17.578
1688757396.698,-23.438,-40.527,-43.457,-24.414,51.758
1688757396.702,-31.738,-42.480,-37.109,-24.414,34.180
1688757396.706,-43.457,-39.551,-41.016,-28.320,76.172
1688757396.710,-33.203,-33.691,-44.922,-23.438,377.930
1688757396.713,-20.508,-31.250,-43.457,-17.578,400.879
1688757396.717,-31.250,-34.180,-43.457,-36.133,-72.754
1688757396.721,-30.273,-30.762,-38.086,-41.016,-226.562
1688757396.725,-29.297,-25.879,-41.016,-31.738,-175.781
1688757396.729,-31.250,-25.879,-39.551,-24.902,-180.176
1688757396.733,-20.020,-20.996,-30.273,-19.043,-207.031
1688757396.737,-17.578,-24.414,-25.879,-24.902,-70.801
1688757396.741,-17.578,-30.273,-27.344,-34.180,-18.066
1688757396.745,-25.879,-33.691,-30.762,-35.645,-189.941
1688757396.749,-23.926,-33.203,-31.738,-27.832,-150.879
1688757396.753,-25.879,-32.227,-31.250,-19.531,123.535
1688757396.757,-30.762,-37.109,-36.133,-26.367,93.262
1688757396.760,-22.949,-37.598,-39.062,-32.715,0.977
1688757396.764,-27.344,-32.715,-34.180,-35.156,-91.797
1688757396.768,-24.414,-30.762,-32.227,-27.344,49.316
1688757396.772,-19.043,-26.367,-37.598,-19.043,177.734
1688757396.776,-27.832,-30.762,-40.039,-33.203,-149.414
1688757396.792,-29.297,-35.156,-35.645,-45.410,-192.871
1688757396.796,-25.391,-32.227,-32.227,-45.410,-125.977
1688757396.800,-33.691,-32.227,-29.297,-34.668,-138.672
1688757396.804,-37.598,-30.273,-30.273,-25.879,-72.266
1688757396.808,-26.367,-28.320,-30.762,-21.484,3.418
1688757396.812,-17.090,-25.391,-27.344,-13.672,261.230
1688757396.816,-18.555,-17.578,-31.738,-16.602,140.137
1688757396.819,-24.902,-29.297,-29.785,-13.672,-218.262
1688757396.823,1.465,-41.016,-16.113,24.902,-80.078
1688757396.827,14.648,-21.484,-20.996,16.113,277.832
1688757396.831,-39.551,-9.766,-37.109,-57.129,35.156
1688757396.835,-76.172,-14.160,-40.527,-82.031,-269.531
1688757396.836,-62.012,-16.602,-35.156,-58.105,-200.684
1688757396.840,-61.035,-17.578,-34.180,-60.547,-144.531
1688757396.844,-75.195,-14.160,-38.086,-87.402,-181.641
1688757396.848,-77.148,-10.742,-36.621,-90.820,-171.387
1688757396.852,-86.426,-15.137,-43.945,-96.191,-65.430
1688757396.856,-89.355,-19.531,-44.434,-92.773,-6.836
1688757396.860,-77.637,-16.602,-36.621,-81.543,53.711
1688757396.863,-70.312,-20.508,-50.781,-83.984,-66.895
1688757396.867,-68.359,-24.902,-50.293,-83.984,63.965
1688757396.871,-70.312,-27.344,-38.086,-76.660,145.996
1688757396.875,-70.801,-26.855,-40.527,-75.195,-116.211
1688757396.879,-51.270,-23.438,-39.551,-66.895,-98.145
1688757396.881,-42.480,-28.320,-37.109,-56.152,89.844
1688757396.885,-42.480,-31.738,-32.227,-59.082,-19.043
1688757396.889,-43.457,-26.855,-32.227,-59.082,-161.621
1688757396.893,-47.363,-27.832,-35.645,-53.711,9.277
1688757396.897,-44.922,-34.180,-26.855,-43.457,208.496
1688757396.901,-36.133,-36.133,-22.461,-38.574,76.660
1688757396.905,-34.180,-34.180,-21.973,-45.410,-113.281
1688757396.908,-40.527,-35.156,-20.996,-51.270,-94.727
1688757396.912,-35.645,-37.109,-24.902,-41.016,147.461
1688757396.916,-22.461,-30.273,-24.902,-34.668,-56.641
1688757396.920,-9.766,-23.926,-24.414,-32.715,-215.820
1688757396.924,-17.578,-25.391,-31.250,-30.762,-109.375
1688757396.928,-25.879,-28.809,-38.574,-39.062,-152.832
1688757396.932,-31.738,-26.367,-38.574,-43.945,-164.551
1688757396.936,-35.645,-28.809,-38.086,-40.527,-119.141
1688757396.940,-22.949,-33.203,-36.133,-25.879,-12.207
1688757396.944,-21.484,-23.926,-29.785,-25.879,33.203
1688757396.948,-31.250,-24.414,-32.715,-43.945,-29.785
1688757396.952,-36.621,-28.320,-34.668,-43.945,-104.492
1688757396.955,-29.785,-23.438,-26.367,-26.855,102.539
1688757396.959,-14.648,-21.973,-26.855,-20.996,259.766
1688757396.963,-15.625,-17.578,-27.344,-27.344,-51.270
1688757396.967,-20.508,-17.578,-27.832,-23.438,-151.367
1688757396.971,-26.367,-20.508,-31.738,-24.902,-39.551
1688757396.971,-36.621,-20.020,-27.344,-30.762,-91.797
1688757396.975,-26.367,-21.484,-23.926,-28.809,-159.180
1688757396.979,-12.207,-20.996,-30.762,-24.902,-74.707
1688757396.983,-20.020,-27.832,-31.738,-31.738,98.633
1688757396.987,-39.551,-33.203,-33.691,-45.410,-26.367
1688757396.991,-41.016,-34.180,-34.668,-36.133,-47.852
1688757396.995,-39.551,-38.086,-32.227,-29.297,25.391
1688757396.998,-32.715,-36.621,-39.062,-20.508,340.820
1688757397.002,-23.926,-33.691,-36.133,-21.484,333.496
1688757397.006,-35.156,-24.414,-30.273,-42.480,-125.488
1688757397.010,-38.574,-19.531,-35.156,-41.016,-207.520
1688757397.014,-24.902,-20.020,-30.762,-34.180,-154.785
1688757397.017,-25.879,-20.020,-27.832,-42.480,-202.637
1688757397.021,-30.762,-20.020,-34.668,-50.293,-187.988
1688757397.025,-32.227,-22.949,-32.227,-53.711,-87.402
1688757397.029,-43.945,-24.414,-21.973,-61.523,-104.004
1688757397.033,-37.109,-17.578,-32.227,-45.410,-138.184
1688757397.037,-25.391,-20.020,-38.574,-31.250,-40.039
1688757397.041,-29.297,-28.320,-28.320,-33.691,285.645
1688757397.044,-37.109,-27.344,-30.273,-39.062,334.473
1688757397.048,-38.574,-27.344,-30.762,-46.387,-73.730
1688757397.052,-28.809,-28.809,-28.809,-34.180,-142.090
1688757397.056,-26.367,-27.344,-29.785,-27.344,43.457
1688757397.060,-26.367,-28.320,-28.809,-39.551,-87.402
1688757397.062,-24.902,-25.879,-28.320,-38.574,-244.141
1688757397.066,-31.250,-26.855,-27.832,-32.715,-178.711
1688757397.070,-34.180,-27.344,-25.391,-30.762,-77.637
1688757397.074,-33.203,-26.855,-25.391,-35.645,-94.238
1688757397.078,-23.926,-32.227,-29.785,-26.855,-138.184
1688757397.082,-18.066,-26.855,-27.344,-16.602,32.227
1688757397.086,-25.879,-22.949,-26.855,-23.926,412.109
1688757397.089,-32.715,-21.973,-29.785,-27.344,318.359
1688757397.093,-23.926,-13.184,-20.020,-21.484,-94.238
1688757397.097,-15.137,-11.719,-22.461,-19.043,-85.938
1688757397.101,-9.277,-8.789,-41.016,-21.973,-74.707
1688757397.105,5.371,-1.465,-40.039,-13.672,-190.918
1688757397.107,-9.766,-16.602,-13.184,-14.648,-178.711
1688757397.111,-39.062,-33.203,-7.812,-20.508,-89.355
1688757397.115,-35.645,-34.668,-18.066,-22.949,-55.176
1688757397.119,-25.879,-37.109,-28.320,-31.738,-147.461
1688757397.123,-23.438,-37.598,-38.086,-26.855,-155.762
1688757397.127,-21.484,-38.086,-28.809,-22.949,-2.441
1688757397.131,-21.973,-39.062,-19.531,-22.461,82.031
1688757397.134,-5.859,-31.738,-23.438,-8.789,-11.719
1688757397.138,11.719,-20.020,-32.227,-5.859,-93.262
1688757397.142,-2.930,-21.484,-28.320,-9.277,78.613
1688757397.146,-16.602,-25.391,-24.902,-4.395,57.617
1688757397.150,-12.207,-27.344,-26.367,-0.977,-131.836
1688757397.166,-15.137,-28.320,-26.855,-2.930,-128.906
1688757397.170,-20.508,-24.414,-27.832,-13.184,0.488
1688757397.174,-27.344,-26.855,-25.391,-19.531,-58.105
1688757397.178,-24.414,-27.832,-15.625,-8.301,-84.961
1688757397.182,-16.113,-29.297,-13.672,-5.371,-17.578
1688757397.186,-7.324,-28.809,-14.160,2.441,261.230
1688757397.190,-9.277,-31.250,-16.602,-1.465,140.137
1688757397.193,-21.484,-35.645,-24.902,-16.602,-193.359
1688757397.197,-29.297,-36.621,-26.367,-25.879,-148.438
1688757397.201,-28.320,-40.039,-24.414,-25.391,16.602
1688757397.205,-21.484,-34.180,-32.715,-28.809,-140.137
1688757397.209,-13.672,-21.484,-36.621,-33.203,-254.395
1688757397.211,-12.207,-14.160,-28.809,-28.320,-169.434
1688757397.215,-24.902,-17.090,-20.508,-27.832,-99.609
1688757397.219,-33.203,-20.020,-19.531,-18.066,-133.301
1688757397.223,-25.391,-23.926,-22.949,-15.137,-135.254
1688757397.227,-22.461,-28.320,-26.855,-19.531,19.043
1688757397.231,-30.273,-24.414,-26.367,-31.738,45.410
1688757397.235,-40.039,-20.020,-26.367,-41.504,-59.082
1688757397.238,-38.086,-24.902,-30.762,-34.180,-76.172
1688757397.242,-22.949,-25.879,-29.297,-29.785,127.930
1688757397.246,-15.625,-28.320,-31.250,-30.273,185.547
1688757397.250,-21.484,-29.785,-31.250,-40.039,-125.488
1688757397.254,-30.273,-24.414,-23.926,-40.039,-172.852
1688757397.257,-34.180,-31.250,-25.879,-31.738,-70.312
1688757397.261,-27.832,-37.598,-31.738,-28.320,-111.816
1688757397.265,-20.020,-34.668,-34.180,-31.250,-156.250
1688757397.269,-19.531,-32.227,-28.320,-35.645,-38.574
1688757397.273,-34.668,-32.227,-28.320,-29.785,314.941
1688757397.277,-48.340,-33.203,-35.156,-32.715,234.863
1688757397.281,-39.551,-33.691,-31.738,-32.715,-50.781
1688757397.284,-30.762,-31.738,-27.832,-26.855,-26.855
1688757397.288,-31.738,-27.832,-21.973,-24.902,283.691
1688757397.292,-33.691,-30.273,-22.949,-32.227,129.883
1688757397.296,-38.086,-31.250,-33.203,-37.109,-186.035
1688757397.300,-19.043,-25.879,-41.992,-28.809,-162.598
1688757397.302,-5.371,-21.484,-41.016,-18.066,-161.133
1688757397.306,-34.668,-30.273,-23.926,-33.203,-199.219
1688757397.310,-52.246,-40.039,-18.066,-45.410,-182.129
1688757397.314,-33.203,-38.574,-23.926,-39.551,-115.234
1688757397.318,-24.414,-32.715,-27.832,-29.785,-102.051
1688757397.322,-31.738,-39.062,-23.438,-26.367,-64.941
1688757397.326,-26.367,-47.363,-19.531,-29.297,11.719
1688757397.329,-14.648,-45.898,-23.438,-20.508,230.957
1688757397.333,-15.137,-39.551,-31.738,-8.301,340.820
1688757397.337,-18.555,-36.621,-30.273,-21.484,-57.129
1688757397.341,-19.043,-30.273,-21.973,-31.738,-216.309
1688757397.345,-21.973,-28.809,-36.621,-30.762,-68.359
1688757397.346,-25.879,-33.691,-41.504,-34.180,-85.449
1688757397.350,-34.668,-34.180,-33.203,-36.621,-177.246
1688757397.354,-48.340,-42.480,-36.621,-38.574,-128.906
1688757397.358,-35.645,-41.992,-33.203,-29.297,36.133
1688757397.362,-30.762,-31.738,-29.297,-32.715,-53.223
1688757397.366,-39.551,-28.809,-34.180,-38.574,-4.395
1688757397.370,-26.855,-28.809,-37.109,-24.414,108.398
1688757397.373,-20.996,-29.785,-34.668,-15.137,265.137
1688757397.377,-29.785,-28.320,-32.227,-21.973,203.125
1688757397.381,-31.738,-24.414,-34.668,-29.297,-88.867
1688757397.385,-23.926,-19.531,-36.133,-32.227,-112.305
1688757397.389,-24.414,-22.949,-36.621,-32.715,-49.316
1688757397.392,-28.320,-27.832,-33.203,-35.645,-129.883
1688757397.396,-27.344,-23.438,-33.203,-37.598,-159.668
