timestamps,TP9,AF7,AF8,TP10,Right AUX
1688255180.457,-152.832,-63.965,-43.945,24.902,38.574
1688255180.461,-127.441,-69.336,-54.688,30.273,132.812
1688255180.465,55.664,-61.523,-53.711,-46.387,-129.395
1688255180.469,112.305,-53.711,-41.016,-89.844,-221.191
1688255180.473,14.648,-46.875,-37.598,-40.527,63.477
1688255180.477,-160.156,-50.293,-38.574,35.645,146.484
1688255180.481,-156.738,-59.082,-32.227,30.762,79.590
1688255180.484,36.621,-57.129,-25.879,-47.363,60.059
1688255180.488,123.535,-59.570,-39.062,-64.941,119.141
1688255180.492,40.039,-56.152,-56.152,-25.391,-90.332
1688255180.496,-127.441,-56.641,-46.387,38.574,-126.953
1688255180.500,-151.855,-69.336,-38.086,44.922,50.781
1688255180.517,21.484,-70.801,-46.875,-30.762,20.508
1688255180.521,118.164,-65.430,-46.387,-83.984,-215.332
1688255180.525,55.176,-62.988,-42.969,-59.570,-211.426
1688255180.529,-85.449,-49.805,-57.129,2.930,25.879
1688255180.533,-147.461,-48.340,-54.199,15.137,48.340
1688255180.537,-11.719,-49.805,-47.852,-36.621,-55.664
1688255180.541,119.629,-52.246,-47.852,-79.102,-99.609
1688255180.544,94.727,-59.570,-45.410,-52.246,70.801
1688255180.548,-99.609,-60.059,-38.086,11.230,129.883
1688255180.552,-222.168,-61.035,-29.785,30.273,-13.672
1688255180.556,-63.965,-57.617,-27.832,-25.391,-33.203
1688255180.560,95.215,-57.617,-34.180,-83.008,-98.633
1688255180.549,90.820,-59.082,-47.852,-48.340,-100.586
1688255180.553,-66.895,-60.059,-46.875,8.301,-39.551
1688255180.557,-177.246,-51.758,-41.504,26.855,124.512
1688255180.561,-50.781,-46.387,-49.316,-6.348,348.145
1688255180.565,97.656,-44.922,-56.152,-80.078,-21.484
1688255180.569,82.031,-54.688,-68.359,-83.984,-299.316
1688255180.573,-55.176,-67.383,-79.102,-20.020,-62.988
1688255180.576,-171.387,-68.848,-55.664,31.738,88.379
1688255180.580,-81.543,-67.871,-40.039,7.812,-21.973
1688255180.584,91.309,-66.895,-41.016,-62.500,-215.332
1688255180.588,102.051,-58.105,-30.273,-75.684,-105.469
1688255180.592,-39.551,-52.734,-32.227,2.930,208.496
1688255180.607,-184.082,-57.617,-53.223,55.664,64.453
1688255180.611,-95.703,-53.223,-55.176,0.977,-61.523
1688255180.615,72.266,-53.711,-51.270,-68.359,-56.641
1688255180.619,109.375,-57.617,-55.664,-71.289,-142.578
1688255180.623,-8.301,-66.406,-61.035,-19.531,-187.012
1688255180.627,-193.359,-75.684,-64.453,22.949,-64.453
1688255180.631,-133.301,-74.219,-54.688,13.184,365.234
1688255180.634,72.266,-73.242,-55.176,-47.852,355.469
1688255180.638,111.816,-73.730,-48.340,-98.633,-246.094
1688255180.642,8.301,-62.988,-34.668,-66.406,-314.453
1688255180.646,-176.758,-49.316,-30.273,19.531,-46.875
1688255180.650,-160.645,-51.270,-38.086,19.043,-46.387
1688255180.638,47.852,-54.199,-46.387,-63.965,-120.605
1688255180.642,123.535,-52.734,-44.922,-82.520,-106.445
1688255180.646,26.855,-56.641,-64.453,-36.133,-62.988
1688255180.650,-159.180,-60.547,-82.520,15.625,-20.020
1688255180.654,-175.781,-57.617,-59.570,28.809,-7.812
1688255180.658,26.367,-57.129,-27.344,-41.504,35.156
1688255180.662,121.582,-56.641,-28.320,-86.914,236.816
1688255180.665,37.598,-54.199,-40.039,-54.688,30.762
1688255180.669,-146.484,-54.688,-41.992,2.930,-166.016
1688255180.673,-187.012,-50.781,-40.039,35.156,35.645
1688255180.677,14.160,-60.059,-38.086,-2.930,287.598
1688255180.681,124.023,-66.895,-36.133,-66.406,-53.711
1688255180.698,65.918,-52.734,-41.504,-46.387,-289.062
1688255180.702,-88.379,-50.293,-53.223,21.973,-43.457
1688255180.706,-184.082,-52.246,-73.242,24.414,19.531
1688255180.710,-38.574,-53.711,-60.547,-27.832,-138.184
1688255180.714,132.324,-52.246,-23.438,-63.477,-244.141
1688255180.718,113.281,-50.781,-23.926,-51.758,-104.980
1688255180.722,-57.129,-57.129,-33.691,6.348,-10.742
1688255180.725,-157.715,-55.176,-39.062,37.598,-7.324
1688255180.729,-48.828,-50.293,-36.621,-15.137,-25.391
1688255180.733,97.656,-46.387,-35.645,-64.941,124.023
1688255180.737,104.004,-48.828,-45.410,-62.012,86.914
1688255180.741,-44.922,-49.805,-48.828,-3.418,-136.230
1688255180.742,-175.781,-43.457,-41.992,46.875,-42.480
1688255180.746,-63.477,-48.340,-45.410,1.465,117.676
1688255180.750,99.121,-56.152,-54.199,-71.289,-97.656
1688255180.754,82.520,-58.105,-44.922,-80.566,-315.430
1688255180.758,-56.641,-60.059,-30.762,-10.254,-46.387
1688255180.762,-163.086,-63.965,-29.297,51.270,241.699
1688255180.766,-75.195,-62.988,-41.504,18.066,152.832
1688255180.769,108.398,-54.688,-46.875,-51.270,-120.605
1688255180.773,130.371,-60.059,-37.598,-67.871,-154.297
1688255180.777,-20.996,-60.059,-31.738,-9.277,188.965
1688255180.781,-192.383,-52.734,-38.574,46.387,136.719
1688255180.785,-144.043,-54.199,-51.270,10.254,-62.500
1688255180.787,61.035,-53.711,-60.059,-56.641,-77.148
1688255180.791,113.281,-53.711,-43.945,-81.055,-152.344
1688255180.795,-0.977,-56.641,-20.508,-46.387,-248.047
1688255180.799,-145.996,-54.688,-19.531,13.184,-106.445
1688255180.803,-124.023,-62.012,-29.297,20.020,82.520
1688255180.807,55.176,-67.871,-47.363,-28.320,85.449
1688255180.811,123.535,-51.758,-52.246,-69.824,-97.168
1688255180.814,33.691,-45.898,-39.551,-43.457,-200.195
1688255180.818,-133.789,-49.316,-38.574,40.039,205.078
1688255180.822,-146.484,-51.270,-45.898,41.504,256.836
1688255180.826,48.340,-64.453,-35.156,-46.875,-139.160
1688255180.830,134.766,-66.406,-37.109,-62.012,-248.535
1688255180.833,56.641,-55.664,-37.598,-0.488,-220.215
1688255180.837,-107.422,-51.270,-41.992,56.152,-21.484
1688255180.841,-167.480,-46.875,-45.898,37.109,102.539
1688255180.845,12.207,-53.711,-43.945,-41.016,45.410
1688255180.849,119.629,-61.035,-72.266,-72.266,175.293
1688255180.853,64.453,-61.035,-65.918,-60.547,41.992
1688255180.857,-87.891,-67.871,-47.363,-11.719,-99.609
1688255180.860,-169.434,-60.059,-56.152,33.203,93.262
1688255180.864,-12.695,-52.734,-53.711,-17.578,219.238
1688255180.868,125.000,-49.316,-45.898,-81.055,-132.324
1688255180.872,86.426,-46.387,-54.199,-62.500,-300.781
1688255180.876,-58.594,-57.129,-46.875,6.836,-73.242
1688255180.877,-166.016,-65.918,-43.945,62.988,43.457
1688255180.881,-59.570,-60.059,-49.805,25.391,-90.820
1688255180.885,89.844,-52.246,-35.156,-58.594,-224.609
1688255180.889,91.797,-50.781,-30.762,-75.195,-74.707
1688255180.893,-62.012,-49.316,-42.969,-13.672,34.180
1688255180.897,-190.918,-54.688,-46.875,39.062,41.992
1688255180.901,-72.266,-58.105,-44.922,3.906,59.570
1688255180.904,90.332,-49.316,-50.293,-43.457,136.719
1688255180.908,107.422,-49.805,-63.965,-43.457,58.105
1688255180.912,-32.227,-61.523,-48.340,-0.488,-156.738
1688255180.916,-200.684,-54.688,-29.297,53.223,-31.738
1688255180.920,-107.910,-55.176,-27.832,13.672,-8.301
1688255180.922,108.398,-57.617,-19.531,-35.156,-183.105
1688255180.926,144.531,-48.828,-30.273,-34.180,-238.770
1688255180.930,7.812,-46.387,-44.922,-5.859,-104.004
1688255180.934,-165.039,-44.922,-42.480,16.113,128.906
1688255180.938,-94.238,-46.875,-42.480,-1.953,5.859
1688255180.942,128.418,-52.246,-42.480,-56.152,-147.461
1688255180.946,108.887,-51.758,-51.758,-89.355,-23.926
1688255180.949,-26.855,-54.199,-58.594,-30.273,291.504
1688255180.953,-159.180,-48.340,-63.477,41.992,155.273
1688255180.957,-136.719,-37.109,-73.730,22.461,-37.109
1688255180.961,38.086,-45.898,-70.801,-50.293,-63.477
1688255180.965,97.168,-55.176,-62.988,-83.496,-240.723
1688255180.967,3.418,-50.781,-64.453,-53.711,-264.648
1688255180.971,-139.648,-56.641,-46.875,26.367,-56.641
1688255180.975,-117.676,-67.383,-28.320,37.598,137.207
1688255180.979,41.504,-62.988,-40.527,-51.270,-20.508
1688255180.983,122.070,-57.617,-54.688,-68.359,-226.562
1688255180.987,50.781,-61.035,-52.246,-7.812,-41.992
1688255180.991,-134.277,-57.617,-33.203,55.664,420.410
1688255180.994,-151.855,-51.758,-49.316,46.387,407.227
1688255180.998,21.484,-47.363,-50.781,-38.574,-30.273
1688255181.002,98.145,-45.410,-24.902,-98.633,-217.773
1688255181.006,45.898,-53.711,-24.414,-51.270,-75.684
1688255181.010,-94.238,-58.594,-30.762,35.645,9.766
1688255181.012,-126.465,-56.152,-40.039,77.637,-6.348
1688255181.016,8.301,-62.988,-64.453,29.297,43.945
1688255181.020,100.586,-62.988,-68.359,-47.363,42.969
1688255181.024,71.777,-50.781,-41.016,-32.715,-197.266
1688255181.028,-62.500,-41.504,-34.668,51.758,-219.727
1688255181.032,-153.320,-46.387,-34.180,75.195,144.043
1688255181.036,1.953,-41.504,-11.230,19.043,268.555
1688255181.039,141.602,-35.645,-5.371,-60.059,-186.035
1688255181.043,79.590,-45.410,-22.461,-63.477,-383.301
1688255181.047,-66.406,-56.641,-64.941,52.734,-122.070
1688255181.051,-168.457,-53.711,-82.520,86.914,100.098
1688255181.055,-76.660,-58.594,-66.895,-19.043,1.465
1688255181.060,73.242,-69.336,-53.711,-117.676,-157.715
1688255181.064,104.004,-72.754,-22.949,-83.008,-78.125
1688255181.068,-9.277,-63.477,0.488,22.949,-11.230
1688255181.072,-165.039,-63.477,-18.555,47.363,-58.594
1688255181.076,-94.238,-56.152,-39.062,-6.348,-12.695
1688255181.080,66.895,-25.391,-49.805,-93.750,71.777
1688255181.084,94.727,-23.926,-58.594,-131.348,-28.809
1688255181.087,-25.879,-41.504,-38.086,-36.133,-119.629
1688255181.091,-187.500,-56.152,-47.363,31.250,-11.719
1688255181.095,-113.281,-79.102,-78.125,-2.441,271.973
1688255181.099,72.754,-86.914,-58.105,-71.777,93.262
1688255181.103,121.094,-74.219,-29.297,-99.609,-319.824
1688255181.118,-10.254,-64.453,-41.016,-24.414,-190.430
1688255181.122,-162.109,-58.594,-42.969,54.199,166.992
1688255181.126,-86.426,-48.340,-58.594,22.949,111.816
1688255181.130,99.121,-52.734,-41.992,-67.871,-219.238
1688255181.134,141.113,-32.715,-19.531,-87.402,-294.434
1688255181.138,37.109,-12.207,-48.340,-32.227,168.457
1688255181.142,-128.906,-13.184,-49.316,35.645,246.094
1688255181.145,-126.953,-43.945,-20.996,22.461,17.090
1688255181.149,72.266,-82.520,-39.551,-79.590,-51.270
1688255181.153,139.160,-73.730,-31.738,-68.848,-95.703
1688255181.157,31.738,-51.270,-20.508,-36.621,-231.445
1688255181.161,-140.137,-50.293,-62.012,-37.109,-133.301
1688255181.162,-194.336,-49.316,-63.965,5.371,67.871
1688255181.166,-12.207,-40.527,-54.199,-45.898,-34.180
1688255181.170,109.863,-43.945,-67.383,-138.184,-261.230
1688255181.174,29.785,-52.246,-37.598,-92.773,-172.852
1688255181.178,-137.695,-49.316,-12.695,0.488,167.480
1688255181.182,-209.961,-62.012,-20.508,19.531,209.961
1688255181.186,-13.184,-66.406,-21.484,-52.734,99.609
1688255181.189,145.996,-56.641,-46.875,-94.727,-168.457
1688255181.193,81.543,-71.289,-59.082,-42.480,25.391
1688255181.197,-74.219,-59.570,-50.781,25.391,274.902
1688255181.201,-169.434,-32.715,-63.477,39.062,-2.441
1688255181.205,-35.645,-24.902,-14.648,-32.227,-116.211
1688255181.207,83.984,-40.527,16.602,-146.484,-143.066
1688255181.211,22.461,-61.035,-7.812,-133.789,-128.906
1688255181.215,-87.891,-59.082,-30.762,-2.441,-96.680
1688255181.219,-185.547,-38.574,-60.059,47.852,28.320
1688255181.223,-85.938,-32.227,-69.336,-43.457,146.973
1688255181.227,102.051,-30.273,-48.340,-107.910,-63.477
1688255181.231,112.793,-24.902,-61.523,-94.727,-168.457
1688255181.234,-42.969,-39.551,-61.035,-12.207,68.359
1688255181.238,-178.711,-41.992,9.277,28.320,443.848
1688255181.242,-59.570,-33.691,37.598,-41.992,163.574
1688255181.246,95.215,-52.734,6.836,-108.887,-250.977
1688255181.250,112.305,-53.223,-35.156,-109.863,-290.039
1688255181.252,3.906,-34.180,-64.941,-23.926,-222.656
1688255181.256,-193.359,-45.898,-59.082,18.555,-98.145
1688255181.260,-153.320,-58.594,-34.180,-44.922,-45.898
1688255181.264,40.039,-59.570,-34.180,-125.977,-104.980
1688255181.268,66.406,-63.477,-33.203,-135.742,-251.953
1688255181.272,-5.371,-54.688,-18.066,-43.457,-174.316
1688255181.276,-124.512,-41.992,-8.789,53.223,64.941
1688255181.279,-125.488,-42.969,-3.418,14.160,286.621
1688255181.283,50.781,-39.551,-33.203,-93.262,82.031
1688255181.287,85.449,-34.668,-66.895,-105.957,-243.164
1688255181.291,-5.371,-34.668,-48.828,-35.645,-121.582
1688255181.295,-149.902,-40.039,-39.062,33.203,122.559
1688255181.298,-147.461,-39.551,-37.598,20.996,118.652
1688255181.302,61.035,-26.855,-37.598,-41.992,8.789
1688255181.306,144.531,-24.414,-38.574,-65.430,-96.191
1688255181.310,57.129,-33.691,-17.578,-14.648,206.543
1688255181.314,-127.930,-37.109,0.488,41.016,297.363
1688255181.318,-194.336,-33.203,-0.977,8.301,-16.602
1688255181.322,-12.207,-21.973,-19.043,-56.152,2.930
1688255181.325,111.816,-24.414,-33.203,-101.562,138.672
1688255181.329,41.504,-31.250,-38.086,-96.680,-146.484
1688255181.333,-144.043,-37.598,-45.410,-17.578,-184.082
1688255181.337,-186.523,-30.273,-50.781,19.043,15.137
1688255181.341,-2.441,-20.996,-43.945,-55.176,-68.848
1688255181.358,114.746,-23.438,-38.086,-104.004,-280.762
1688255181.362,68.848,-19.531,-36.621,-53.711,-303.223
1688255181.366,-81.543,-19.043,-17.090,13.672,19.043
1688255181.370,-177.246,-24.414,-7.812,17.578,173.828
1688255181.374,-23.926,-22.949,-20.508,-49.316,-19.531
1688255181.378,128.906,-21.973,-27.344,-93.262,-108.398
1688255181.382,79.590,-26.855,-19.043,-61.035,167.480
1688255181.385,-90.332,-29.297,-27.344,14.648,208.984
1688255181.389,-191.895,-23.438,-62.988,35.156,-53.711
1688255181.393,-40.039,-30.273,-69.824,-3.906,-123.047
1688255181.397,116.211,-40.527,-28.320,-59.570,-178.223
1688255181.401,75.195,-39.062,5.371,-70.312,-243.652
1688255181.388,-67.871,-32.715,0.000,-0.488,-155.273
1688255181.392,-175.781,-37.109,-22.461,43.457,127.930
1688255181.396,-63.477,-42.480,-43.945,-49.805,362.305
1688255181.400,100.586,-40.039,-53.711,-140.137,-5.859
1688255181.404,103.516,-44.922,-71.777,-99.121,-303.711
1688255181.408,13.672,-37.109,-60.547,-16.602,-32.227
1688255181.412,-134.277,-23.438,-28.809,26.367,129.883
1688255181.415,-141.113,-36.133,-26.855,-27.832,-5.859
1688255181.419,62.500,-38.574,-30.762,-105.469,-254.395
1688255181.423,97.656,-38.086,-46.875,-89.355,-225.586
1688255181.427,-20.508,-43.945,-46.875,5.859,193.848
1688255181.431,-126.465,-42.480,-23.926,39.062,107.422
1688255181.447,-104.980,-52.734,-25.391,-7.324,-56.152
1688255181.451,33.203,-68.359,-39.062,-57.617,-58.594
1688255181.455,84.473,-65.430,-32.227,-61.523,-187.988
1688255181.459,-12.207,-57.617,-30.762,-18.066,-190.918
1688255181.463,-171.875,-60.547,-49.805,47.363,12.207
1688255181.467,-117.188,-62.988,-38.086,46.387,403.809
1688255181.471,57.617,-63.965,-28.809,-41.016,310.059
1688255181.474,110.352,-62.988,-45.410,-68.359,-210.449
1688255181.478,46.387,-49.805,-35.156,-22.461,-237.793
1688255181.482,-135.254,-49.805,-32.715,35.156,84.473
1688255181.486,-141.113,-56.152,-41.016,33.691,20.996
1688255181.490,54.199,-49.316,-31.250,-68.848,-206.055
1688255181.492,105.957,-56.152,-37.109,-110.352,-158.691
1688255181.496,34.180,-64.941,-41.992,-37.109,-17.090
1688255181.500,-108.398,-59.082,-18.555,52.246,33.691
1688255181.504,-157.227,-50.781,-15.137,46.875,18.555
1688255181.508,25.879,-57.129,-40.527,-49.805,-8.301
1688255181.512,132.812,-63.965,-36.133,-89.355,57.617
1688255181.516,57.129,-61.523,-39.062,-62.500,19.531
1688255181.519,-121.582,-66.406,-33.691,-14.648,-44.922
1688255181.523,-169.434,-75.195,-25.391,20.996,75.684
1688255181.527,6.348,-76.172,-50.781,-17.578,53.711
1688255181.531,113.770,-60.059,-38.086,-71.289,-207.031
1688255181.535,77.637,-37.598,-10.254,-71.289,-328.125
1688255181.537,-78.125,-52.246,-20.020,-0.488,-55.664
1688255181.541,-187.012,-70.801,-37.109,42.969,249.023
1688255181.545,-35.156,-59.082,-46.875,-12.695,-28.320
1688255181.549,96.191,-50.293,-48.340,-69.824,-236.328
1688255181.553,67.383,-55.176,-42.480,-68.848,-187.500
1688255181.557,-55.176,-63.477,-64.941,-13.672,36.133
1688255181.561,-162.598,-63.477,-55.176,47.852,169.922
1688255181.564,-51.758,-55.664,-16.113,16.113,-37.598
1688255181.568,87.402,-53.711,-7.812,-67.383,52.246
1688255181.572,81.055,-63.477,-20.508,-83.984,93.262
1688255181.576,-36.133,-63.965,-22.949,-26.855,-133.301
1688255181.580,-153.320,-50.293,-34.668,36.133,-47.852
1688255181.582,-71.777,-46.387,-51.758,22.949,152.344
1688255181.586,95.703,-56.641,-51.758,-54.688,-69.336
1688255181.590,135.254,-57.129,-45.410,-53.711,-353.516
1688255181.594,4.883,-54.688,-57.129,20.020,-160.645
1688255181.598,-174.316,-58.594,-57.129,48.340,189.941
1688255181.602,-87.891,-48.340,-28.809,23.438,116.211
1688255181.606,107.422,-43.945,-35.645,-39.062,-118.652
1688255181.609,126.953,-59.082,-38.574,-57.129,-147.461
1688255181.613,8.301,-68.848,-17.578,8.301,272.949
1688255181.617,-171.875,-65.918,-15.625,64.941,167.969
1688255181.621,-139.648,-59.082,-34.668,28.320,-82.031
1688255181.625,49.316,-52.246,-43.945,-62.012,-13.672
1688255181.627,76.172,-62.500,-45.410,-84.961,-137.695
1688255181.631,-2.930,-67.871,-58.105,-22.949,-240.234
1688255181.635,-138.672,-52.246,-59.570,44.922,-107.422
1688255181.639,-127.441,-45.410,-34.668,45.410,71.289
1688255181.643,61.523,-40.527,-15.137,-37.598,-28.809
1688255181.647,99.121,-42.969,-16.602,-62.988,-155.762
1688255181.651,8.301,-61.035,-31.738,-19.531,-46.387
1688255181.654,-139.160,-75.684,-28.809,34.180,270.996
1688255181.658,-151.367,-64.941,-28.809,41.504,324.707
1688255181.662,47.363,-44.434,-45.410,-49.316,-53.223
1688255181.666,117.676,-41.016,-44.434,-88.867,-210.938
1688255181.670,41.992,-46.875,-46.387,-44.922,-182.617
1688255181.673,-94.238,-46.875,-46.387,29.785,-88.867
1688255181.677,-177.734,-51.758,-43.945,48.340,61.035
1688255181.681,-23.438,-57.129,-30.273,1.465,48.340
1688255181.685,112.305,-58.594,-33.203,-27.344,176.270
1688255181.689,68.359,-50.293,-43.945,-38.086,-0.977
1688255181.693,-88.867,-53.223,-44.434,-3.906,-110.840
1688255181.697,-161.621,-75.684,-44.434,41.016,132.812
1688255181.700,0.000,-76.172,-31.738,-13.184,275.879
1688255181.704,123.535,-53.711,-53.223,-97.168,-150.879
1688255181.708,80.566,-39.551,-70.312,-76.172,-369.141
1688255181.712,-81.543,-46.387,-44.922,24.414,-157.715
1688255181.716,-214.844,-57.617,-37.109,51.270,0.977
1688255181.717,-67.383,-59.570,-31.250,3.906,-3.906
1688255181.721,100.098,-62.988,-26.855,-45.410,-136.719
1688255181.725,77.637,-58.105,-37.598,-53.223,-132.812
1688255181.729,-75.684,-54.199,-54.688,-11.719,-90.332
1688255181.733,-183.594,-65.430,-58.105,26.855,60.547
1688255181.737,-73.242,-69.336,-45.898,1.465,144.043
1688255181.741,95.215,-61.523,-56.152,-62.500,223.145
1688255181.744,109.863,-56.641,-59.570,-75.684,263.672
1688255181.748,-11.230,-54.199,-38.574,-18.066,-60.059
1688255181.752,-164.551,-41.016,-23.438,36.621,-36.621
1688255181.756,-122.559,-39.062,-31.250,1.953,42.969
1688255181.760,54.688,-62.988,-44.922,-82.031,-185.059
1688255181.763,90.820,-62.012,-49.805,-85.449,-336.914
1688255181.767,-20.996,-46.875,-42.969,-30.762,-147.461
1688255181.771,-168.945,-41.016,-43.945,14.648,183.594
1688255181.775,-112.305,-50.781,-58.105,30.762,71.289
1688255181.779,77.637,-67.871,-44.434,-26.855,-180.176
1688255181.783,152.832,-60.059,-31.250,-59.082,-155.273
1688255181.787,45.898,-51.270,-23.438,-8.301,88.379
1688255181.790,-152.344,-52.246,-19.531,40.039,86.914
1688255181.794,-145.996,-55.664,-29.785,21.484,-66.406
1688255181.798,3.906,-62.012,-49.316,-45.410,-38.086
1688255181.802,79.590,-58.105,-57.129,-70.801,75.684
1688255181.806,10.742,-45.410,-46.875,-49.316,-150.879
1688255181.809,-162.598,-51.758,-46.387,17.578,-125.488
1688255181.813,-165.527,-57.129,-56.152,53.711,49.316
1688255181.817,50.293,-48.340,-45.898,-7.324,-24.414
1688255181.821,137.207,-50.781,-28.320,-68.359,-213.379
1688255181.825,41.016,-50.293,-31.250,-41.992,-238.770
1688255181.829,-123.535,-49.316,-31.250,37.598,123.047
1688255181.833,-170.410,-45.898,-18.555,58.105,223.633
1688255181.836,1.465,-45.898,-29.785,-7.812,-53.711
1688255181.840,114.746,-45.410,-51.270,-86.914,-230.469
1688255181.844,81.055,-48.828,-46.387,-85.449,94.727
1688255181.848,-70.312,-56.152,-43.457,-20.996,254.883
1688255181.852,-159.180,-51.270,-52.734,14.648,-33.203
1688255181.867,-21.484,-51.758,-34.668,-27.832,-96.680
1688255181.871,111.816,-53.223,-18.555,-88.379,-22.461
1688255181.875,73.730,-46.875,-34.668,-72.266,-145.508
1688255181.879,-84.473,-43.457,-32.715,-1.465,-213.867
1688255181.883,-189.453,-51.758,-28.809,14.648,-30.273
1688255181.887,-44.922,-66.406,-48.828,-20.020,169.922
1688255181.891,122.070,-61.523,-49.805,-45.898,-28.320
1688255181.894,85.938,-50.293,-32.227,-48.340,-231.445
1688255181.898,-56.152,-49.316,-33.691,12.207,-11.719
1688255181.902,-171.875,-54.688,-40.039,71.777,304.688
1688255181.906,-73.242,-60.547,-31.738,1.953,41.016
1688255181.910,96.191,-49.316,-31.250,-90.332,-246.094
1688255181.912,128.906,-46.387,-36.621,-80.566,-75.195
1688255181.916,-1.953,-59.570,-40.039,-2.441,14.160
1688255181.920,-193.359,-57.617,-34.180,52.246,-31.738
1688255181.924,-136.719,-46.875,-30.762,-13.672,-5.371
1688255181.928,63.965,-59.570,-48.828,-97.168,-45.410
1688255181.932,105.469,-76.172,-54.199,-92.773,-120.117
1688255181.936,5.371,-62.500,-35.156,-5.371,-64.941
1688255181.939,-155.762,-53.711,-29.297,64.941,4.395
1688255181.943,-125.977,-51.758,-30.273,34.668,234.863
1688255181.947,62.012,-48.828,-35.156,-48.340,77.148
1688255181.951,110.352,-55.664,-42.480,-83.984,-301.270
1688255181.955,-22.461,-55.664,-39.062,-30.762,-187.988
1688255181.974,-171.875,-46.875,-35.645,40.039,56.641
1688255181.978,-108.398,-54.199,-34.668,9.766,117.188
1688255181.982,41.016,-48.340,-33.691,-81.055,-12.695
1688255181.986,90.820,-46.387,-27.344,-99.121,-128.906
1688255181.990,14.648,-74.707,-13.672,-41.016,161.621
1688255181.994,-164.062,-74.219,-20.508,18.066,268.555
1688255181.998,-175.293,-49.316,-17.578,21.973,93.750
1688255182.001,28.809,-26.367,-12.207,-69.336,53.223
1688255182.005,123.047,-29.297,-16.113,-130.371,109.863
1688255182.009,-40.039,-36.133,-28.320,-115.723,-127.930
1688255182.013,-235.840,-32.227,-30.762,-63.965,-160.156
1688255182.017,-241.699,-25.879,-19.043,-48.828,7.324
1688255182.002,-89.844,-13.184,-23.926,-139.160,-55.176
1688255182.006,-0.977,9.277,-33.691,-204.590,-229.980
1688255182.010,-68.848,19.043,-16.113,-176.270,-256.836
1688255182.014,-233.398,-5.859,-8.301,-116.211,-36.133
1688255182.018,-309.570,-18.066,-25.391,-103.027,37.598
1688255182.022,-153.809,-3.906,-32.715,-181.152,-70.801
1688255182.026,-18.555,2.441,-33.203,-235.840,-30.273
1688255182.029,-45.410,-1.953,-48.340,-179.199,113.281
1688255182.033,-160.156,-24.414,-66.895,-92.773,53.711
1688255182.037,-207.031,-36.133,-47.363,-56.641,-21.484
1688255182.041,-80.078,-28.320,-39.062,-88.379,-66.406
1688255182.045,65.430,-20.508,-62.500,-140.625,157.227
1688255182.062,29.785,-17.578,-48.340,-145.020,179.688
1688255182.066,-95.215,-14.648,-19.043,-97.656,-29.785
1688255182.070,-187.500,-18.066,-24.414,-28.320,62.500
1688255182.074,-72.754,-32.715,-36.133,-49.805,172.852
1688255182.078,76.172,-45.410,-54.688,-125.977,-104.492
1688255182.082,64.941,-52.734,-64.453,-103.516,-265.625
1688255182.086,-43.457,-55.176,-63.477,-26.367,-67.383
1688255182.089,-97.168,-44.922,-64.941,31.250,424.316
1688255182.093,-23.438,-35.645,-63.477,8.789,228.027
1688255182.097,73.242,-45.410,-71.289,-50.781,-257.324
1688255182.101,109.375,-52.734,-75.195,-70.801,-296.387
1688255182.105,-7.324,-62.988,-78.613,-7.812,-196.777
1688255182.092,-127.930,-60.547,-77.148,88.867,-53.223
1688255182.096,-23.438,-15.137,-52.246,77.148,-38.086
1688255182.100,125.000,-8.789,-53.223,14.160,-101.562
1688255182.104,156.738,-61.523,-76.660,12.207,-206.055
1688255182.108,100.586,-99.609,-112.305,29.785,-209.473
1688255182.112,-56.152,-120.117,-104.980,60.059,72.754
1688255182.116,-71.777,-86.426,-54.688,56.152,375.488
1688255182.119,55.664,-58.105,-41.504,-20.508,62.500
1688255182.123,97.168,-64.941,-62.500,-49.316,-276.367
1688255182.127,68.359,-16.602,-57.129,20.996,-159.180
1688255182.131,-51.270,29.785,-18.555,117.188,355.469
1688255182.135,-85.449,-31.738,-37.598,68.848,429.199
1688255182.138,54.688,-110.840,-75.195,-41.504,-91.309
1688255182.142,105.469,-104.980,-66.406,-19.531,-169.922
1688255182.146,66.406,-69.336,-59.570,36.621,36.621
1688255182.150,-67.383,-85.938,-76.172,49.805,-30.273
1688255182.154,-108.887,-97.168,-83.008,56.152,-110.352
1688255182.158,39.551,-48.828,-39.062,54.688,18.555
1688255182.162,119.141,-31.738,1.465,35.645,69.824
1688255182.165,69.336,-54.688,-47.363,7.324,-174.805
1688255182.169,-32.227,-62.500,-92.773,64.941,-214.844
1688255182.173,-68.359,-75.684,-80.566,123.535,47.363
1688255182.177,30.762,-87.891,-81.055,63.477,101.562
1688255182.181,92.285,-90.332,-94.238,-20.020,-208.008
1688255182.185,38.574,-78.125,-95.703,-22.949,-201.172
1688255182.189,-55.176,-55.664,-80.078,40.039,25.391
1688255182.193,-87.402,-48.340,-65.430,67.871,92.285
1688255182.197,16.602,-60.547,-55.176,27.344,-74.219
1688255182.201,90.820,-57.129,-45.410,-25.879,-171.875
1688255182.205,64.453,-47.852,-48.828,-14.648,45.410
1688255182.209,-3.418,-26.367,-39.062,55.664,124.023
1688255182.212,-51.270,-9.277,-28.320,86.426,-17.090
1688255182.216,3.418,-37.109,-47.852,57.617,-83.984
1688255182.220,106.445,-78.613,-62.012,-4.395,29.785
1688255182.224,85.938,-87.891,-62.012,-17.578,-85.449
1688255182.228,-14.160,-67.871,-53.223,43.457,-241.211
1688255182.242,-42.969,-52.734,-28.320,117.676,-27.832
1688255182.246,50.781,-63.965,-24.414,87.402,169.922
1688255182.250,112.305,-81.543,-26.367,-4.395,23.438
1688255182.254,68.359,-91.797,-43.457,-30.273,-150.391
1688255182.258,2.441,-80.566,-66.895,20.020,-99.121
1688255182.262,-63.965,-55.664,-60.547,74.219,459.473
1688255182.266,-29.785,-50.781,-56.152,41.504,366.211
1688255182.269,56.641,-54.688,-28.809,-4.395,-213.379
1688255182.273,83.008,-39.551,8.301,-9.766,-258.789
1688255182.277,33.691,-42.969,1.953,35.156,-83.984
1688255182.281,-77.637,-78.125,-34.668,66.406,-84.473
1688255182.285,-53.223,-119.629,-68.848,40.527,-114.746
1688255182.287,55.664,-131.348,-72.754,7.324,-144.043
1688255182.291,70.801,-118.164,-52.246,-26.367,-240.723
1688255182.295,31.250,-70.801,-28.809,-0.977,-254.883
1688255182.299,-57.129,-63.477,-21.484,55.664,-48.828
1688255182.303,-49.805,-129.883,-39.062,49.805,108.887
1688255182.307,73.730,-147.949,-43.457,17.578,42.969
1688255182.311,90.820,-132.812,-36.133,-35.645,-37.598
1688255182.314,24.902,-108.398,-34.668,-27.832,-70.801
1688255182.318,-90.332,-73.242,-17.090,25.879,247.070
1688255182.322,-103.027,-52.734,-8.789,20.508,377.930
1688255182.326,3.906,-64.941,-34.180,-28.320,-67.383
1688255182.330,48.340,-75.684,-41.992,-57.129,-247.070
1688255182.332,32.715,-74.707,-37.109,-67.383,-151.367
1688255182.336,-38.574,-67.871,-30.273,9.766,-48.828
1688255182.340,-78.613,-70.801,-19.531,69.824,-34.180
1688255182.344,-6.348,-86.426,-19.531,-1.953,-53.711
1688255182.348,60.547,-96.680,-28.809,-78.613,40.527
1688255182.352,38.574,-99.609,-41.504,-54.199,-1.953
1688255182.356,-85.938,-100.098,-43.945,11.230,-34.668
1688255182.359,-124.512,-87.891,-31.250,42.969,76.172
1688255182.363,-0.488,-66.406,-13.184,16.602,402.832
1688255182.367,49.805,-57.617,-20.020,-14.648,53.711
1688255182.371,32.227,-66.406,-16.602,-22.461,-310.059
1688255182.375,-15.137,-75.195,11.230,15.137,-140.625
1688255182.393,-97.168,-102.051,-0.488,35.645,-73.730
1688255182.397,-56.152,-109.375,-24.414,-12.695,-142.578
1688255182.401,17.090,-98.633,-20.508,-40.039,-184.570
1688255182.405,16.113,-98.145,-14.160,-53.223,-119.141
1688255182.409,-24.902,-101.562,-32.227,-17.578,-89.355
1688255182.413,-82.520,-102.051,-37.109,46.387,27.832
1688255182.417,-21.973,-109.375,-34.668,25.879,79.102
1688255182.420,69.824,-125.488,-41.504,-35.645,125.488
1688255182.424,53.711,-126.953,-38.086,-47.852,46.875
1688255182.428,-20.996,-103.027,-30.762,-14.648,-186.035
1688255182.432,-116.211,-85.449,-28.320,32.715,-6.836
1688255182.436,-84.473,-80.078,-25.879,11.230,155.762
1688255182.422,13.672,-84.473,-31.250,-60.547,-87.402
1688255182.426,32.715,-90.820,-32.715,-71.289,-212.891
1688255182.430,-0.977,-87.891,-37.109,-12.695,-114.746
1688255182.434,-85.938,-81.543,-42.480,28.809,149.414
1688255182.438,-78.125,-80.078,-33.203,21.484,34.180
1688255182.442,17.090,-90.332,-43.945,-27.344,-64.941
1688255182.446,42.969,-97.168,-57.617,-73.242,-3.906
1688255182.449,2.441,-95.215,-48.340,-41.016,-97.168
1688255182.453,-78.125,-85.449,-37.598,23.926,-53.223
1688255182.457,-83.496,-81.543,-35.645,27.832,-68.359
1688255182.461,20.508,-76.660,-31.250,-8.301,-18.555
1688255182.465,56.152,-78.125,-28.809,-41.016,142.090
1688255182.469,7.812,-78.125,-29.297,-38.086,-131.836
1688255182.473,-73.242,-55.664,-21.484,21.484,-144.043
1688255182.477,-84.473,-64.453,-21.484,48.340,91.309
1688255182.481,8.301,-92.773,-43.457,-7.812,-2.930
1688255182.485,49.316,-90.332,-50.781,-32.227,-226.074
1688255182.489,16.113,-90.332,-49.316,-27.344,-192.871
1688255182.493,-71.777,-95.215,-53.711,-4.395,215.820
1688255182.496,-102.051,-93.750,-53.223,3.906,257.324
1688255182.500,6.836,-76.172,-50.293,-26.855,-119.141
1688255182.504,66.895,-51.758,-45.410,-39.551,-261.719
1688255182.508,25.391,-60.059,-57.617,-30.273,-170.410
1688255182.512,-47.363,-80.078,-67.871,12.695,-90.332
1688255182.512,-77.637,-78.125,-47.852,38.086,-65.918
1688255182.516,5.859,-63.965,-22.461,20.996,25.391
1688255182.520,62.012,-64.453,-17.578,-10.254,159.668
1688255182.524,36.621,-76.172,-34.668,-18.066,27.344
1688255182.528,-54.688,-80.566,-50.781,-2.441,-153.809
1688255182.532,-102.051,-67.383,-41.016,22.949,55.664
1688255182.536,6.348,-30.762,-24.414,10.742,468.262
1688255182.539,67.383,-18.555,-38.574,-28.809,162.109
1688255182.543,38.086,-52.246,-52.734,-34.180,-227.539
1688255182.547,-15.625,-75.684,-51.758,7.812,-134.277
1688255182.551,-95.215,-67.871,-58.594,53.223,-37.109
1688255182.555,-26.855,-60.059,-56.641,21.973,-54.688
1688255182.587,51.758,-72.754,-47.852,-56.152,-172.852
1688255182.591,39.551,-76.660,-47.363,-64.941,-191.895
1688255182.595,-5.859,-60.547,-51.758,-21.484,-122.559
1688255182.599,-90.820,-49.316,-37.109,20.508,-64.453
1688255182.603,-23.926,-34.668,-25.879,13.672,-20.996
1688255182.607,84.961,-38.574,-47.852,-22.949,34.668
1688255182.611,48.828,-54.688,-55.176,-28.320,32.715
1688255182.614,-20.508,-54.199,-57.617,-28.320,-42.969
1688255182.618,-88.379,-45.898,-54.199,1.953,-102.051
1688255182.622,-63.965,-40.039,-30.273,28.320,229.004
1688255182.626,22.949,-44.922,-35.645,-46.875,230.957
1688255182.630,24.902,-49.805,-36.621,-90.332,-244.629
1688255182.606,-21.973,-51.270,-30.273,-36.133,-130.859
1688255182.610,-88.379,-32.715,-28.809,18.555,146.973
1688255182.614,-83.496,-39.062,-29.785,3.906,-32.715
1688255182.618,-5.859,-64.453,-43.945,-63.965,-187.988
1688255182.622,28.320,-46.875,-48.340,-72.266,-176.270
1688255182.626,18.066,-20.508,-40.527,-25.391,49.805
1688255182.630,-83.496,-29.297,-35.645,27.344,102.539
1688255182.633,-112.305,-58.594,-40.039,28.320,12.695
1688255182.637,-3.906,-67.871,-51.758,-31.738,-15.625
1688255182.641,41.016,-59.082,-53.223,-75.195,-99.609
1688255182.645,12.695,-58.105,-45.410,-41.992,-220.215
1688255182.649,-89.355,-58.594,-48.340,5.859,-141.113
1688255182.662,-100.586,-45.410,-38.086,29.297,72.266
1688255182.666,23.438,-35.645,-13.672,0.977,64.453
1688255182.670,30.273,-57.129,-24.414,-73.730,-105.469
1688255182.674,-30.762,-67.383,-52.246,-67.871,-143.066
1688255182.678,-94.727,-66.895,-50.781,-6.348,121.582
1688255182.682,-101.074,-67.871,-42.480,-3.906,430.176
1688255182.686,-17.578,-68.848,-44.434,-53.223,92.773
1688255182.689,21.973,-76.660,-41.992,-92.285,-158.203
1688255182.693,15.625,-70.801,-38.574,-73.242,50.293
1688255182.697,-57.617,-61.523,-38.086,-8.789,93.262
1688255182.701,-111.328,-63.965,-36.133,16.602,-67.383
1688255182.705,-18.555,-53.223,-36.621,-9.766,-29.785
1688255182.707,56.641,-41.016,-35.156,-41.992,28.320
1688255182.711,35.645,-57.129,-28.809,-47.363,-118.164
1688255182.715,-42.480,-66.895,-27.832,-3.906,-219.727
1688255182.719,-98.145,-56.152,-33.203,27.344,-19.531
1688255182.723,-38.086,-54.199,-37.598,-4.883,178.223
1688255182.727,28.320,-82.031,-27.832,-48.340,-62.988
1688255182.731,28.320,-121.582,-21.484,-59.082,-166.504
1688255182.734,-33.203,-148.438,-18.555,5.859,-15.137
1688255182.738,-107.910,-164.062,-24.414,42.480,312.988
1688255182.742,-38.086,-166.016,-33.203,-14.160,101.074
1688255182.746,34.180,-179.199,-38.086,-53.223,-217.773
1688255182.750,35.156,-218.262,-43.945,-40.039,-169.434
1688255182.754,-25.391,-254.883,-35.645,-11.230,-99.121
1688255182.758,-131.348,-274.414,-32.715,27.344,-51.270
1688255182.762,-91.797,-277.832,-45.410,2.441,-69.824
1688255182.766,33.691,-273.438,-50.293,-47.852,-65.430
1688255182.770,40.039,-264.160,-41.016,-64.941,-131.836
1688255182.774,-27.832,-260.742,-35.156,-37.109,-161.133
1688255182.778,-94.238,-264.648,-22.461,17.578,-21.973
1688255182.781,-55.664,-267.578,-15.137,17.090,236.816
1688255182.785,55.664,-257.812,-36.133,-19.043,158.691
1688255182.789,64.941,-245.605,-56.152,-53.711,-229.492
1688255182.793,3.906,-242.188,-48.340,-46.875,-189.453
1688255182.797,-74.707,-242.676,-38.086,5.371,82.031
1688255182.797,-96.191,-230.469,-36.621,15.137,40.039
1688255182.801,2.930,-225.098,-52.246,-38.574,-104.004
1688255182.805,54.688,-215.332,-52.734,-54.199,-145.508
1688255182.809,0.977,-209.473,-41.504,-16.113,126.953
1688255182.813,-87.891,-196.777,-49.805,36.621,70.312
1688255182.817,-113.281,-178.711,-50.781,29.785,-33.691
1688255182.821,-20.508,-168.457,-38.086,-30.762,69.336
1688255182.824,33.691,-145.508,-31.250,-55.176,165.039
1688255182.828,14.648,-127.441,-41.504,-22.949,-47.852
1688255182.832,-61.523,-131.836,-48.828,38.086,-208.496
1688255182.836,-91.797,-138.672,-48.828,28.320,-64.941
1688255182.840,8.301,-145.996,-45.898,-21.484,-8.301
1688255182.842,67.383,-135.742,-43.945,-52.246,-266.113
1688255182.846,40.527,-132.324,-37.109,-58.594,-308.594
1688255182.850,-58.594,-137.695,-35.156,0.488,-96.191
1688255182.854,-117.676,-139.648,-42.969,26.367,-30.273
1688255182.858,-9.277,-130.859,-57.617,-26.855,-143.555
1688255182.862,63.965,-117.676,-47.852,-55.664,-148.926
1688255182.866,50.781,-110.352,-17.578,-40.527,238.281
1688255182.869,-56.152,-114.746,-21.484,7.324,313.965
1688255182.873,-142.578,-126.953,-41.992,42.480,62.500
1688255182.877,-47.852,-128.418,-52.246,-5.371,-19.531
1688255182.881,38.574,-118.652,-57.129,-50.781,-4.883
1688255182.885,22.461,-118.652,-60.059,-61.523,-172.363
1688255182.888,-43.945,-119.141,-44.922,-25.391,-199.219
1688255182.892,-104.004,-107.422,-36.133,20.508,116.211
1688255182.896,-48.828,-93.262,-51.758,-12.207,262.695
1688255182.900,30.762,-89.355,-62.500,-53.711,-62.500
1688255182.904,39.062,-91.797,-53.223,-59.082,-280.273
1688255182.908,-12.207,-87.891,-34.668,-19.043,0.977
1688255182.912,-100.586,-91.797,-41.992,30.762,331.543
1688255182.915,-54.199,-90.332,-69.336,-7.812,88.379
1688255182.919,44.434,-89.355,-64.453,-70.312,-209.961
1688255182.923,31.250,-84.961,-46.387,-81.543,-101.562
1688255182.927,-36.133,-74.219,-42.480,-24.414,124.023
1688255182.931,-106.934,-83.008,-50.293,18.555,13.672
1688255182.948,-66.895,-87.402,-48.828,-5.859,-28.809
1688255182.952,32.715,-74.707,-36.621,-53.711,-28.320
1688255182.956,38.086,-75.195,-38.086,-62.988,-167.480
1688255182.960,-26.367,-85.449,-50.293,-29.297,-177.246
1688255182.964,-109.863,-95.215,-51.758,4.883,-46.387
1688255182.968,-93.750,-91.797,-41.016,14.160,172.852
1688255182.972,12.207,-84.961,-39.062,-34.668,72.266
1688255182.975,37.109,-82.520,-52.246,-81.055,-221.191
1688255182.979,-7.324,-78.125,-50.781,-48.340,-196.289
1688255182.983,-77.637,-73.730,-41.504,17.090,152.832
1688255182.987,-105.469,-69.824,-32.715,23.438,187.012
1688255182.991,-12.207,-76.660,-21.484,-31.250,-77.148
1688255183.007,56.152,-71.289,-21.484,-67.383,-162.598
1688255183.011,16.602,-51.270,-29.785,-10.254,155.273
1688255183.015,-96.191,-74.707,-42.969,19.043,100.586
1688255183.019,-120.117,-100.098,-45.410,-4.883,-119.629
1688255183.023,7.812,-98.633,-54.688,-44.922,-119.141
1688255183.027,60.547,-92.773,-63.965,-76.172,-83.496
1688255183.031,26.855,-85.938,-63.965,-62.012,-55.176
1688255183.034,-63.965,-84.961,-67.871,-7.812,-160.645
1688255183.038,-136.719,-79.590,-70.801,5.371,-58.594
1688255183.042,-38.086,-72.266,-71.289,-27.344,221.680
1688255183.046,61.523,-60.059,-56.152,-52.246,-67.871
1688255183.050,61.523,-58.105,-39.062,-47.363,-291.992
1688255183.039,-23.438,-67.383,-39.551,6.348,-102.539
1688255183.043,-97.168,-73.242,-43.945,25.391,38.574
1688255183.047,-8.301,-68.359,-48.340,-32.227,-6.836
1688255183.051,50.293,-67.383,-34.668,-84.473,-118.652
1688255183.055,15.625,-71.777,-22.949,-67.383,34.668
1688255183.059,-50.293,-71.777,-38.086,-15.625,158.203
1688255183.063,-112.305,-68.848,-47.852,12.695,77.637
1688255183.066,-52.246,-72.754,-55.664,7.324,60.059
1688255183.070,41.504,-68.359,-63.477,-43.945,11.230
1688255183.074,58.594,-61.035,-56.641,-62.012,-126.953
1688255183.078,-15.625,-64.453,-63.965,-25.391,-114.258
1688255183.082,-113.770,-67.871,-69.336,5.371,-33.203
1688255183.083,-51.270,-72.754,-53.711,-15.137,320.312
1688255183.087,48.340,-73.242,-56.152,-60.059,376.953
1688255183.091,43.945,-73.242,-50.293,-40.527,-92.285
1688255183.095,12.695,-84.961,-40.039,8.789,-92.285
1688255183.099,-80.078,-94.727,-43.457,47.363,100.098
1688255183.103,-70.312,-97.656,-38.574,16.113,84.961
1688255183.107,21.973,-90.820,-49.316,-57.129,-104.980
1688255183.110,23.926,-82.031,-51.758,-73.242,-195.801
1688255183.114,-17.090,-80.078,-42.480,-29.297,178.711
1688255183.118,-97.656,-79.102,-49.805,3.418,156.738
1688255183.122,-78.613,-71.289,-50.781,1.465,-107.910
1688255183.126,15.137,-68.359,-42.480,-35.645,-151.855
1688255183.129,47.852,-76.172,-50.781,-49.805,-212.402
1688255183.133,4.395,-68.359,-53.223,-9.766,-244.141
1688255183.137,-87.891,-63.477,-36.133,42.480,-121.582
1688255183.141,-93.750,-58.105,-33.203,27.344,10.254
1688255183.145,11.230,-39.551,-39.551,-35.156,-63.477
1688255183.149,49.316,-35.156,-50.781,-65.430,-70.312
1688255183.153,-4.395,-41.992,-64.453,-48.828,-40.527
1688255183.156,-66.406,-52.734,-50.781,26.367,266.113
1688255183.160,-84.473,-64.941,-47.852,41.504,458.496
1688255183.164,5.371,-67.383,-60.059,-31.738,-78.613
1688255183.168,59.570,-59.082,-60.059,-53.711,-323.242
1688255183.172,8.789,-58.105,-63.965,-46.875,-212.402
1688255183.172,-73.730,-59.082,-50.781,-9.766,-140.625
1688255183.176,-97.168,-59.570,-29.785,17.090,-17.578
1688255183.180,-2.930,-56.641,-21.484,-12.207,-49.316
1688255183.184,43.457,-54.688,-23.438,-21.973,-120.117
1688255183.188,21.484,-50.293,-32.227,-23.438,-188.965
1688255183.192,-63.965,-44.922,-33.691,6.348,-114.746
1688255183.196,-120.605,-48.340,-44.922,36.621,117.676
1688255183.199,-25.879,-45.410,-54.688,15.137,375.488
1688255183.203,45.410,-51.758,-52.734,-41.992,110.840
1688255183.207,28.320,-58.594,-48.340,-47.363,-250.488
1688255183.211,-38.574,-56.152,-45.898,4.883,-121.582
1688255183.215,-111.816,-65.430,-54.688,38.086,33.203
1688255183.217,-42.480,-65.430,-62.012,4.395,-109.863
1688255183.221,68.848,-60.059,-70.312,-45.410,-218.262
1688255183.225,50.781,-59.082,-59.570,-36.621,-144.531
1688255183.229,-37.598,-58.105,-46.875,18.066,-138.672
1688255183.233,-103.027,-61.035,-48.828,33.691,-83.984
1688255183.237,-40.039,-64.453,-46.387,-8.789,-9.277
1688255183.241,32.715,-69.824,-44.434,-43.457,190.918
1688255183.244,37.109,-61.035,-37.598,-29.297,136.230
1688255183.248,11.719,-55.176,-30.762,19.043,-145.020
1688255183.252,-81.055,-73.242,-48.340,40.039,-56.641
1688255183.256,-49.805,-67.383,-63.477,18.066,13.672
1688255183.260,46.875,-53.223,-55.664,-34.180,-76.172
1688255183.264,44.434,-42.969,-44.434,-62.988,-148.438
1688255183.268,-6.348,-41.504,-54.688,-38.086,-58.105
1688255183.272,-91.309,-56.641,-42.480,14.648,259.766
1688255183.276,-69.336,-60.059,-27.832,5.859,169.922
1688255183.280,27.344,-54.199,-38.574,-38.574,-198.242
1688255183.284,39.551,-53.711,-41.504,-39.551,-159.180
1688255183.288,10.742,-54.688,-42.969,-28.809,151.367
1688255183.291,-81.055,-53.711,-57.129,5.371,20.508
1688255183.295,-70.312,-48.828,-60.059,18.555,-74.707
1688255183.299,25.879,-45.410,-56.641,-36.133,6.348
1688255183.303,40.527,-47.363,-56.152,-86.914,-65.430
1688255183.307,15.625,-45.898,-55.176,-58.594,-174.316
1688255183.310,-71.289,-46.875,-53.223,14.160,-135.742
1688255183.314,-95.215,-55.664,-50.781,10.254,15.137
1688255183.318,-1.465,-59.082,-55.664,-24.414,9.766
1688255183.322,56.641,-49.316,-70.312,-42.480,-145.996
1688255183.326,41.016,-51.270,-67.383,-52.246,-176.758
1688255183.330,-60.547,-62.500,-44.922,-12.207,179.199
1688255183.334,-107.910,-65.430,-40.527,18.066,364.258
1688255183.337,11.719,-60.547,-51.270,-16.113,-33.203
1688255183.341,63.965,-63.477,-43.945,-61.035,-195.801
1688255183.345,11.719,-63.477,-51.758,-72.266,-21.484
1688255183.349,-73.242,-49.316,-57.617,-36.621,-60.547
1688255183.353,-114.258,-46.387,-44.922,0.488,-111.328
1688255183.368,-19.043,-50.293,-41.504,-19.531,-31.738
1688255183.372,54.688,-52.734,-49.805,-42.480,37.598
1688255183.376,32.715,-55.176,-60.547,-20.020,-92.285
1688255183.380,-41.016,-62.500,-67.871,-8.789,-168.457
1688255183.384,-102.539,-70.312,-69.336,11.719,33.691
1688255183.388,-24.414,-62.012,-54.688,-5.371,374.512
1688255183.392,50.781,-59.082,-47.363,-74.707,133.789
1688255183.395,35.156,-62.500,-46.875,-83.496,-220.215
1688255183.399,-25.391,-58.594,-42.480,-37.598,-89.844
1688255183.403,-117.676,-55.176,-41.504,5.371,211.914
1688255183.407,-74.219,-57.129,-53.711,-21.973,-4.883
1688255183.411,26.855,-61.523,-62.012,-61.035,-228.516
1688255183.427,14.648,-64.453,-54.199,-68.359,-168.945
1688255183.431,-41.992,-67.871,-60.059,-42.480,-112.305
1688255183.435,-100.098,-66.895,-63.965,-0.977,-100.098
1688255183.439,-63.965,-57.617,-60.547,-13.672,-76.172
1688255183.443,22.949,-52.246,-75.684,-53.711,-15.625
1688255183.447,44.434,-59.082,-76.172,-71.777,49.805
1688255183.451,-11.719,-63.965,-54.688,-33.203,47.852
1688255183.454,-114.746,-66.406,-44.922,21.484,68.359
1688255183.458,-83.008,-58.105,-59.570,7.324,282.227
1688255183.462,48.828,-50.781,-62.012,-54.688,303.711
1688255183.466,75.684,-44.922,-37.598,-79.590,-125.488
1688255183.470,5.371,-43.945,-28.809,-43.457,-227.539
1688255183.457,-110.352,-59.570,-31.250,8.301,-81.055
1688255183.461,-111.328,-74.707,-42.480,-7.812,-68.359
1688255183.465,-0.977,-75.195,-51.270,-34.180,-185.059
1688255183.469,50.781,-66.895,-54.688,-41.016,-219.727
1688255183.473,10.742,-59.570,-62.012,-26.855,9.766
1688255183.477,-98.145,-60.059,-60.547,21.973,65.918
1688255183.481,-97.656,-62.012,-50.781,27.344,8.789
1688255183.484,17.090,-62.500,-46.387,-33.203,-77.637
1688255183.488,59.570,-48.828,-41.992,-63.477,-154.785
1688255183.492,34.668,-42.969,-47.363,-51.270,-160.645
1688255183.496,-62.500,-48.340,-53.711,-9.766,-144.043
1688255183.500,-86.426,-46.875,-43.457,25.879,37.598
1688255183.502,25.391,-51.758,-33.203,10.742,370.117
1688255183.506,69.336,-55.176,-48.828,-31.738,35.645
1688255183.510,12.695,-55.664,-61.035,-40.039,-188.477
1688255183.514,-77.637,-61.523,-50.293,4.395,64.453
1688255183.518,-84.961,-62.988,-49.805,23.438,48.828
1688255183.522,13.184,-61.523,-54.199,-21.484,-15.625
1688255183.526,54.199,-53.223,-52.246,-36.133,-53.223
1688255183.529,29.785,-44.434,-45.898,-15.625,81.055
1688255183.533,-47.363,-44.434,-54.199,5.859,127.441
1688255183.537,-117.676,-49.805,-57.617,8.789,-81.543
1688255183.541,-23.438,-53.223,-49.316,-9.277,-146.973
1688255183.545,56.152,-49.805,-59.570,-44.434,-155.273
1688255183.548,61.035,-40.039,-67.383,-50.781,-126.465
1688255183.552,-13.672,-36.621,-66.406,0.000,-52.734
1688255183.556,-109.375,-45.898,-62.012,27.344,43.945
1688255183.560,-31.250,-58.105,-48.828,-0.977,277.832
1688255183.564,42.969,-59.570,-46.387,-52.734,43.457
1688255183.568,22.461,-50.293,-41.992,-47.363,-208.008
1688255183.572,-29.785,-45.410,-33.203,-10.254,34.180
1688255183.575,-111.816,-55.664,-57.129,13.672,312.012
1688255183.579,-41.016,-56.152,-70.312,16.113,60.547
1688255183.583,67.871,-48.340,-60.059,-25.879,-233.398
1688255183.587,51.270,-44.922,-47.363,-55.664,-214.355
1688255183.591,-3.418,-50.293,-45.410,-20.020,-147.461
1688255183.594,-90.332,-61.523,-60.547,25.879,-107.910
1688255183.598,-60.059,-57.129,-68.848,-14.160,-125.000
1688255183.602,28.320,-53.223,-60.547,-67.871,-20.020
1688255183.606,32.715,-57.617,-42.969,-79.102,-38.086
1688255183.610,-15.137,-60.547,-31.738,-35.156,-125.000
1688255183.614,-107.910,-61.035,-39.062,31.250,66.406
1688255183.618,-99.121,-60.059,-39.551,22.461,382.324
1688255183.621,19.531,-59.082,-53.223,-49.805,270.996
1688255183.625,54.199,-58.105,-85.938,-72.754,-175.293
1688255183.629,2.930,-49.805,-76.660,-33.691,-208.008
1688255183.633,-82.031,-47.363,-42.969,5.371,-76.660
1688255183.637,-74.219,-47.363,-37.598,-7.324,-49.805
1688255183.638,24.902,-47.363,-52.734,-57.129,-86.426
1688255183.642,42.969,-52.246,-69.824,-61.035,-70.801
1688255183.646,19.531,-48.828,-65.430,-23.926,78.125
1688255183.650,-67.383,-39.551,-38.086,14.648,-45.410
1688255183.654,-119.629,-51.758,-29.785,14.160,-152.344
1688255183.658,-13.184,-58.594,-56.641,-41.504,-18.555
1688255183.662,63.965,-52.734,-72.754,-78.125,184.570
1688255183.665,12.207,-51.270,-58.594,-37.598,-63.477
1688255183.669,-95.215,-51.758,-41.016,-2.441,-211.914
1688255183.673,-106.934,-53.223,-41.992,2.930,65.430
1688255183.677,8.789,-53.711,-47.852,-14.160,146.484
1688255183.681,28.320,-53.711,-48.828,-65.918,-159.668
1688255183.684,10.254,-41.504,-47.852,-35.156,-250.488
1688255183.688,-38.574,-39.551,-66.406,41.992,-83.496
1688255183.692,-98.145,-54.199,-78.613,39.551,-37.598
1688255183.696,-27.832,-60.547,-60.547,-28.809,-115.723
1688255183.700,47.852,-47.363,-26.367,-54.688,-169.922
1688255183.704,41.992,-46.387,-37.109,-26.855,8.301
1688255183.708,-56.641,-66.406,-60.059,0.000,42.969
1688255183.711,-125.488,-63.477,-40.527,16.113,2.441
1688255183.715,-30.273,-48.340,-23.926,-20.996,-36.133
1688255183.719,61.035,-52.734,-35.645,-71.777,147.461
1688255183.723,39.551,-55.664,-47.852,-60.547,135.254
1688255183.727,-19.043,-52.734,-54.688,-4.883,-182.617
1688255183.743,-69.824,-45.410,-79.590,30.273,-14.160
1688255183.747,-49.316,-47.852,-89.844,13.184,223.633
1688255183.751,36.133,-63.965,-62.500,-37.598,-47.363
1688255183.755,57.129,-75.684,-19.531,-46.875,-284.668
1688255183.759,-25.879,-68.848,-0.488,3.418,-175.293
1688255183.763,-113.770,-57.129,-21.973,41.016,173.828
1688255183.767,-53.711,-51.270,-36.133,6.836,122.070
1688255183.770,51.758,-50.293,-40.527,-77.148,-167.969
1688255183.774,43.945,-51.270,-37.598,-73.242,-130.859
1688255183.778,-35.645,-50.293,-24.902,-11.719,142.578
1688255183.782,-112.305,-56.152,-39.062,32.715,106.934
1688255183.786,-63.477,-58.105,-59.570,34.180,-52.246
1688255183.787,41.016,-54.199,-45.898,-32.227,-84.473
1688255183.791,82.031,-58.105,-41.016,-58.594,-145.508
1688255183.795,24.902,-71.289,-41.016,-14.160,-207.031
1688255183.799,-111.816,-69.336,-24.414,46.875,-79.590
1688255183.803,-117.676,-57.617,-18.555,20.020,41.016
1688255183.807,-5.371,-51.758,-28.320,-64.941,-23.926
1688255183.811,45.898,-57.129,-44.922,-80.078,-81.055
1688255183.814,36.133,-58.105,-66.895,-41.504,-106.445
1688255183.818,-54.199,-49.316,-74.219,47.363,211.426
1688255183.822,-92.285,-47.363,-53.711,56.152,290.527
1688255183.826,-2.930,-51.270,-37.109,-45.898,-116.699
1688255183.830,41.504,-50.293,-42.969,-84.961,-233.398
1688255183.832,17.090,-49.316,-53.711,-72.754,-32.227
1688255183.836,-63.965,-54.199,-51.270,-18.555,119.629
1688255183.840,-76.172,-52.734,-55.664,38.086,62.988
1688255183.844,0.977,-54.199,-73.730,-15.625,-47.852
1688255183.848,42.480,-62.988,-61.035,-57.129,172.363
1688255183.852,35.156,-67.383,-24.902,-21.484,111.328
1688255183.856,-42.480,-55.664,-18.555,39.551,-28.320
1688255183.859,-103.027,-53.711,-49.316,43.945,64.941
1688255183.863,-18.555,-58.594,-52.246,-19.043,246.582
1688255183.867,44.434,-62.500,-58.594,-71.289,-82.520
1688255183.871,21.484,-55.176,-74.707,-38.086,-354.980
1688255183.875,-29.297,-49.316,-40.527,29.297,-177.246
1688255183.877,-87.402,-70.801,-18.066,37.109,-23.926
1688255183.881,-13.672,-81.543,-39.062,-11.719,-74.219
1688255183.885,76.172,-62.012,-54.688,-39.551,-169.434
1688255183.889,47.852,-44.434,-48.340,-35.645,22.461
1688255183.893,-28.320,-46.387,-39.062,0.000,15.137
1688255183.897,-89.355,-59.082,-72.266,40.527,32.227
1688255183.901,-5.859,-55.176,-83.496,-3.906,154.785
1688255183.904,84.961,-33.203,-71.777,-41.504,152.832
1688255183.908,33.203,-13.184,-55.176,-51.758,20.020
1688255183.912,-47.363,-18.555,-3.418,-30.273,-216.797
1688255183.916,-125.488,-38.086,2.930,10.254,-111.328
1688255183.920,-83.496,-49.316,-29.785,-11.230,10.742
1688255183.922,47.363,-48.828,-37.109,-41.992,-103.027
1688255183.926,54.688,-42.969,-29.785,-50.781,-200.684
1688255183.930,-0.488,-41.992,-30.273,-20.996,-81.543
1688255183.934,-116.211,-51.270,-36.133,44.434,186.523
1688255183.938,-122.559,-45.410,-39.062,17.578,45.410
1688255183.942,-3.906,-30.762,-52.734,-75.684,-75.195
1688255183.946,9.277,-42.969,-48.828,-102.539,26.855
1688255183.949,-39.551,-52.246,-21.973,-75.195,282.715
1688255183.953,-163.086,-33.203,-22.949,-53.711,156.738
1688255183.957,-183.105,-38.086,-27.832,-82.520,-125.977
1688255183.961,-79.590,-62.012,-26.855,-143.555,-200.195
1688255183.965,-91.797,-56.641,-5.371,-178.711,-293.457
1688255183.967,-166.504,-43.457,16.113,-170.410,-265.625
1688255183.971,-257.324,-46.875,7.324,-114.258,-128.906
1688255183.975,-282.715,-32.715,-5.371,-106.934,-1.953
1688255183.979,-170.898,-26.855,23.438,-180.176,-85.449
1688255183.983,-87.402,-41.016,26.855,-205.566,-207.520
1688255183.987,-128.418,-37.598,-15.137,-178.223,-89.355
1688255183.991,-270.996,-18.555,0.488,-134.277,259.277
1688255183.994,-313.477,-7.324,39.551,-131.836,354.980
1688255183.998,-165.039,-24.902,23.438,-184.570,2.441
1688255184.002,-69.336,-41.504,1.465,-208.496,-203.125
1688255184.006,-105.469,-42.480,-2.930,-156.738,-114.258
1688255184.010,-227.051,-45.898,-6.836,-109.375,-92.773
1688255184.013,-260.742,-66.895,4.395,-99.121,-41.992
1688255184.017,-101.562,-77.637,22.949,-121.582,45.410
1688255184.021,8.789,-61.035,26.367,-156.250,164.062
1688255184.025,-37.109,-47.363,-22.461,-136.230,-5.371
1688255184.029,-138.672,-41.016,-39.551,-76.172,-218.262
1688255184.033,-159.180,-47.852,-5.371,-29.785,3.418
1688255184.037,-51.270,-48.828,-7.324,-58.105,216.797
1688255184.040,34.180,-45.410,-38.574,-114.258,-108.398
1688255184.044,42.480,-60.547,-41.016,-98.633,-323.730
1688255184.048,-62.500,-68.848,-14.160,-35.156,-164.551
1688255184.052,-181.641,-62.012,-8.301,13.184,126.465
1688255184.056,-68.848,-52.246,-21.484,-28.320,-1.953
1688255184.075,71.289,-50.293,-41.504,-95.703,-259.277
1688255184.079,64.941,-68.848,-50.293,-64.941,-168.457
1688255184.083,-31.738,-77.148,-65.430,3.418,-37.109
1688255184.087,-117.676,-61.035,-71.289,30.762,-32.715
1688255184.091,-29.785,-53.223,-44.434,8.789,-46.875
1688255184.095,92.285,-61.523,-30.762,-54.199,-14.160
1688255184.099,127.930,-56.152,-45.410,-39.551,-38.574
1688255184.102,22.949,-50.781,-60.547,19.531,-107.422
1688255184.106,-126.953,-58.105,-35.645,65.430,34.668
1688255184.110,-62.988,-59.082,-10.254,47.852,323.730
1688255184.114,85.449,-74.707,-20.020,-11.719,168.457
1688255184.118,120.605,-69.824,-36.621,-43.457,-196.289
1688255184.117,22.949,-48.340,-43.457,0.977,-133.301
1688255184.121,-129.883,-50.781,-40.527,68.848,79.590
1688255184.125,-87.891,-47.363,-55.176,64.941,55.176
1688255184.129,79.590,-49.805,-70.801,-2.441,-162.109
1688255184.133,127.930,-51.270,-57.617,-30.762,-187.012
1688255184.137,39.551,-48.828,-46.387,1.953,37.598
1688255184.141,-100.586,-56.152,-40.039,74.219,152.344
1688255184.144,-93.750,-48.828,-57.617,73.730,-11.719
1688255184.148,58.594,-42.969,-56.152,-13.672,-81.543
1688255184.152,131.348,-47.852,-30.762,-27.832,236.328
1688255184.156,60.547,-56.152,-29.785,4.395,136.230
1688255184.160,-85.938,-47.363,-34.668,41.504,-169.434
1688255184.162,-114.258,-41.992,-39.551,42.969,-20.020
1688255184.166,52.246,-46.387,-73.242,-22.461,-40.039
1688255184.170,162.598,-39.551,-80.078,-68.848,-241.211
1688255184.174,91.797,-30.762,-51.270,-32.715,-175.781
1688255184.178,-85.938,-39.551,-42.969,52.246,80.566
1688255184.182,-135.254,-38.574,-52.246,67.383,223.633
1688255184.186,34.668,-35.645,-52.246,-20.508,66.895
1688255184.189,115.723,-50.781,-59.082,-87.891,-193.848
1688255184.193,56.152,-55.664,-54.199,-33.691,20.020
1688255184.197,-66.895,-51.270,-41.992,44.434,201.172
1688255184.201,-146.484,-49.316,-53.711,63.965,-26.367
1688255184.205,0.000,-46.875,-62.988,22.461,-130.859
1688255184.208,132.324,-53.223,-51.270,-21.484,-130.371
1688255184.212,91.309,-35.645,-45.410,-14.160,-149.414
1688255184.216,-51.270,-21.484,-50.293,27.344,-146.973
1688255184.220,-152.344,-39.062,-61.035,51.758,0.000
1688255184.224,-16.113,-38.574,-67.871,0.977,192.871
1688255184.228,129.395,-34.668,-61.035,-51.270,18.066
1688255184.232,120.117,-44.434,-35.645,-46.875,-185.059
1688255184.235,8.789,-47.363,-23.438,17.578,-6.836
1688255184.239,-132.324,-56.641,-61.523,66.406,398.438
1688255184.243,-70.312,-58.105,-85.938,-10.742,193.359
1688255184.247,94.238,-41.992,-65.918,-67.383,-224.609
1688255184.251,92.773,-57.129,-60.547,-70.312,-222.656
1688255184.252,-42.480,-56.152,-42.969,-32.715,-139.648
1688255184.256,-178.223,-26.855,-40.527,36.621,-94.238
1688255184.260,-93.262,-22.461,-45.410,25.879,-89.355
1688255184.264,81.055,-45.410,-26.855,-48.828,-104.492
1688255184.268,116.699,-54.688,-32.227,-67.871,-173.828
1688255184.272,34.180,-47.852,-55.176,-13.672,-87.402
1688255184.276,-132.812,-32.227,-59.082,34.180,59.570
1688255184.279,-107.910,-38.086,-56.641,6.348,247.559
1688255184.283,83.008,-45.410,-53.223,-50.293,220.703
1688255184.287,151.855,-45.898,-51.758,-62.988,-169.434
1688255184.291,27.344,-51.758,-33.691,-4.883,-141.602
1688255184.295,-172.363,-38.086,-29.785,57.617,98.145
1688255184.298,-151.855,-34.180,-49.805,36.621,85.449
1688255184.302,67.383,-35.645,-58.594,-48.828,-73.730
1688255184.306,146.973,-25.391,-60.547,-83.984,-169.434
1688255184.310,29.297,-29.297,-64.453,-29.785,28.320
1688255184.314,-137.207,-29.297,-39.551,36.133,40.527
1688255184.318,-147.461,-51.758,-29.785,40.527,19.043
1688255184.322,36.133,-69.824,-42.480,-56.152,79.590
1688255184.325,115.723,-55.176,-38.574,-91.309,186.035
1688255184.329,45.898,-41.992,-41.504,-27.344,-16.602
1688255184.333,-106.934,-28.809,-53.711,41.992,-124.023
1688255184.337,-149.902,-25.391,-43.457,61.035,68.848
1688255184.341,14.648,-22.461,-52.734,-0.488,25.391
1688255184.342,125.000,-11.719,-77.148,-61.523,-252.930
1688255184.346,72.266,-34.668,-79.590,-68.848,-255.859
1688255184.350,-91.309,-54.199,-66.895,-9.766,64.453
1688255184.354,-176.270,-56.152,-31.250,34.180,119.629
1688255184.358,-16.602,-41.992,1.465,-11.719,-75.195
1688255184.362,114.746,-22.949,-28.809,-72.266,-141.113
1688255184.366,59.570,-16.113,-47.852,-61.035,67.383
1688255184.369,-93.262,-29.785,-36.133,-25.879,302.734
1688255184.373,-171.875,-44.922,-77.148,-18.555,94.727
1688255184.377,-62.988,-36.133,-95.215,-52.734,-52.246
1688255184.381,76.660,-18.555,-61.035,-85.938,-133.301
1688255184.385,71.777,-33.691,-31.250,-38.574,-193.848
1688255184.403,-81.055,-54.199,0.000,4.395,-139.160
1688255184.407,-197.754,-39.551,-4.883,31.250,59.082
1688255184.411,-81.055,-21.973,-40.039,0.977,354.980
1688255184.415,89.355,-21.484,-61.035,-78.125,34.668
1688255184.419,90.332,-41.504,-56.641,-75.195,-336.914
1688255184.423,-48.340,-47.363,-41.016,-9.277,-64.453
1688255184.427,-189.941,-41.016,-63.477,36.621,259.277
1688255184.430,-92.285,-34.668,-56.152,10.742,82.520
1688255184.434,86.914,-27.344,-20.508,-61.523,-232.910
1688255184.438,111.328,-34.180,-13.672,-87.891,-212.402
1688255184.442,-26.367,-42.480,-33.203,-50.293,34.180
1688255184.446,-166.504,-44.434,-42.969,6.836,6.836
1688255184.434,-84.473,-44.922,-32.227,-16.113,-51.270
1688255184.438,53.711,-41.992,-37.109,-84.473,-102.539
1688255184.442,88.867,-43.457,-37.598,-78.125,-243.652
1688255184.446,0.488,-41.504,-38.086,-13.184,-214.844
1688255184.450,-146.973,-39.062,-51.758,42.969,-20.996
1688255184.454,-127.441,-50.293,-44.434,30.273,191.895
1688255184.458,51.270,-50.781,-32.715,-43.457,53.711
1688255184.461,106.934,-46.875,-45.898,-50.781,-259.277
1688255184.465,17.090,-47.852,-49.316,-32.227,-221.680
1688255184.469,-148.926,-41.504,-36.621,9.277,231.445
1688255184.473,-159.668,-42.480,-43.457,43.945,411.133
1688255184.477,50.781,-54.199,-42.969,-41.016,-62.500
1688255184.507,98.633,-54.688,-33.691,-98.145,-249.023
1688255184.511,8.301,-48.340,-34.180,-72.754,-82.520
1688255184.515,-155.762,-52.734,-38.574,-16.113,-64.453
1688255184.519,-208.008,-59.082,-38.086,13.672,-117.676
1688255184.523,-12.695,-57.129,-41.992,-37.109,-87.891
1688255184.527,95.215,-63.477,-48.340,-86.914,34.180
1688255184.531,52.246,-59.082,-35.645,-61.523,-31.738
1688255184.534,-110.352,-51.758,-2.441,16.113,-100.098
1688255184.538,-192.871,-56.152,10.742,39.551,77.148
1688255184.542,-16.113,-46.387,-1.953,-20.508,333.008
1688255184.546,106.445,-39.062,-25.879,-73.730,-48.828
1688255184.550,52.734,-40.527,-44.434,-65.430,-329.590
1688255184.537,-76.660,-51.270,-41.992,-6.348,-125.000
1688255184.541,-172.363,-48.340,-44.922,41.016,-4.883
1688255184.545,-13.184,-38.086,-58.105,26.855,-31.738
1688255184.549,139.160,-48.828,-59.082,-54.688,-162.598
1688255184.553,90.820,-52.734,-32.227,-58.105,-166.016
1688255184.557,-72.754,-60.547,-34.180,3.418,15.625
1688255184.561,-208.496,-67.383,-36.621,30.762,112.793
1688255184.564,-77.148,-62.500,-36.133,-9.766,-15.625
1688255184.568,94.238,-62.012,-36.133,-70.801,4.883
1688255184.572,88.379,-57.617,-43.457,-56.641,-47.852
1688255184.576,-68.848,-48.828,-60.059,15.137,-160.156
1688255184.580,-185.059,-51.758,-43.457,42.969,-75.684
1688255184.582,-58.105,-61.523,-20.996,3.906,297.363
1688255184.586,122.559,-62.988,-28.320,-62.988,517.090
1688255184.590,138.672,-53.223,-37.109,-67.871,-20.508
1688255184.594,-1.465,-40.527,-44.922,19.043,-213.867
1688255184.598,-142.090,-41.992,-70.312,76.660,15.137
1688255184.602,-51.758,-61.523,-60.059,15.137,62.500
1688255184.606,103.516,-76.660,-21.973,-74.219,-102.539
1688255184.609,113.770,-54.199,2.930,-87.891,-165.527
1688255184.613,-0.488,-49.316,-9.766,-21.973,153.809
1688255184.617,-148.438,-58.594,-21.484,51.758,44.434
1688255184.621,-102.051,-48.828,-32.715,53.223,-142.090
1688255184.625,69.824,-44.922,-39.551,-12.207,-62.988
1688255184.627,100.586,-55.176,-32.715,-60.547,-110.352
1688255184.631,-8.301,-61.035,-29.297,-38.086,-175.293
1688255184.635,-139.648,-62.500,-31.738,20.996,-88.379
1688255184.639,-119.629,-68.848,-51.270,23.926,37.109
1688255184.643,57.129,-71.777,-45.410,-24.414,-42.969
1688255184.647,130.859,-75.684,-55.176,-38.574,-114.258
1688255184.651,41.016,-62.012,-70.312,6.348,-68.359
1688255184.654,-104.004,-56.152,-59.082,73.730,175.293
1688255184.658,-130.859,-63.477,-43.945,71.777,230.469
1688255184.662,28.320,-59.570,-11.719,-9.277,-166.504
1688255184.666,115.723,-54.199,-1.953,-64.941,-301.758
1688255184.670,46.875,-47.852,-12.207,-48.340,-179.688
1688255184.673,-102.539,-52.734,-49.805,39.062,-69.824
1688255184.677,-118.164,-59.082,-48.340,75.684,11.230
1688255184.681,48.828,-55.176,-9.766,-2.441,112.305
1688255184.685,109.375,-70.801,0.977,-83.496,217.773
1688255184.689,36.133,-77.148,-36.133,-83.984,20.996
1688255184.693,-103.027,-66.406,-86.426,-8.789,-48.340
1688255184.697,-120.117,-59.082,-67.871,58.105,85.938
1688255184.700,36.133,-61.035,-4.883,20.508,284.668
1688255184.704,104.004,-49.805,11.230,-63.477,-11.230
1688255184.708,45.898,-46.875,3.418,-82.520,-314.941
1688255184.712,-65.430,-65.430,-0.488,-17.090,-175.781
1688255184.716,-130.371,-61.523,-57.129,66.406,-38.574
1688255184.717,-15.137,-42.969,-93.262,41.992,-92.773
1688255184.721,118.652,-21.973,-33.203,-77.148,-240.723
1688255184.725,78.125,-6.836,1.953,-68.848,-188.477
1688255184.729,-64.453,-4.395,-32.227,31.738,-70.312
1688255184.733,-173.340,-1.465,-18.555,57.129,32.715
1688255184.737,-83.008,-20.508,26.855,16.602,69.824
1688255184.741,111.328,-44.434,11.719,-37.109,175.293
1688255184.744,87.891,-49.805,-35.156,-77.637,221.191
1688255184.748,-48.828,-51.758,-50.781,-47.363,-83.984
1688255184.752,-145.508,-54.199,-33.203,20.508,-72.754
1688255184.756,-87.891,-36.133,-60.059,7.324,54.688
1688255184.760,77.637,-11.719,-86.426,-86.914,-104.492
1688255184.762,115.723,-3.906,-85.938,-87.891,-208.008
1688255184.766,-9.766,5.859,-92.285,7.324,-25.391
1688255184.770,-193.359,0.977,-52.246,21.484,334.473
1688255184.774,-164.062,-3.418,0.977,-32.715,168.457
1688255184.778,37.109,-1.465,7.812,-102.051,-214.355
1688255184.782,94.238,-14.648,-20.996,-119.629,-123.535
1688255184.786,-1.465,-5.859,-38.086,-39.551,168.945
1688255184.789,-160.645,-0.488,-29.785,9.766,78.125
1688255184.793,-132.324,-7.812,-44.922,-2.441,-104.492
1688255184.797,47.852,-7.324,-62.988,-41.992,-154.297
1688255184.801,131.348,-7.812,-34.180,-80.566,-140.137
1688255184.805,37.598,-6.836,-11.230,-48.340,-243.652
1688255184.809,-151.855,-3.906,-21.484,38.574,-170.898
1688255184.813,-144.531,-8.789,-33.203,27.832,14.648
1688255184.817,41.992,-10.742,-35.645,-56.641,-78.613
1688255184.821,125.488,5.371,-41.016,-107.910,-257.324
1688255184.825,55.664,25.391,-43.945,-64.941,-169.922
1688255184.829,-106.445,23.438,-4.395,25.391,208.984
1688255184.833,-164.551,7.324,0.977,21.484,266.113
1688255184.836,8.789,-0.488,-38.574,-58.594,0.488
1688255184.840,118.652,-4.883,-39.551,-83.984,-134.766
1688255184.844,40.527,2.441,-21.484,-34.668,145.020
1688255184.848,-125.488,9.277,-17.578,19.531,292.969
1688255184.852,-195.801,2.441,-4.883,23.438,-40.527
1688255184.867,-12.695,-11.719,-20.020,-28.320,-58.105
1688255184.871,108.887,-17.090,-44.922,-73.730,84.961
1688255184.875,60.547,0.977,-43.457,-51.270,-138.184
1688255184.879,-67.383,3.906,-43.457,-5.371,-170.898
1688255184.883,-163.086,-7.324,-34.180,24.414,105.469
1688255184.887,-41.504,-25.879,-20.020,-10.254,310.059
1688255184.891,103.516,-28.809,-35.156,-80.078,63.477
1688255184.894,73.730,-21.973,-40.527,-68.359,-270.020
1688255184.898,-61.035,-25.879,-25.879,-4.395,-109.375
1688255184.902,-170.410,-32.715,-27.344,47.852,251.465
1688255184.906,-74.219,-42.480,-34.668,-7.324,57.129
1688255184.910,82.031,-44.922,-28.809,-77.637,-237.793
1688255184.912,88.867,-39.062,-29.785,-68.848,-171.387
1688255184.916,-41.504,-38.086,-41.504,-28.320,-42.480
1688255184.920,-159.668,-43.457,-47.852,13.184,-50.781
1688255184.924,-79.590,-55.664,-48.828,-11.230,-95.215
1688255184.928,53.711,-57.129,-44.434,-76.660,-99.609
1688255184.932,84.961,-63.477,-34.668,-102.539,-73.242
1688255184.936,-13.184,-62.012,-24.414,-51.270,-93.750
1688255184.939,-177.734,-49.316,-32.715,-2.930,-28.809
1688255184.943,-97.168,-38.086,-39.551,-10.742,199.707
1688255184.947,71.289,-48.340,-35.645,-48.828,114.258
1688255184.951,59.082,-74.219,-30.273,-82.520,-290.039
1688255184.955,-28.320,-57.129,-32.715,-49.805,-216.309
1688255184.958,-162.598,-35.645,-47.363,17.090,128.906
1688255184.962,-144.043,-42.480,-63.477,-13.184,172.852
1688255184.966,36.133,-43.945,-65.430,-75.684,-20.508
1688255184.970,102.539,-32.227,-24.902,-92.773,-167.969
1688255184.974,28.809,-42.969,-8.789,-46.875,107.910
1688255184.978,-134.277,-62.500,-39.062,25.879,202.637
1688255184.982,-140.625,-56.152,-53.711,21.484,21.973
1688255184.985,27.344,-44.434,-37.598,-59.082,-5.859
1688255184.989,102.539,-38.086,-27.344,-100.586,142.578
1688255184.993,23.438,-35.156,-27.344,-62.988,-84.473
1688255184.997,-131.836,-33.691,-27.832,17.090,-165.527
1688255185.001,-165.527,-35.645,-30.273,33.203,16.602
1688255185.017,-6.348,-33.691,-41.016,-62.012,-96.680
1688255185.021,109.863,-41.992,-60.547,-101.074,-265.625
1688255185.025,58.594,-55.176,-53.223,-62.012,-236.816
1688255185.029,-121.094,-45.410,-51.758,8.301,-25.879
1688255185.033,-180.176,-33.691,-48.828,33.691,140.137
1688255185.037,11.719,-30.273,-37.598,-19.531,18.066
1688255185.041,142.090,-36.621,-37.109,-53.223,-154.785
1688255185.044,71.289,-45.898,-39.551,-39.551,60.059
1688255185.048,-88.379,-38.086,-56.641,5.859,352.539
1688255185.052,-178.223,-24.902,-50.293,23.438,73.730
1688255185.056,-47.852,-27.832,-32.715,-27.344,-102.051
1688255185.060,110.352,-41.016,-37.598,-85.938,-182.617
1688255185.047,63.965,-44.434,-41.504,-71.777,-188.477
1688255185.051,-87.891,-43.457,-31.250,-4.883,-57.129
1688255185.055,-164.062,-29.785,-23.438,36.133,34.180
1688255185.059,-43.945,-30.762,-22.949,-10.742,205.078
1688255185.063,94.238,-50.293,-33.203,-84.961,-90.820
1688255185.067,86.426,-50.293,-39.062,-77.637,-230.469
1688255185.071,-46.387,-53.711,-44.922,-16.113,22.949
1688255185.074,-188.965,-50.781,-44.434,16.113,218.750
1688255185.078,-102.539,-33.691,-50.293,-9.277,58.105
1688255185.082,82.031,-32.227,-63.965,-46.387,-225.586
1688255185.086,110.840,-39.062,-41.504,-49.805,-200.684
1688255185.090,-22.949,-40.527,-20.508,-10.742,57.617
1688255185.092,-169.434,-44.922,-14.648,34.668,25.391
1688255185.096,-92.773,-44.922,-16.113,12.695,-107.910
1688255185.100,81.055,-35.156,-22.461,-56.152,-52.246
1688255185.104,104.492,-26.367,-40.527,-89.355,40.039
1688255185.108,-20.020,-43.457,-54.688,-41.016,-61.523
1688255185.112,-173.340,-61.523,-41.992,31.738,26.855
1688255185.116,-110.352,-50.293,-26.367,9.277,329.590
1688255185.119,65.430,-25.879,-25.391,-59.570,190.918
1688255185.123,94.238,-21.484,-40.039,-91.797,-305.664
1688255185.127,24.414,-34.668,-71.289,-58.594,-252.930
1688255185.131,-123.047,-37.598,-52.734,41.992,156.250
1688255185.135,-137.207,-45.898,-12.695,48.340,113.770
1688255185.137,33.203,-55.176,-14.648,-49.805,-181.152
1688255185.141,103.027,-43.945,-25.879,-80.078,-104.980
1688255185.145,37.109,-46.387,-31.738,-28.809,116.211
1688255185.149,-127.930,-53.711,-59.570,44.434,39.551
1688255185.153,-170.898,-51.758,-65.918,57.129,-51.758
1688255185.157,24.902,-61.035,-32.715,-9.277,35.645
1688255185.161,108.398,-57.129,-14.160,-69.336,226.562
1688255185.164,19.531,-27.832,-28.320,-62.500,-58.105
1688255185.168,-125.488,-19.531,-30.273,1.465,-216.309
1688255185.172,-159.668,-26.367,-30.762,23.926,-13.672
1688255185.176,27.344,-25.391,-47.363,-29.785,-69.824
1688255185.180,115.723,-38.574,-69.824,-83.008,-202.637
1688255185.185,37.598,-49.316,-66.895,-83.496,-164.062
1688255185.189,-94.727,-27.832,-55.176,-23.438,-20.996
1688255185.193,-159.180,-16.113,-47.852,23.926,141.113
1688255185.197,3.418,-22.461,-59.570,-27.832,-4.395
1688255185.201,110.352,-30.762,-61.035,-83.984,-197.266
1688255185.205,48.340,-37.109,-32.715,-51.270,-17.578
1688255185.209,-50.293,-29.785,-27.344,5.859,184.082
1688255185.212,-159.668,-29.785,-35.645,55.176,61.523
1688255185.216,-75.195,-46.387,-37.598,6.348,-101.074
1688255185.220,102.051,-58.105,-44.434,-76.172,37.109
1688255185.224,92.773,-56.641,-51.758,-73.730,1.953
1688255185.228,-54.199,-47.363,-46.875,-15.625,-205.078
1688255185.244,-175.293,-49.805,-43.457,19.531,-80.566
1688255185.248,-74.707,-45.898,-61.523,-5.371,109.863
1688255185.252,92.773,-37.109,-58.594,-61.035,-63.965
1688255185.256,106.934,-39.062,-34.180,-67.383,-229.492
1688255185.260,-14.160,-37.598,-27.832,-1.953,-150.879
1688255185.264,-147.949,-41.016,-29.785,42.480,430.176
1688255185.268,-78.613,-40.039,-31.250,12.207,500.000
1688255185.271,82.520,-44.434,-29.297,-54.688,-158.691
1688255185.275,88.379,-55.664,-29.297,-70.801,-300.293
1688255185.279,-25.879,-62.500,-61.035,-14.160,-117.676
1688255185.283,-170.898,-53.711,-64.941,50.781,-37.598
1688255185.287,-111.328,-41.504,-39.551,33.691,-37.109
1688255185.289,83.984,-37.598,-35.156,-51.270,-100.098
1688255185.293,94.238,-30.762,-41.504,-83.496,-204.102
1688255185.297,4.395,-34.668,-54.688,-32.227,-226.074
1688255185.301,-135.254,-53.711,-40.039,39.551,-95.703
1688255185.305,-126.953,-53.711,-13.184,40.039,96.680
1688255185.309,58.594,-44.922,-11.230,-43.457,68.848
1688255185.313,111.328,-36.133,-25.879,-81.055,-40.039
1688255185.316,13.672,-33.691,-37.598,-44.922,-136.230
1688255185.320,-153.809,-46.875,-41.504,13.672,80.078
1688255185.324,-181.641,-46.387,-37.598,24.902,328.613
1688255185.328,3.418,-36.133,-27.832,-41.016,-112.305
1688255185.332,110.840,-40.527,-34.668,-88.379,-324.707
1688255185.333,56.641,-48.828,-43.945,-45.410,-167.480
1688255185.337,-102.051,-49.316,-44.434,32.227,-69.824
1688255185.341,-158.691,-43.945,-43.457,35.645,-29.785
1688255185.345,7.812,-39.551,-41.504,-39.062,-59.570
1688255185.349,109.863,-41.016,-49.805,-92.285,-117.188
1688255185.353,69.336,-43.457,-31.738,-61.523,-91.797
1688255185.357,-94.727,-44.434,-18.555,12.207,28.320
1688255185.360,-178.711,-50.293,-42.480,43.457,104.492
1688255185.364,-18.555,-54.199,-52.734,-15.625,333.984
1688255185.368,106.934,-51.758,-49.805,-73.242,216.309
1688255185.372,86.914,-55.664,-44.434,-84.473,-293.457
1688255185.376,-75.195,-52.246,-38.086,-13.184,-250.488
1688255185.377,-203.613,-44.922,-42.969,43.457,-0.488
1688255185.381,-72.754,-40.527,-40.039,-17.578,-118.652
1688255185.385,88.867,-33.203,-22.949,-83.496,-251.465
1688255185.389,91.309,-37.109,-28.320,-63.965,-218.750
1688255185.393,-60.547,-44.434,-45.898,-8.301,-141.113
1688255185.397,-177.246,-47.363,-44.922,36.133,67.383
1688255185.401,-52.246,-61.523,-44.922,5.371,91.797
1688255185.404,129.395,-65.918,-40.527,-56.641,71.777
1688255185.408,119.141,-57.129,-33.691,-74.219,46.387
1688255185.412,-60.547,-44.922,-44.922,-30.762,-117.188
1688255185.416,-192.871,-30.762,-40.039,44.434,3.418
1688255185.420,-83.496,-24.902,-27.832,10.742,137.695
1688255185.422,89.844,-20.996,-42.480,-82.520,-26.367
1688255185.426,89.844,-33.203,-39.062,-87.402,-161.133
1688255185.430,-25.879,-38.086,-26.367,-11.719,-82.520
1688255185.434,-142.090,-39.062,-49.316,58.594,241.699
1688255185.438,-76.172,-54.199,-62.012,46.387,88.867
1688255185.442,74.219,-43.945,-38.086,-24.902,-122.559
1688255185.446,90.332,-43.457,-24.414,-59.082,-42.969
1688255185.449,-11.230,-46.387,-21.973,-17.578,125.000
1688255185.453,-153.809,-41.992,-20.020,31.250,4.883
1688255185.457,-130.859,-44.434,-19.043,-6.348,-126.465
1688255185.461,40.039,-46.387,-21.973,-74.219,-127.441
1688255185.465,104.492,-51.270,-38.086,-92.285,-225.586
1688255185.470,11.230,-61.035,-71.777,-40.039,-235.840
1688255185.474,-142.578,-56.641,-82.520,25.879,-118.652
1688255185.478,-111.816,-43.945,-42.969,43.945,98.633
1688255185.482,52.246,-35.645,-14.648,-23.926,51.758
1688255185.486,83.496,-29.785,-17.578,-99.609,-187.012
1688255185.490,-16.602,-42.480,-17.578,-70.801,-183.105
1688255185.494,-150.879,-49.805,-26.855,18.555,219.238
1688255185.497,-163.086,-54.688,-60.059,28.809,381.348
1688255185.501,-16.113,-49.805,-60.547,-41.016,-80.078
1688255185.505,78.613,-41.504,-34.668,-101.562,-298.828
1688255185.509,39.062,-47.363,-35.156,-81.055,-217.285
1688255185.513,-103.516,-41.016,-57.129,-5.859,-142.578
1688255185.516,-19.043,-44.922,-58.105,-8.789,7.812
1688255185.520,133.301,-44.434,-37.109,-80.566,-123.047
1688255185.524,91.309,-35.156,-14.160,-70.801,-200.195
1688255185.528,-111.328,-43.945,-22.949,-2.441,-81.543
1688255185.532,-200.195,-57.129,-37.598,45.410,138.672
1688255185.536,-34.668,-40.039,-47.852,1.465,459.473
1688255185.539,102.539,-30.273,-49.316,-76.172,281.738
1688255185.543,81.055,-37.598,-46.387,-74.219,-233.887
1688255185.547,-52.246,-50.781,-36.133,1.465,-163.574
1688255185.551,-170.410,-57.617,-56.152,56.641,131.836
1688255185.555,-56.152,-54.199,-73.730,4.395,-41.016
1688255185.559,107.422,-50.293,-38.086,-70.312,-262.695
1688255185.563,88.867,-49.316,-18.066,-62.500,-256.836
1688255185.567,-49.805,-43.457,-33.203,-9.766,-132.812
1688255185.571,-187.500,-44.922,-38.574,30.273,-40.039
1688255185.575,-95.215,-50.293,-37.109,-0.977,-68.359
1688255185.579,86.914,-58.105,-26.855,-77.637,-15.137
1688255185.583,108.398,-50.781,-16.113,-78.125,-45.410
1688255185.586,-25.391,-31.738,-39.062,0.488,-61.523
1688255185.590,-175.781,-41.504,-49.316,56.152,28.320
1688255185.594,-92.285,-60.059,-41.504,20.996,279.297
1688255185.598,70.801,-46.875,-49.316,-71.289,231.445
1688255185.602,86.426,-42.969,-34.180,-97.168,-202.637
1688255185.617,-8.789,-45.410,-29.297,-15.625,-150.879
1688255185.621,-146.973,-40.039,-42.480,28.809,145.508
1688255185.625,-132.324,-52.246,-43.945,2.441,118.652
1688255185.629,51.270,-64.453,-42.480,-40.527,-131.836
1688255185.633,122.559,-61.035,-44.434,-66.895,-177.734
1688255185.637,23.926,-54.199,-45.898,-33.691,170.410
1688255185.641,-124.512,-54.688,-58.105,18.066,193.359
1688255185.644,-128.906,-56.152,-69.336,8.301,24.902
1688255185.648,31.738,-46.387,-68.359,-51.270,-15.137
1688255185.652,79.590,-58.594,-60.547,-74.707,194.824
1688255185.656,3.418,-62.988,-39.062,-49.316,1.465
1688255185.660,-130.371,-55.176,-45.410,21.973,-184.082
1688255185.662,-157.227,-64.453,-63.965,34.180,2.930
1688255185.666,33.203,-77.637,-39.551,-37.109,-85.449
1688255185.670,113.770,-69.824,-39.551,-90.820,-286.133
1688255185.674,23.926,-56.152,-41.992,-39.062,-257.812
1688255185.678,-119.629,-61.523,-30.273,37.598,-51.270
1688255185.682,-164.062,-58.594,-42.969,33.691,131.348
1688255185.686,14.160,-45.410,-51.758,-24.902,72.266
1688255185.689,127.441,-44.922,-40.039,-71.289,-140.625
1688255185.693,67.871,-50.293,-38.574,-47.363,22.461
1688255185.697,-80.566,-51.758,-36.133,23.926,176.758
1688255185.701,-155.273,-49.316,-36.621,44.434,3.906
1688255185.705,26.855,-50.781,-45.898,-35.156,-67.383
1688255185.709,154.297,-70.801,-34.668,-97.656,-107.422
1688255185.713,83.984,-74.707,-26.367,-74.707,-171.875
1688255185.717,-65.918,-60.547,-38.574,-5.859,-206.543
1688255185.721,-158.691,-53.223,-48.340,33.691,-48.340
1688255185.725,-45.410,-38.574,-42.969,5.371,265.137
1688255185.729,79.102,-28.809,-53.223,-56.641,69.824
1688255185.733,84.473,-30.762,-57.617,-49.316,-246.582
1688255185.736,-27.344,-31.250,-42.480,33.691,-164.062
1688255185.740,-150.391,-33.203,-22.949,78.125,243.652
1688255185.744,-46.875,-40.527,-20.996,14.648,70.312
1688255185.748,104.980,-45.898,-26.367,-60.547,-308.594
1688255185.752,94.238,-46.875,-34.180,-77.637,-280.762
1688255185.767,-18.555,-47.852,-40.527,-29.297,-124.512
1688255185.771,-136.719,-42.480,-34.668,23.926,-36.133
1688255185.775,-61.523,-40.527,-38.574,0.977,-57.617
1688255185.779,80.078,-44.434,-40.527,-45.410,-43.945
1688255185.783,100.586,-43.945,-49.316,-64.453,-109.375
1688255185.787,-2.441,-41.992,-47.363,-25.879,-83.008
1688255185.791,-161.621,-43.945,-41.016,35.645,125.000
1688255185.794,-104.980,-46.875,-53.223,19.043,269.043
1688255185.798,59.082,-51.758,-56.152,-57.129,21.973
1688255185.802,87.891,-52.246,-50.293,-90.332,-250.977
1688255185.806,5.859,-61.035,-52.734,-16.113,-151.367
1688255185.810,-144.043,-58.594,-50.293,61.523,220.703
1688255185.813,-143.066,-38.086,-41.016,27.832,204.590
1688255185.817,31.250,-42.480,-42.969,-48.340,-75.195
1688255185.821,105.957,-59.082,-50.781,-95.703,-122.070
1688255185.825,54.199,-55.176,-60.547,-58.105,240.234
1688255185.829,-117.188,-50.781,-43.457,37.598,199.707
1688255185.833,-154.297,-45.898,-29.785,57.129,1.953
1688255185.837,20.020,-40.039,-34.668,-34.180,57.617
1688255185.840,101.562,-35.156,-45.410,-88.867,-99.609
1688255185.844,38.086,-36.133,-66.895,-54.199,-225.098
1688255185.848,-119.141,-47.852,-73.242,15.625,-189.453
1688255185.852,-165.527,-54.688,-54.688,47.363,43.945
1688255185.856,-14.160,-48.828,-45.410,-24.414,284.668
1688255185.857,102.539,-43.945,-51.270,-87.402,-83.496
1688255185.861,70.801,-52.734,-49.316,-62.988,-317.871
1688255185.865,-93.262,-54.688,-53.711,0.977,-108.398
1688255185.869,-182.617,-66.406,-66.895,20.508,-0.488
1688255185.873,-25.879,-62.988,-66.895,-37.109,-101.562
1688255185.877,105.469,-42.480,-54.688,-95.703,-142.578
1688255185.881,37.598,-47.363,-52.246,-85.938,-12.207
1688255185.884,-88.379,-48.340,-53.223,1.465,44.434
1688255185.888,-181.152,-42.969,-50.293,38.574,58.594
1688255185.892,-74.219,-35.156,-57.617,-7.812,-78.125
1688255185.896,100.586,-26.855,-50.293,-66.895,43.945
1688255185.900,96.191,-48.340,-43.945,-72.266,158.691
1688255185.887,-54.688,-57.617,-45.410,-12.207,-84.473
1688255185.891,-185.059,-41.992,-33.691,34.668,41.016
1688255185.895,-79.102,-42.480,-29.785,-8.789,125.000
1688255185.899,84.961,-60.059,-29.297,-100.586,-132.812
1688255185.903,62.500,-58.594,-30.273,-92.773,-314.453
1688255185.907,-56.152,-41.504,-37.598,-6.836,-96.191
1688255185.911,-187.012,-34.180,-41.016,45.410,417.480
1688255185.914,-122.070,-39.062,-47.852,9.277,190.918
1688255185.918,76.172,-42.969,-38.574,-61.523,-226.562
1688255185.922,121.094,-41.992,-32.715,-75.195,-223.145
1688255185.926,5.859,-33.691,-45.898,-12.207,194.824
1688255185.930,-161.621,-32.227,-45.410,45.898,205.566
1688255185.947,-123.535,-33.691,-42.969,24.902,-72.754
1688255185.951,83.984,-28.809,-50.293,-56.152,-129.395
1688255185.955,123.047,-27.344,-45.898,-77.148,-242.188
1688255185.959,-5.371,-28.809,-33.203,-33.203,-181.641
1688255185.963,-160.645,-32.715,-28.320,16.602,33.203
1688255185.967,-138.672,-36.133,-41.016,32.715,205.566
1688255185.971,53.711,-38.574,-58.105,-33.691,133.789
1688255185.974,121.094,-41.992,-37.598,-73.730,-91.797
1688255185.978,41.992,-12.695,-2.930,-10.742,-141.113
1688255185.982,-119.629,22.461,-4.883,47.363,172.363
1688255185.986,-138.672,-23.926,-32.715,25.879,264.160
1688255185.990,37.109,-62.500,-46.875,-52.246,-76.172
1688255185.992,126.953,-15.625,-20.996,-81.543,-212.891
1688255185.996,57.129,19.531,0.000,-17.578,166.992
1688255186.000,-121.094,-24.414,-33.691,46.875,179.199
1688255186.004,-158.203,-72.754,-45.898,23.438,-62.500
1688255186.008,25.391,-66.895,-39.551,-44.922,-115.723
1688255186.012,114.746,-40.039,-55.176,-82.031,-150.879
1688255186.016,45.898,-59.570,-69.824,-51.270,-93.262
1688255186.019,-109.375,-67.383,-69.824,23.438,-69.336
1688255186.023,-184.570,-46.387,-37.109,51.270,33.691
1688255186.027,-34.180,-67.383,-55.176,-21.973,284.180
1688255186.031,73.730,-75.684,-91.797,-107.910,2.441
1688255186.035,30.273,-53.223,-85.449,-81.543,-285.645
1688255186.037,-106.445,-47.852,-76.660,-11.719,-113.770
1688255186.041,-214.355,-60.059,-68.359,-1.953,56.152
1688255186.045,-72.266,-34.668,-50.293,-40.527,38.086
1688255186.049,85.938,-20.508,-25.391,-102.051,-155.273
1688255186.053,58.105,-63.477,-26.367,-89.844,-129.883
1688255186.057,-72.754,-52.246,-14.648,0.977,113.770
1688255186.061,-183.594,-45.898,10.254,60.059,166.016
1688255186.064,-69.336,-64.453,7.812,24.414,7.812
1688255186.068,102.539,-71.777,-21.973,-69.336,33.203
1688255186.072,72.266,-107.422,-62.012,-118.164,63.965
1688255186.076,-84.961,-105.469,-55.176,-51.758,-125.488
1688255186.080,-223.145,-91.309,-30.273,8.789,-5.371
1688255186.082,-132.812,-92.285,1.465,-39.551,39.551
1688255186.086,81.543,20.508,71.289,-63.477,-76.660
1688255186.090,120.117,98.145,97.168,-54.199,-259.277
1688255186.094,-43.945,-42.969,60.547,-34.668,-162.598
1688255186.098,-215.332,-156.738,-2.930,10.254,324.219
1688255186.102,-158.691,-150.879,-41.504,-29.297,270.508
1688255186.106,16.113,-150.391,-11.230,-98.633,-46.875
1688255186.109,70.312,-135.254,35.156,-91.309,-163.574
1688255186.113,-43.457,-141.602,35.156,-34.668,97.168
1688255186.117,-216.309,-186.035,46.387,5.859,54.688
1688255186.121,-173.828,-223.633,73.730,-12.207,-170.898
1688255186.125,25.879,-256.836,52.246,-82.520,-179.688
1688255186.127,81.543,-257.812,66.895,-124.023,-190.430
1688255186.131,-27.344,-220.703,116.699,-69.824,-183.105
1688255186.135,-192.383,-218.262,155.273,-1.465,-50.293
1688255186.139,-184.082,-227.539,169.922,-8.789,78.125
1688255186.143,-13.672,-220.215,191.895,-72.266,20.020
1688255186.147,62.500,-294.922,229.004,-89.355,-78.613
1688255186.151,38.086,-403.809,236.816,-61.035,-110.840
1688255186.154,-120.605,-489.258,231.934,-0.488,217.285
1688255186.158,-208.008,-550.781,235.840,23.926,496.582
1688255186.162,-49.316,-583.008,233.887,-58.105,-25.879
1688255186.166,49.316,-608.398,259.766,-114.746,-301.758
1688255186.170,-6.348,-604.980,301.758,-73.730,-202.637
1688255186.172,-138.672,-582.031,315.430,3.906,-102.051
1688255186.176,-188.477,-552.734,329.590,36.133,1.953
1688255186.180,-14.648,-524.902,330.566,-27.344,-14.160
1688255186.184,146.484,-489.746,302.246,-82.031,55.176
1688255186.188,83.008,-420.898,316.895,-59.570,-135.254
1688255186.192,-111.328,-392.578,344.238,7.812,-173.340
1688255186.196,-163.086,-396.484,311.035,31.738,153.320
1688255186.199,-27.344,-370.117,292.480,8.789,348.633
1688255186.203,112.305,-347.168,305.176,-33.691,34.668
1688255186.207,113.281,-300.293,316.895,-29.785,-244.141
1688255186.211,-47.852,-265.137,319.824,37.109,-97.168
1688255186.215,-168.457,-256.836,299.805,58.594,83.008
1688255186.217,-52.734,-242.676,272.949,-5.859,-16.602
1688255186.221,104.980,-230.469,250.488,-68.848,-207.520
1688255186.225,107.422,-220.215,222.168,-60.547,-270.020
1688255186.229,-20.020,-194.824,216.309,3.906,-140.137
1688255186.233,-140.137,-181.641,198.730,58.594,-7.812
1688255186.237,-20.020,-187.012,177.734,-0.488,36.133
1688255186.241,143.555,-181.152,186.035,-66.895,159.180
1688255186.244,145.020,-168.945,189.453,-48.828,74.219
1688255186.248,-7.324,-173.340,170.410,6.348,-113.281
1688255186.252,-149.902,-147.461,162.109,59.570,-59.570
1688255186.256,-48.828,-114.746,135.742,28.320,10.254
1688255186.260,113.281,-147.949,81.055,-57.129,-62.500
1688255186.263,136.719,-185.059,61.035,-90.820,-233.398
1688255186.267,27.344,-185.547,63.965,-25.391,-121.582
1688255186.271,-134.766,-168.945,56.641,41.504,260.254
1688255186.275,-100.098,-155.762,51.758,21.973,188.477
1688255186.279,90.332,-154.297,55.176,-51.758,-158.203
1688255186.283,137.695,-151.855,56.152,-71.289,-119.629
1688255186.287,35.645,-130.371,52.734,-8.789,231.445
1688255186.290,-132.812,-109.375,37.598,48.828,135.742
1688255186.294,-155.273,-112.793,15.625,21.484,-56.641
1688255186.298,41.992,-98.633,13.672,-58.105,-136.230
1688255186.302,134.277,-92.285,14.648,-83.008,-208.984
1688255186.306,60.059,-119.141,11.230,-29.297,-234.375
1688255186.310,-94.727,-124.023,18.555,33.203,-120.117
1688255186.314,-118.652,-81.055,38.574,43.457,99.121
1688255186.318,56.152,-41.504,74.219,14.160,16.113
1688255186.322,152.832,9.766,81.543,-32.227,-206.543
1688255186.326,75.684,-0.488,39.062,-28.320,-248.535
1688255186.330,-135.254,-169.922,-43.945,20.996,173.340
1688255186.334,-200.195,-241.699,-93.750,12.695,382.324
1688255186.337,-14.160,-188.477,-82.031,-65.918,-41.504
1688255186.341,116.211,-151.855,-50.293,-106.445,-262.207
1688255186.345,92.285,-75.195,-2.441,-65.430,-61.035
1688255186.349,-88.379,-26.855,13.672,0.000,45.898
1688255186.353,-185.059,-34.668,6.348,27.344,-5.859
1688255186.367,-38.086,-37.109,-7.812,-36.621,-27.832
1688255186.371,79.102,-78.125,-53.223,-108.398,-38.574
1688255186.375,30.762,-109.863,-75.195,-98.633,-138.184
1688255186.379,-110.840,-48.828,-20.508,-1.953,-156.250
1688255186.383,-165.527,26.855,71.777,64.941,37.598
1688255186.387,-30.762,0.977,33.203,-7.812,501.465
1688255186.391,73.730,9.277,-17.578,-110.352,331.055
1688255186.394,46.875,40.039,25.391,-126.953,-275.879
1688255186.398,-78.125,-48.340,40.039,-41.016,-177.734
1688255186.402,-212.891,-110.352,2.930,-1.465,96.191
1688255186.406,-132.812,-117.188,-12.695,-87.891,-69.336
1688255186.410,52.246,-45.898,69.824,-133.301,-286.133
1688255186.412,62.012,5.859,128.906,-105.957,-270.020
1688255186.416,-96.191,-3.906,99.609,-62.500,-127.441
1688255186.420,-249.023,-15.137,70.312,-34.180,-44.922
1688255186.424,-171.875,-21.484,104.004,-47.852,-15.137
1688255186.428,6.836,14.160,192.383,-96.680,-72.754
1688255186.432,42.480,110.840,276.367,-112.305,-64.453
1688255186.436,-80.566,131.348,313.477,-66.895,-23.438
1688255186.439,-246.094,81.055,306.152,-27.344,73.242
1688255186.443,-200.195,111.328,308.105,-32.227,306.152
1688255186.447,3.418,236.816,320.312,-91.309,385.254
1688255186.451,34.668,277.344,303.223,-150.879,-92.285
1688255186.455,-85.938,295.898,372.070,-97.168,-263.184
1688255186.457,-261.230,438.477,471.191,-28.320,24.414
1688255186.461,-259.766,596.191,493.652,-59.082,133.789
1688255186.465,-64.941,776.367,511.719,-143.555,-116.211
1688255186.469,-23.926,939.941,570.312,-166.504,-173.340
1688255186.473,-96.680,971.191,651.367,-116.211,122.070
1688255186.477,-248.047,962.891,698.730,-61.523,192.383
1688255186.481,-289.062,968.750,738.770,-61.035,59.570
1688255186.484,-104.004,967.773,812.988,-120.117,-53.711
1688255186.488,-18.555,967.773,885.742,-173.340,94.727
1688255186.492,-84.961,967.773,954.590,-131.348,-16.602
1688255186.496,-240.234,967.773,970.703,-71.289,-166.504
1688255186.500,-274.414,967.773,965.332,-77.637,-31.250
1688255186.502,-87.891,967.773,968.262,-143.555,-37.109
1688255186.506,16.113,967.773,967.773,-199.219,-266.602
1688255186.510,-50.781,967.773,967.773,-168.945,-307.617
1688255186.514,-200.684,967.773,967.773,-84.473,-70.312
1688255186.518,-282.227,967.773,967.773,-72.754,73.242
1688255186.522,-145.020,967.773,967.773,-165.039,59.570
1688255186.526,-0.488,967.773,967.773,-225.586,-134.766
1688255186.529,-26.367,967.773,967.773,-197.266,4.883
1688255186.533,-186.035,967.773,967.773,-140.625,180.664
1688255186.537,-280.273,967.773,967.773,-117.676,17.578
1688255186.541,-125.488,967.285,967.773,-166.504,-61.035
1688255186.545,2.441,967.285,967.773,-229.980,-166.992
1688255186.547,-12.695,967.773,967.773,-194.824,-197.754
1688255186.551,-133.301,967.773,967.773,-89.355,-52.246
1688255186.555,-259.277,967.773,967.285,-49.316,23.438
1688255186.559,-129.883,967.773,967.773,-104.980,243.652
1688255186.563,43.457,967.773,967.773,-202.637,73.730
1688255186.567,29.785,967.773,967.285,-203.125,-165.527
1688255186.571,-101.562,968.750,967.773,-122.070,62.012
1688255186.574,-222.656,964.355,967.773,-66.895,387.695
1688255186.578,-138.184,967.773,967.285,-111.816,102.051
1688255186.582,24.902,965.332,967.773,-193.359,-250.977
1688255186.586,31.738,837.891,967.285,-186.523,-249.023
1688255186.590,-83.008,703.613,967.285,-134.766,-199.707
1688255186.593,-204.102,674.805,967.773,-72.266,-90.820
1688255186.597,-145.996,664.062,967.773,-94.727,-77.637
1688255186.601,27.832,504.883,967.285,-188.965,-104.004
1688255186.605,46.875,274.414,967.773,-221.191,-163.574
1688255186.609,-59.570,140.137,967.285,-160.156,-148.926
1688255186.613,-193.848,63.477,967.773,-77.637,67.871
1688255186.617,-157.227,45.410,967.773,-73.242,338.379
1688255186.620,24.414,75.684,967.285,-142.578,249.023
1688255186.624,65.430,91.309,968.262,-170.898,-221.680
1688255186.628,-20.996,83.008,965.820,-99.609,-261.719
1688255186.632,-185.547,45.410,969.238,-20.508,16.113
1688255186.636,-182.129,29.297,955.566,-31.738,38.086
1688255186.638,31.738,49.316,887.207,-107.910,-128.418
1688255186.642,110.352,65.430,844.727,-124.023,-97.656
1688255186.646,20.508,91.309,846.680,-71.777,76.172
1688255186.650,-140.137,127.930,812.500,-11.719,41.504
1688255186.654,-157.715,112.305,781.738,19.043,10.254
1688255186.658,36.133,82.520,764.160,-30.762,58.594
1688255186.662,126.465,44.434,683.105,-82.520,231.445
1688255186.665,17.578,-42.969,610.352,-63.965,41.016
1688255186.669,-165.039,-105.957,602.051,-14.160,-113.281
1688255186.673,-208.496,-92.285,599.609,4.395,38.574
1688255186.677,-17.578,-25.879,606.934,-45.410,-79.102
1688255186.681,122.559,9.277,590.820,-113.770,-313.965
1688255186.697,42.480,-26.855,553.711,-96.680,-335.449
1688255186.701,-105.957,-7.812,560.547,25.879,-121.094
1688255186.705,-188.477,47.363,506.836,54.199,34.668
1688255186.709,-52.246,61.523,439.941,-31.738,-79.102
1688255186.713,93.750,73.242,428.711,-119.629,-176.270
1688255186.717,57.617,90.820,421.875,-128.906,-6.348
1688255186.721,-73.242,145.996,409.180,-21.484,132.812
1688255186.724,-204.590,170.410,370.605,27.344,129.395
1688255186.728,-84.473,157.227,337.402,-15.137,22.461
1688255186.732,87.891,148.438,340.332,-64.941,22.949
1688255186.736,60.547,164.551,383.301,-76.172,-88.379
1688255186.740,-53.223,206.543,428.711,8.789,-156.738
1688255186.742,-158.203,208.984,414.551,69.824,30.273
1688255186.746,-85.449,116.211,335.938,-6.836,436.035
1688255186.750,98.633,68.848,288.086,-104.004,283.203
1688255186.754,94.727,103.027,274.414,-95.215,-266.113
1688255186.758,-36.621,138.672,271.973,-19.531,-225.586
1688255186.762,-187.500,178.223,307.617,45.410,67.383
1688255186.766,-130.371,196.777,313.965,-3.906,147.461
1688255186.769,70.801,155.273,290.039,-102.539,-156.738
1688255186.773,102.539,95.703,297.363,-99.609,-266.602
1688255186.777,-15.625,78.125,317.383,-10.742,213.867
1688255186.781,-183.105,89.844,328.125,61.523,237.793
1688255186.785,-156.250,102.539,320.312,6.836,-58.594
1688255186.789,16.113,96.680,320.312,-93.750,-155.273
1688255186.793,69.824,82.031,329.590,-97.656,-266.602
1688255186.797,-10.254,88.867,336.426,-8.301,-241.699
1688255186.801,-170.410,108.398,322.266,62.500,-58.594
1688255186.805,-168.457,97.656,295.898,36.133,36.621
1688255186.809,16.602,88.379,283.203,-46.875,-32.715
1688255186.813,114.258,82.520,279.785,-71.777,-143.555
1688255186.816,45.898,80.566,272.949,-29.297,-188.965
1688255186.820,-125.488,87.891,273.926,28.320,118.652
1688255186.824,-151.367,88.867,287.109,21.973,296.387
1688255186.828,22.461,101.074,281.738,-70.801,-70.801
1688255186.832,107.910,92.773,268.066,-102.539,-199.219
1688255186.832,19.043,62.500,229.492,-34.668,92.773
1688255186.836,-125.488,95.215,208.984,52.734,150.391
1688255186.840,-160.156,120.605,231.445,63.477,27.344
1688255186.844,8.301,100.098,231.934,-12.207,-57.129
1688255186.848,124.512,83.496,202.148,-78.125,-102.539
1688255186.852,78.125,76.172,191.406,-44.922,-71.777
1688255186.856,-85.938,64.941,193.848,34.668,-10.742
1688255186.859,-172.363,40.039,154.785,62.012,61.035
1688255186.863,-8.789,20.508,124.023,-7.324,273.438
1688255186.867,119.141,15.625,128.906,-88.379,12.207
1688255186.871,73.730,21.973,138.672,-63.965,-322.266
1688255186.875,-56.152,4.395,142.090,13.184,-113.281
1688255186.878,-160.156,-33.203,127.930,45.410,150.879
1688255186.882,-31.738,-38.086,119.629,1.465,-15.625
1688255186.886,132.812,-24.414,125.977,-58.105,-160.156
1688255186.890,117.676,-21.484,119.629,-23.926,-124.512
1688255186.894,-41.016,-73.730,89.844,41.992,-76.660
1688255186.898,-166.992,-102.051,85.938,69.336,72.266
1688255186.902,-62.988,-107.910,77.148,12.207,120.117
1688255186.905,127.441,-91.797,87.891,-53.711,70.312
1688255186.909,131.348,-65.918,111.328,-47.363,-2.930
1688255186.913,-33.203,-136.230,57.617,-1.953,-170.898
1688255186.917,-175.781,-198.242,21.484,52.246,-90.332
1688255186.921,-83.008,-174.805,42.969,38.574,-16.113
1688255186.922,107.422,-141.602,65.430,-41.504,-173.340
1688255186.926,118.652,-161.621,50.293,-72.754,-249.023
1688255186.930,-6.836,-181.152,36.621,-1.465,-125.000
1688255186.934,-121.094,-147.461,53.711,106.445,152.344
1688255186.938,-77.148,-174.805,24.414,64.453,137.695
1688255186.942,76.172,-230.469,-19.531,-64.453,-60.059
1688255186.946,92.773,-231.445,-17.578,-84.473,-160.156
1688255186.949,-18.066,-227.051,-7.324,-10.254,210.449
1688255186.953,-152.832,-213.867,3.418,59.082,234.863
1688255186.957,-127.930,-183.105,20.996,53.711,-109.375
1688255186.961,75.195,-171.875,11.230,-40.527,-157.715
1688255186.965,125.000,-171.387,-1.953,-87.891,-191.895
1688255186.967,27.832,-167.969,4.395,-40.039,-214.355
1688255186.971,-108.398,-159.180,20.020,43.945,-51.270
1688255186.975,-96.191,-131.836,35.156,77.637,59.570
1688255186.979,71.289,-153.809,6.836,-10.742,-85.449
1688255186.983,126.465,-191.406,-32.715,-84.961,-266.113
1688255186.987,55.176,-190.430,-37.109,-31.250,-237.305
1688255186.991,-113.770,-172.363,-12.207,65.430,236.328
1688255186.994,-166.016,-160.156,8.789,58.594,470.703
1688255186.998,11.230,-155.762,-7.812,-42.969,-27.344
1688255187.002,139.160,-126.465,-16.113,-60.059,-260.254
1688255187.006,83.984,-122.070,-4.395,-4.395,-29.297
1688255187.010,-62.012,-127.930,0.000,30.273,38.574
1688255187.012,-122.559,-85.938,15.625,46.387,38.086
1688255187.016,9.766,-87.891,0.000,-10.254,101.562
1688255187.020,119.629,-149.902,-30.273,-63.477,82.520
1688255187.024,57.617,-158.203,-46.387,-47.363,-146.973
1688255187.028,-95.215,-133.789,-55.664,13.184,-230.957
1688255187.032,-161.133,-135.742,-38.086,34.180,29.785
1688255187.036,-31.250,-115.234,-27.344,-16.113,308.105
1688255187.039,89.844,-93.750,-42.480,-90.820,-51.270
1688255187.043,61.035,-111.328,-72.266,-126.465,-375.977
1688255187.047,-72.754,-112.793,-76.660,-58.105,-108.887
1688255187.051,-202.637,-93.262,-64.941,20.996,147.949
1688255187.055,-82.520,-60.547,-60.059,-25.879,-54.199
1688255187.072,88.379,-56.152,-66.895,-107.422,-258.789
1688255187.076,66.406,-82.520,-70.801,-94.238,-191.895
1688255187.080,-66.895,-93.750,-77.148,-29.785,-41.992
1688255187.084,-176.758,-97.656,-74.219,10.742,32.227
1688255187.088,-88.379,-103.516,-43.945,-22.461,23.926
1688255187.092,79.590,-89.355,-35.156,-74.707,132.812
1688255187.096,104.980,-60.059,-49.316,-99.121,43.457
1688255187.099,-29.785,-58.594,-50.781,-34.180,-96.680
1688255187.103,-173.340,-77.148,-41.016,72.754,21.973
1688255187.107,-109.863,-84.961,-44.922,33.691,211.914
1688255187.111,78.613,-71.777,-62.988,-64.941,41.016
1688255187.115,138.672,-55.176,-57.129,-75.684,-266.602
1688255187.117,18.555,-64.941,-46.387,-14.160,-68.359
1688255187.121,-141.113,-73.730,-48.340,62.012,384.766
1688255187.125,-116.699,-82.520,-46.387,48.828,247.070
1688255187.129,50.781,-84.961,-40.527,-47.363,-166.504
1688255187.133,111.816,-68.359,-41.016,-79.102,-259.277
1688255187.137,20.996,-60.547,-47.363,-41.016,-57.617
1688255187.141,-153.320,-68.848,-46.875,24.414,97.656
1688255187.144,-160.645,-83.984,-62.988,34.180,-45.410
1688255187.148,43.457,-85.938,-73.730,-49.805,-113.281
1688255187.152,135.254,-74.219,-50.781,-87.891,111.816
1688255187.156,56.641,-71.777,-57.129,-41.504,-90.820
1688255187.160,-122.559,-81.543,-84.961,16.113,-156.250
1688255187.162,-162.598,-80.566,-83.496,26.855,45.898
1688255187.166,13.184,-80.078,-72.754,-52.734,-80.078
1688255187.170,128.906,-79.102,-91.797,-112.305,-214.844
1688255187.174,65.918,-83.008,-100.098,-46.875,-181.152
1688255187.178,-120.117,-103.027,-82.031,49.316,12.695
1688255187.182,-156.738,-134.277,-70.801,58.594,212.402
1688255187.186,-15.137,-140.137,-65.918,-54.688,65.430
1688255187.189,101.074,-114.746,-64.453,-108.398,-257.324
1688255187.193,78.125,-112.305,-76.660,-50.781,-49.316
1688255187.197,-71.289,-123.047,-88.867,28.320,191.895
1688255187.201,-150.391,-139.160,-82.520,35.645,-41.016
1688255187.205,-12.695,-159.668,-83.984,-27.344,-142.090
1688255187.222,107.910,-169.922,-106.445,-76.660,-158.203
1688255187.226,69.336,-176.270,-106.445,-66.406,-119.629
1688255187.230,-81.543,-160.156,-83.008,-7.324,-36.133
1688255187.234,-179.199,-153.320,-62.988,44.922,31.738
1688255187.238,-49.805,-187.012,-79.102,12.695,201.660
1688255187.242,107.910,-214.844,-103.516,-63.477,-18.555
1688255187.246,97.168,-232.422,-100.098,-64.453,-151.367
1688255187.249,-40.527,-241.211,-101.562,20.020,61.035
1688255187.253,-158.203,-227.051,-113.281,95.215,398.926
1688255187.257,-68.359,-219.238,-105.469,22.461,260.742
1688255187.261,108.887,-219.238,-93.262,-70.312,-196.777
1688255187.265,131.836,-222.168,-93.262,-71.289,-240.234
1688255187.252,-11.719,-237.793,-96.680,-5.371,-125.977
1688255187.256,-155.762,-239.258,-102.051,65.430,-35.645
1688255187.260,-73.730,-230.469,-119.629,30.273,-33.203
1688255187.264,93.750,-222.656,-124.512,-61.035,-106.934
1688255187.268,122.559,-208.008,-118.164,-82.520,-157.715
1688255187.272,-5.859,-226.562,-122.070,-32.227,-57.129
1688255187.276,-178.711,-251.465,-132.324,43.457,102.051
1688255187.279,-114.746,-248.047,-140.625,43.457,203.613
1688255187.283,78.613,-232.910,-131.836,-29.297,5.371
1688255187.287,107.910,-208.496,-134.766,-57.617,-242.676
1688255187.291,19.043,-202.637,-138.184,-22.461,-230.957
1688255187.295,-123.535,-212.402,-115.723,42.480,160.156
1688255187.298,-119.141,-228.516,-116.211,48.340,412.109
1688255187.302,58.594,-224.609,-140.625,-29.297,-9.277
1688255187.306,142.090,-205.078,-131.348,-67.383,-180.176
1688255187.310,71.777,-192.871,-102.051,-6.836,2.441
1688255187.314,-128.906,-188.965,-110.352,39.062,-53.711
1688255187.318,-201.660,-195.801,-148.438,-1.465,5.371
1688255187.322,-2.930,-178.711,-163.086,-77.637,125.977
1688255187.325,99.121,-150.391,-162.109,-100.586,148.438
1688255187.329,23.438,-130.371,-143.555,-47.852,-90.820
1688255187.333,-144.531,-155.273,-133.301,-5.859,-180.176
1688255187.337,-189.453,-187.012,-144.043,14.648,125.488
1688255187.341,-3.906,-180.664,-140.625,-50.293,101.562
1688255187.342,105.469,-165.039,-125.488,-110.840,-265.625
1688255187.346,46.875,-157.227,-113.281,-68.359,-317.871
1688255187.350,-77.637,-148.926,-107.422,3.418,-106.934
1688255187.354,-167.480,-152.832,-122.070,15.625,11.230
1688255187.358,-34.668,-164.062,-136.230,-46.875,-20.996
1688255187.362,102.539,-148.926,-127.441,-99.121,-76.172
1688255187.366,75.195,-123.535,-116.211,-70.801,51.270
1688255187.369,-71.289,-111.816,-117.188,3.906,213.867
1688255187.373,-173.340,-119.141,-131.836,40.039,20.996
1688255187.377,-23.438,-121.582,-129.395,6.348,-94.727
1688255187.381,113.770,-130.371,-135.742,-79.590,-125.000
1688255187.385,71.289,-136.719,-130.371,-87.402,-206.055
1688255187.388,-60.059,-127.441,-106.445,-1.953,-96.680
1688255187.392,-172.852,-122.559,-108.887,40.527,76.172
1688255187.396,-74.219,-125.488,-131.348,-13.672,291.016
1688255187.400,99.121,-111.328,-142.578,-82.520,107.422
1688255187.404,103.027,-86.426,-113.770,-79.102,-262.207
1688255187.408,-32.715,-96.191,-93.750,-11.230,-59.570
1688255187.412,-155.762,-110.352,-110.840,35.156,283.203
1688255187.415,-73.730,-105.469,-136.719,-10.254,52.734
1688255187.419,85.449,-109.375,-126.465,-87.402,-262.695
1688255187.423,99.121,-104.980,-108.887,-82.031,-243.652
1688255187.427,-25.879,-116.699,-116.211,-10.254,-43.457
1688255187.431,-181.641,-125.000,-110.352,33.203,33.203
1688255187.433,-122.559,-111.816,-114.258,1.465,-24.902
1688255187.437,72.266,-97.656,-120.117,-58.594,-169.434
1688255187.441,126.465,-76.660,-112.305,-79.590,-250.977
1688255187.445,16.113,-67.871,-109.863,-27.832,-107.910
1688255187.449,-152.832,-76.172,-109.375,58.594,-15.625
1688255187.453,-122.559,-83.496,-117.188,41.016,174.316
1688255187.457,56.152,-87.891,-121.094,-41.016,221.191
1688255187.460,103.516,-90.332,-128.418,-76.172,-145.996
1688255187.464,33.691,-77.637,-119.629,-36.621,-272.461
1688255187.468,-112.793,-79.102,-99.121,33.691,51.758
1688255187.472,-139.648,-88.379,-113.281,25.879,169.922
1688255187.476,41.504,-78.125,-123.047,-45.898,-112.305
1688255187.493,134.277,-74.707,-128.418,-69.336,-166.016
1688255187.497,52.734,-79.590,-128.906,-21.484,124.512
1688255187.501,-106.934,-74.707,-105.469,52.734,88.379
1688255187.505,-155.762,-88.867,-99.609,46.875,-84.473
1688255187.509,0.977,-93.750,-116.211,-48.340,-87.891
1688255187.513,105.957,-86.426,-125.977,-97.656,-59.570
1688255187.517,66.406,-86.914,-128.418,-58.594,-127.441
1688255187.520,-83.496,-83.984,-106.445,25.391,-84.961
1688255187.524,-170.898,-90.332,-100.098,56.152,112.793
1688255187.528,-13.184,-103.516,-117.188,6.348,317.871
1688255187.532,120.605,-88.867,-123.535,-50.781,-31.738
1688255187.536,74.219,-75.195,-126.953,-37.598,-295.898
1688255187.537,-70.312,-91.797,-101.562,9.277,-70.801
1688255187.541,-159.668,-101.562,-79.590,37.109,47.363
1688255187.545,-34.180,-111.328,-95.215,-13.672,-51.270
1688255187.549,115.723,-119.141,-109.863,-79.590,-211.426
1688255187.553,90.820,-110.840,-115.723,-60.547,-186.523
1688255187.557,-68.359,-99.121,-105.957,16.602,5.859
1688255187.561,-174.316,-92.773,-98.145,55.664,76.172
1688255187.564,-42.969,-81.055,-104.492,-6.348,-35.156
1688255187.568,92.773,-83.008,-100.586,-71.777,95.215
1688255187.572,79.102,-108.887,-103.516,-71.289,261.230
1688255187.576,-57.617,-114.258,-126.465,-12.695,-18.066
1688255187.580,-187.988,-116.211,-123.047,44.434,-55.176
1688255187.583,-50.781,-105.469,-100.586,10.254,75.684
1688255187.587,98.633,-89.355,-99.121,-59.082,-66.895
1688255187.591,84.961,-100.098,-105.469,-74.219,-266.602
1688255187.595,-13.184,-113.281,-100.098,-16.113,-177.246
1688255187.599,-162.598,-122.070,-108.398,40.039,246.094
1688255187.603,-116.699,-113.281,-113.770,3.906,238.770
1688255187.607,71.289,-102.051,-101.562,-76.172,-70.312
1688255187.610,121.582,-88.867,-91.797,-87.891,-151.855
1688255187.614,7.324,-86.426,-83.496,-23.438,181.152
1688255187.618,-162.109,-107.910,-103.027,16.602,140.625
1688255187.622,-122.070,-104.980,-111.816,24.414,-89.355
1688255187.626,47.363,-95.703,-108.887,-28.320,-80.566
1688255187.627,95.215,-99.609,-100.098,-94.238,-134.277
1688255187.631,19.531,-87.402,-88.379,-41.016,-207.520
1688255187.635,-145.996,-103.027,-107.910,40.527,-133.301
1688255187.639,-136.230,-108.398,-110.840,33.691,-20.020
1688255187.643,43.457,-102.539,-104.492,-37.109,-106.445
1688255187.647,108.398,-112.793,-103.516,-83.984,-176.270
1688255187.651,20.020,-109.863,-99.121,-56.152,-81.055
1688255187.654,-135.254,-113.770,-112.793,32.227,155.273
1688255187.658,-142.578,-123.535,-116.211,58.105,286.133
1688255187.662,30.273,-115.234,-109.863,-35.156,-56.641
1688255187.666,129.883,-111.328,-97.168,-79.102,-227.051
1688255187.670,83.008,-107.422,-90.332,-32.227,-161.133
1688255187.673,-106.934,-104.004,-100.098,20.020,-29.297
1688255187.677,-175.781,-95.215,-103.516,34.668,146.484
1688255187.681,14.648,-80.566,-93.750,-2.930,138.672
1688255187.685,112.305,-80.078,-86.426,-55.176,176.270
1688255187.689,44.922,-86.914,-99.121,-41.016,50.781
1688255187.693,-94.238,-98.633,-109.863,27.832,-93.262
1688255187.697,-175.781,-95.215,-94.727,59.570,42.969
1688255187.700,-25.391,-98.145,-97.656,1.953,257.812
1688255187.704,115.234,-90.820,-116.211,-67.871,-13.672
1688255187.708,83.984,-74.219,-113.281,-53.711,-352.051
1688255187.712,-64.453,-81.055,-110.840,20.996,-197.754
1688255187.716,-167.480,-88.867,-104.980,64.453,12.695
1688255187.732,-40.527,-88.379,-104.492,-0.488,-44.434
1688255187.736,113.281,-86.426,-111.328,-73.242,-177.246
1688255187.740,106.445,-91.309,-104.980,-53.223,-157.715
1688255187.744,-52.734,-92.285,-102.051,11.719,-71.777
1688255187.748,-185.059,-83.008,-98.145,45.898,13.672
1688255187.752,-69.824,-65.918,-92.773,4.883,6.348
1688255187.756,113.770,-46.875,-89.844,-40.039,86.914
1688255187.759,114.258,-50.781,-98.633,-37.109,234.375
1688255187.763,-25.391,-59.082,-118.164,6.348,-21.973
1688255187.767,-170.410,-58.594,-110.352,48.828,-73.730
1688255187.771,-83.984,-51.758,-88.867,26.367,20.020
1688255187.775,110.352,-46.875,-97.656,-55.664,-131.836
1688255187.762,115.723,-45.898,-102.051,-83.496,-258.301
1688255187.766,-12.207,-44.922,-98.145,-24.902,-70.312
1688255187.770,-166.504,-58.594,-100.098,34.668,269.531
1688255187.774,-131.348,-70.801,-102.539,9.277,125.000
1688255187.778,58.105,-63.965,-100.586,-63.965,-167.969
1688255187.782,117.676,-59.082,-88.867,-82.520,-138.184
1688255187.786,12.695,-67.383,-89.844,-34.668,-21.484
1688255187.789,-165.039,-88.867,-117.188,41.504,49.805
1688255187.793,-139.648,-77.148,-120.117,39.062,20.996
1688255187.797,73.730,-52.734,-107.910,-56.152,-111.816
1688255187.801,142.578,-56.152,-96.191,-74.219,92.773
1688255187.805,37.598,-62.012,-92.285,-21.973,1.953
1688255187.808,-150.391,-64.941,-92.285,22.461,-148.926
1688255187.812,-168.457,-74.707,-92.285,22.949,-4.883
1688255187.816,37.598,-80.078,-105.469,-36.621,-111.816
1688255187.820,128.418,-89.355,-112.793,-79.102,-301.270
1688255187.824,59.570,-97.168,-103.027,-50.781,-277.344
1688255187.828,-115.723,-89.844,-94.238,19.043,97.168
1688255187.832,-177.734,-78.613,-96.680,25.879,227.051
1688255187.835,-1.465,-78.613,-104.980,-51.758,-74.219
1688255187.839,117.188,-71.777,-107.910,-95.703,-261.230
1688255187.843,62.988,-74.707,-103.516,-53.711,-13.184
1688255187.847,-109.375,-83.984,-106.445,8.789,256.836
1688255187.851,-185.059,-75.195,-112.305,32.227,22.461
1688255187.867,-24.414,-76.172,-111.328,-34.180,-152.832
1688255187.871,119.141,-72.266,-116.211,-93.262,-102.539
1688255187.875,92.773,-62.500,-130.371,-62.988,-146.973
1688255187.879,-52.246,-67.871,-118.164,6.836,-194.824
1688255187.883,-169.434,-74.219,-88.379,55.664,20.508
1688255187.887,-32.715,-69.824,-74.707,22.949,331.055
1688255187.891,133.301,-62.012,-93.262,-69.824,95.215
1688255187.894,93.262,-62.012,-115.234,-84.961,-230.957
1688255187.898,-66.406,-72.754,-107.910,-2.441,-84.961
1688255187.902,-185.059,-70.312,-101.074,42.480,208.008
1688255187.906,-56.152,-49.805,-101.562,-6.348,68.359
1688255187.910,103.516,-42.480,-97.656,-69.824,-134.766
1688255187.928,82.520,-39.551,-95.703,-68.848,-113.770
1688255187.932,-39.062,-34.668,-92.773,1.953,-26.855
1688255187.936,-158.691,-32.227,-94.238,62.988,25.391
1688255187.940,-57.129,-19.043,-96.680,49.316,-5.371
1688255187.944,109.375,-3.906,-90.820,-35.156,-63.477
1688255187.948,110.840,5.371,-94.727,-74.219,-22.949
1688255187.952,0.977,8.789,-93.750,-15.137,-16.113
1688255187.955,-157.715,-23.438,-86.426,43.457,-42.969
1688255187.959,-110.840,-86.426,-102.051,20.020,239.258
1688255187.963,87.891,-109.863,-104.492,-57.129,228.516
1688255187.967,129.395,-109.375,-98.633,-74.707,-243.164
1688255187.971,14.648,-118.652,-101.562,-15.137,-243.652
1688255187.958,-146.484,-127.441,-102.051,52.734,55.176
1688255187.962,-122.070,-126.953,-106.445,35.156,172.363
1688255187.966,81.543,-128.418,-99.609,-60.547,42.480
1688255187.970,136.230,-126.953,-81.543,-88.867,-130.371
1688255187.974,19.531,-124.023,-85.938,-30.762,112.305
1688255187.978,-148.438,-144.531,-122.559,31.250,226.562
1688255187.982,-142.578,-170.410,-122.070,29.785,54.688
1688255187.985,66.895,-193.359,-92.773,-39.062,-38.574
1688255187.989,147.461,-196.777,-94.727,-80.566,-137.207
1688255187.993,32.227,-190.918,-110.840,-41.016,-211.426
1688255187.997,-138.672,-205.566,-111.328,38.574,-129.395
1688255188.001,-159.668,-221.680,-107.422,57.617,57.129
1688255188.003,28.809,-228.516,-116.211,-17.090,212.402
1688255188.007,128.418,-214.844,-107.422,-89.355,-138.184
1688255188.011,55.176,-212.402,-88.379,-69.336,-330.078
1688255188.015,-102.051,-214.355,-93.262,12.695,-92.773
1688255188.019,-159.180,-208.496,-107.422,39.551,84.473
1688255188.023,4.395,-203.125,-109.863,-23.926,18.555
1688255188.027,131.836,-191.406,-100.098,-80.566,-158.691
1688255188.030,87.402,-182.617,-90.820,-55.176,-0.488
1688255188.034,-81.055,-182.129,-90.332,10.742,315.430
1688255188.038,-182.617,-157.227,-104.004,30.273,49.805
1688255188.042,-38.086,-136.719,-117.188,-15.137,-117.188
1688255188.046,120.117,-138.184,-123.535,-70.801,-146.484
1688255188.063,85.938,-145.508,-108.398,-54.688,-219.727
1688255188.067,-84.473,-155.273,-94.238,20.020,-125.488
1688255188.071,-189.941,-149.414,-110.840,30.762,20.508
1688255188.075,-56.641,-134.277,-110.352,-12.695,198.730
1688255188.079,94.238,-117.676,-109.375,-65.918,-40.039
1688255188.083,86.426,-101.562,-122.070,-59.570,-193.359
1688255188.087,-23.438,-92.285,-117.676,-2.441,-35.645
1688255188.090,-163.574,-95.215,-110.840,38.086,445.312
1688255188.094,-85.449,-93.262,-104.004,4.395,345.215
1688255188.098,93.750,-83.008,-96.680,-59.570,-230.957
1688255188.102,103.516,-76.172,-99.609,-70.312,-295.410
1688255188.106,-23.438,-77.637,-102.051,-24.414,-178.711
1688255188.092,-167.480,-80.566,-99.609,40.039,-64.453
1688255188.096,-104.980,-73.730,-109.375,22.461,-37.109
1688255188.100,81.543,-65.918,-106.934,-57.617,-115.723
1688255188.104,116.699,-48.340,-96.191,-75.684,-208.008
1688255188.108,19.043,-35.156,-97.656,-11.719,-216.797
1688255188.112,-143.066,-38.574,-103.516,59.082,36.133
1688255188.116,-121.582,-29.297,-97.656,46.387,302.734
1688255188.119,83.008,-24.414,-86.914,-46.387,48.828
1688255188.123,128.906,-39.062,-90.332,-71.289,-191.406
1688255188.127,37.598,-54.199,-104.004,-17.090,-112.305
1688255188.131,-126.953,-63.477,-107.910,57.129,223.145
1688255188.135,-146.973,-79.590,-93.262,46.387,458.008
1688255188.137,40.039,-78.125,-94.727,-33.691,-5.859
1688255188.141,139.648,-55.664,-97.656,-66.895,-162.598
1688255188.145,55.176,-59.570,-113.281,-26.367,130.371
1688255188.149,-130.371,-62.012,-128.906,42.969,45.410
1688255188.153,-166.504,-61.035,-114.258,39.551,-101.074
1688255188.157,28.320,-55.664,-100.098,-41.016,44.922
1688255188.161,129.395,-49.316,-92.773,-85.449,191.895
1688255188.164,50.781,-48.340,-85.449,-43.945,-112.305
1688255188.168,-103.516,-52.734,-87.402,19.043,-231.445
1688255188.172,-155.762,-62.012,-87.402,44.434,-66.895
1688255188.176,7.812,-62.012,-79.102,-7.812,-121.094
1688255188.180,124.023,-64.453,-81.543,-66.406,-248.047
1688255188.184,86.426,-68.359,-101.074,-44.922,-280.762
1688255188.188,-64.453,-77.148,-106.934,31.738,-115.234
1688255188.192,-170.898,-82.031,-123.047,53.223,95.703
1688255188.196,-26.367,-69.824,-133.789,-8.301,-33.691
1688255188.200,147.949,-54.199,-106.934,-71.777,-226.562
1688255188.204,133.301,-48.340,-82.031,-66.406,-64.941
1688255188.208,-56.152,-52.734,-73.242,9.277,107.910
1688255188.211,-203.613,-68.359,-81.055,37.598,-24.902
1688255188.215,-72.754,-73.242,-95.215,-22.949,-108.398
1688255188.219,104.980,-69.824,-98.633,-78.125,-1.465
1688255188.223,105.957,-77.148,-100.586,-60.547,-91.309
1688255188.227,-36.133,-92.773,-109.863,16.113,-192.383
1688255188.243,-163.574,-90.820,-115.723,59.570,-32.715
1688255188.247,-45.410,-75.195,-115.723,6.348,265.137
1688255188.251,103.516,-71.289,-104.004,-75.195,134.766
1688255188.255,87.891,-63.477,-89.844,-79.590,-265.137
1688255188.259,-33.691,-52.734,-90.332,-9.766,-128.906
1688255188.263,-168.457,-69.336,-91.797,43.945,369.629
1688255188.267,-99.609,-77.148,-97.656,6.348,244.141
1688255188.270,81.543,-72.266,-100.098,-73.730,-174.316
1688255188.274,120.117,-71.777,-98.633,-98.633,-197.266
1688255188.278,3.418,-74.219,-112.305,-31.738,122.559
1688255188.282,-167.480,-80.078,-131.836,42.480,63.965
1688255188.286,-122.070,-94.238,-125.488,37.109,-109.863
1688255188.287,86.426,-80.566,-96.191,-25.391,-144.531
1688255188.291,131.836,-59.082,-72.754,-58.594,-242.188
1688255188.295,20.508,-51.270,-65.430,-12.207,-184.082
1688255188.299,-138.672,-64.453,-75.684,48.340,-1.465
1688255188.303,-125.977,-67.383,-90.820,40.527,156.250
1688255188.307,41.504,-63.477,-93.750,-48.828,66.406
1688255188.311,120.117,-48.828,-94.238,-102.539,-138.184
1688255188.314,2.930,-30.762,-93.750,-71.289,-170.410
1688255188.318,-200.195,-32.715,-90.332,-18.066,176.758
1688255188.322,-243.164,-38.574,-84.473,-27.832,454.590
1688255188.326,-84.961,-30.273,-79.102,-119.141,-12.207
1688255188.330,-1.465,-20.508,-83.984,-193.848,-292.969
1688255188.333,-81.055,-22.461,-85.938,-162.598,-119.629
1688255188.337,-264.648,-20.508,-82.520,-103.516,24.414
1688255188.341,-312.500,-6.836,-78.125,-109.863,-22.949
1688255188.345,-126.465,-4.883,-76.172,-165.527,-55.664
1688255188.349,-19.043,-7.812,-70.801,-198.242,66.406
1688255188.353,-71.777,2.441,-82.031,-170.410,-9.277
1688255188.357,-204.102,-1.953,-88.867,-104.980,-33.691
1688255188.360,-266.602,-29.297,-65.430,-79.102,97.656
1688255188.364,-115.723,-41.504,-59.570,-114.746,395.508
1688255188.368,6.836,-33.203,-77.148,-159.668,155.762
1688255188.372,-5.371,-31.738,-82.520,-128.906,-221.680
1688255188.376,-131.348,-54.199,-89.844,-46.875,-144.531
1688255188.377,-223.633,-61.035,-109.863,-2.930,-74.707
1688255188.381,-34.668,-41.016,-109.375,-23.926,-131.348
1688255188.385,135.742,-37.109,-104.004,-87.402,-224.121
1688255188.389,93.750,-44.434,-111.816,-80.078,-197.754
1688255188.393,-37.598,-46.387,-112.305,3.906,-60.059
1688255188.397,-140.625,-56.152,-99.609,59.570,53.223
1688255188.401,-36.621,-55.176,-95.215,31.738,19.531
1688255188.404,120.117,-45.898,-109.375,-27.344,42.480
1688255188.408,133.301,-49.316,-118.652,-30.273,98.145
1688255188.412,8.789,-51.758,-116.699,38.086,-99.609
1688255188.416,-131.836,-53.223,-114.258,83.984,-45.410
1688255188.420,-66.895,-54.688,-120.117,41.992,127.930
1688255188.424,110.840,-43.945,-121.094,-25.391,-11.230
1688255188.428,156.250,-41.992,-125.000,-29.785,-196.777
1688255188.432,49.316,-41.016,-128.906,50.293,-136.230
1688255188.436,-94.238,-37.598,-122.070,119.629,234.863
1688255188.440,-39.551,-38.574,-125.488,80.566,156.738
1688255188.444,131.836,-27.832,-111.328,16.602,-140.625
1688255188.448,178.223,-19.531,-90.820,10.254,-119.629
1688255188.451,63.965,-25.879,-95.215,49.805,176.270
1688255188.455,-141.602,-19.043,-104.492,108.398,145.508
1688255188.459,-95.703,6.836,-102.539,76.660,-50.293
1688255188.463,117.188,20.996,-106.934,13.184,-108.398
1688255188.467,146.973,20.020,-111.816,-13.672,-177.734
1688255188.467,33.203,17.578,-115.234,-8.789,-156.738
1688255188.471,-125.977,25.391,-108.887,61.035,-52.246
1688255188.475,-128.418,32.227,-101.562,90.332,108.887
1688255188.479,63.477,42.969,-108.887,22.949,26.855
1688255188.483,160.645,77.148,-114.746,-44.434,-178.223
1688255188.487,80.078,96.680,-117.676,-30.762,-166.016
1688255188.491,-102.539,79.102,-111.328,51.270,204.590
1688255188.494,-153.320,78.613,-98.633,73.730,395.020
1688255188.498,18.066,95.215,-95.703,-7.812,-32.227
1688255188.502,135.742,96.191,-93.750,-63.965,-294.434
1688255188.506,95.215,91.797,-80.566,-30.273,-47.852
1688255188.510,-65.430,90.332,-86.426,40.527,40.039
1688255188.513,-151.855,98.145,-94.727,66.895,-59.570
1688255188.517,6.348,98.633,-96.191,5.859,6.836
1688255188.521,157.227,91.797,-99.609,-57.129,145.508
1688255188.525,93.262,101.562,-97.656,-49.805,-45.898
1688255188.529,-66.406,115.234,-101.074,29.297,-240.723
1688255188.533,-135.742,120.117,-103.516,83.008,87.891
1688255188.537,-5.859,120.117,-97.656,30.762,357.422
1688255188.540,124.512,124.023,-94.238,-48.828,-36.621
1688255188.544,99.609,125.000,-100.098,-60.547,-338.867
1688255188.548,-28.320,112.793,-109.375,16.113,-164.062
1688255188.552,-132.812,115.723,-101.074,73.730,-33.203
1688255188.556,-35.645,124.512,-89.355,16.113,-146.484
1688255188.558,123.535,122.070,-91.797,-51.270,-277.344
1688255188.562,128.418,105.957,-93.750,-38.574,-207.520
1688255188.566,-16.602,78.125,-89.844,22.949,-65.918
1688255188.570,-167.969,64.941,-88.379,56.641,4.395
1688255188.574,-79.102,51.270,-91.797,26.367,-49.316
1688255188.578,105.469,27.832,-105.957,-27.832,106.934
1688255188.582,126.465,13.672,-120.605,-48.340,208.496
1688255188.585,1.465,20.996,-116.699,5.859,-85.449
1688255188.589,-149.902,27.832,-105.469,76.660,-119.629
1688255188.593,-68.848,20.020,-92.285,53.223,147.949
1688255188.597,114.746,17.090,-100.586,-31.738,48.340
1688255188.601,133.301,14.648,-125.977,-57.129,-301.270
1688255188.618,19.531,17.090,-110.352,0.977,-182.617
1688255188.622,-160.645,9.766,-87.891,75.195,196.777
1688255188.626,-134.766,1.465,-89.355,57.617,116.211
1688255188.630,66.895,7.812,-95.215,-26.855,-129.883
1688255188.634,134.277,7.324,-97.168,-63.965,-156.250
1688255188.638,47.852,1.953,-101.562,-17.090,73.730
1688255188.642,-118.164,4.883,-102.051,66.895,145.508
1688255188.645,-124.023,16.113,-104.492,63.477,84.961
1688255188.649,62.012,34.180,-101.562,-21.973,-52.734
1688255188.653,128.418,34.180,-86.426,-51.758,89.355
1688255188.657,35.156,37.109,-93.750,-15.625,-13.184
1688255188.661,-114.746,39.551,-106.445,48.340,-168.457
1688255188.693,-145.020,20.020,-101.074,49.316,21.484
1688255188.697,31.250,12.207,-95.703,-24.902,5.859
1688255188.701,137.695,19.531,-111.328,-67.871,-251.953
1688255188.705,60.547,11.230,-117.676,-40.527,-285.156
1688255188.709,-120.117,-4.883,-94.727,28.320,-55.664
1688255188.713,-177.734,-1.465,-89.355,44.922,134.277
1688255188.717,3.906,-0.977,-97.656,-28.320,126.953
1688255188.720,127.441,-6.836,-87.891,-81.543,-135.742
1688255188.724,67.383,-4.395,-84.961,-45.410,-83.008
1688255188.728,-88.379,5.859,-103.516,27.344,177.734
1688255188.732,-157.227,24.902,-104.980,40.527,36.621
1688255188.736,0.000,49.805,-112.793,-25.879,-127.930
1688255188.707,111.328,57.129,-122.559,-69.336,-122.070
1688255188.711,72.266,63.477,-109.863,-62.988,-145.996
1688255188.715,-86.914,83.496,-89.355,-7.812,-230.957
1688255188.719,-194.336,86.914,-81.543,36.133,-132.812
1688255188.723,-46.875,69.336,-87.891,4.883,122.070
1688255188.727,109.863,47.363,-94.727,-61.035,8.301
1688255188.731,90.332,36.621,-93.750,-76.172,-213.379
1688255188.734,-46.875,28.320,-95.215,-4.395,-107.910
1688255188.738,-175.781,7.812,-97.168,29.297,70.312
1688255188.742,-84.473,-2.930,-92.285,-22.461,-63.477
1688255188.746,87.402,5.371,-88.867,-76.172,-241.211
1688255188.750,106.934,-0.977,-97.656,-59.570,-220.703
1688255188.768,-20.508,-10.254,-107.422,11.230,-29.785
1688255188.772,-174.316,-11.719,-119.629,46.875,11.230
1688255188.776,-90.332,-23.926,-112.793,10.254,-81.543
1688255188.780,106.934,-34.180,-103.516,-51.758,-36.621
1688255188.784,119.629,-49.316,-99.609,-62.988,218.750
1688255188.788,10.254,-46.875,-98.633,-4.883,73.242
1688255188.792,-150.391,-45.410,-106.934,60.547,-58.105
1688255188.795,-127.930,-61.035,-107.910,23.438,176.758
1688255188.799,65.430,-48.340,-108.887,-50.293,206.543
1688255188.803,117.676,-14.648,-112.793,-85.449,-229.492
1688255188.807,3.906,-3.418,-118.652,-36.621,-270.508
1688255188.811,-154.785,-4.395,-129.395,51.758,-54.199
1688255188.798,-138.184,20.508,-116.211,40.527,-11.230
1688255188.802,43.457,56.641,-101.074,-53.711,-92.773
1688255188.806,111.816,67.871,-113.770,-95.215,-208.008
1688255188.810,36.621,65.430,-122.070,-46.875,72.754
1688255188.814,-130.859,68.848,-125.000,30.273,146.484
1688255188.818,-161.621,82.031,-126.953,41.992,17.578
1688255188.822,20.508,90.820,-121.582,-39.551,113.281
1688255188.825,105.469,92.773,-124.023,-91.797,34.180
1688255188.829,29.297,83.496,-120.605,-49.316,-142.090
1688255188.833,-129.395,61.035,-108.887,25.879,-88.379
1688255188.837,-184.570,44.434,-125.977,51.270,108.398
1688255188.841,0.977,30.762,-135.254,-18.066,342.285
1688255188.842,122.559,41.504,-115.723,-80.566,6.836
1688255188.846,53.223,48.828,-105.469,-57.129,-255.859
1688255188.850,-100.098,32.227,-106.934,26.367,-35.156
1688255188.854,-165.527,6.836,-128.906,65.430,110.352
1688255188.858,-11.719,2.441,-125.000,12.695,23.926
1688255188.862,122.070,-4.883,-90.820,-52.734,-78.125
1688255188.866,103.027,-20.020,-93.262,-43.457,159.180
1688255188.869,-49.805,-27.832,-105.957,36.133,541.504
