timestamps,TP9,AF7,AF8,TP10,Right AUX
1688258040.192,-51.270,-29.297,-33.203,-10.254,-65.918
1688258040.196,-35.156,-31.250,-32.227,-3.418,10.742
1688258040.200,-15.137,-25.391,-33.691,-43.457,-73.730
1688258040.204,-24.902,-18.555,-40.527,-69.824,-239.746
1688258040.208,-44.434,-20.508,-37.109,-60.059,-179.688
1688258040.212,-59.082,-24.414,-29.297,-25.879,94.727
1688258040.216,-44.922,-24.414,-25.391,-7.324,283.203
1688258040.219,-25.879,-28.320,-24.902,-28.809,518.066
1688258040.223,-36.133,-32.715,-21.973,-58.105,153.809
1688258040.227,-42.480,-27.344,-14.160,-51.270,-366.211
1688258040.231,-40.039,-21.973,-15.625,-18.066,-148.438
1688258040.235,-23.438,-21.484,-20.996,12.207,73.730
1688258040.254,-7.812,-22.461,-21.484,-7.812,-6.836
1688258040.258,-13.672,-20.508,-22.461,-45.410,-141.602
1688258040.262,-24.902,-28.809,-25.391,-45.410,-92.773
1688258040.266,-27.832,-36.621,-23.926,-3.418,-5.859
1688258040.270,-12.695,-33.203,-20.508,24.414,68.848
1688258040.274,-5.859,-28.809,-23.926,-11.719,137.695
1688258040.278,-25.879,-30.762,-30.273,-59.082,221.191
1688258040.281,-39.551,-29.785,-28.809,-66.406,-37.598
1688258040.285,-48.340,-25.879,-28.809,-38.086,-258.301
1688258040.289,-40.039,-20.508,-31.738,2.441,-18.066
1688258040.293,-19.531,-15.137,-30.762,-6.836,256.348
1688258040.297,-16.113,-20.508,-33.203,-41.016,-97.656
1688258040.282,-24.414,-24.414,-35.645,-45.898,-370.605
1688258040.286,-36.621,-20.508,-37.109,-25.391,-145.020
1688258040.290,-43.945,-19.043,-37.598,-3.418,72.754
1688258040.294,-36.621,-20.020,-31.738,-19.043,13.672
1688258040.298,-28.809,-18.555,-25.391,-62.500,-187.012
1688258040.302,-38.574,-27.344,-32.715,-81.055,-135.742
1688258040.306,-52.734,-29.785,-38.086,-49.316,31.250
1688258040.309,-46.387,-31.738,-30.273,-3.906,162.109
1688258040.313,-21.484,-39.551,-21.973,3.906,64.941
1688258040.317,-5.859,-30.762,-16.113,-22.461,41.992
1688258040.321,-15.625,-18.555,-21.973,-48.340,291.992
1688258040.325,-43.945,-16.113,-30.273,-49.805,100.586
1688258040.344,-54.199,-27.344,-32.227,-17.578,-41.992
1688258040.348,-30.762,-26.855,-33.691,-3.906,21.484
1688258040.352,-14.648,-13.672,-24.902,-39.551,-177.734
1688258040.356,-24.902,-18.555,-27.344,-69.824,-368.164
1688258040.360,-44.922,-34.180,-36.621,-55.176,-288.086
1688258040.364,-50.293,-41.016,-37.109,-19.531,58.105
1688258040.368,-34.180,-37.109,-30.273,-10.742,141.113
1688258040.371,-20.996,-31.738,-23.438,-41.992,-145.508
1688258040.375,-32.227,-38.086,-24.902,-71.289,-302.734
1688258040.379,-53.223,-41.504,-26.367,-63.477,-2.930
1688258040.383,-63.965,-38.086,-29.297,-25.391,35.645
1688258040.387,-47.852,-29.297,-28.809,-6.836,-59.082
1688258040.387,-32.227,-14.648,-25.879,-37.109,1.953
1688258040.391,-31.250,-9.766,-33.203,-71.289,-67.871
1688258040.395,-43.457,-11.719,-40.039,-61.523,-195.312
1688258040.399,-52.734,-13.672,-35.156,-18.555,-147.949
1688258040.403,-34.668,-20.508,-27.344,5.371,83.008
1688258040.407,-18.066,-28.809,-26.855,-16.602,112.793
1688258040.411,-24.414,-33.203,-24.902,-41.992,-136.719
1688258040.414,-42.480,-39.551,-28.809,-48.828,-241.211
1688258040.418,-51.758,-38.086,-29.297,-13.184,1.465
1688258040.422,-37.598,-27.344,-25.391,25.391,451.660
1688258040.426,-29.297,-23.438,-22.949,-3.418,178.711
1688258040.430,-36.133,-30.273,-28.320,-52.246,-252.930
1688258040.434,-39.551,-30.273,-31.738,-63.477,-246.094
1688258040.438,-44.434,-29.785,-24.902,-20.996,-127.441
1688258040.442,-36.621,-30.273,-16.602,17.578,10.254
1688258040.446,-21.484,-23.438,-21.973,-7.812,6.348
1688258040.450,-34.668,-24.902,-35.156,-56.152,-16.113
1688258040.454,-47.852,-31.738,-31.250,-69.824,-144.043
1688258040.458,-56.152,-31.250,-24.902,-42.969,-196.777
1688258040.461,-50.293,-23.926,-21.973,-1.953,48.340
1688258040.465,-20.020,-21.973,-15.137,2.930,374.023
1688258040.469,-12.695,-26.367,-21.484,-40.039,93.750
1688258040.473,-26.855,-26.367,-26.367,-56.152,-323.730
1688258040.477,-35.156,-22.949,-20.996,-26.367,-222.168
1688258040.477,-45.898,-31.738,-25.879,0.488,36.133
1688258040.481,-33.691,-28.809,-38.086,-10.254,6.836
1688258040.485,-31.250,-25.391,-44.434,-50.293,-180.664
1688258040.489,-42.969,-34.180,-37.598,-68.848,-250.000
1688258040.493,-44.434,-30.762,-24.414,-44.434,-133.789
1688258040.497,-37.109,-22.949,-18.555,2.930,95.215
1688258040.501,-25.391,-25.391,-29.297,7.812,134.277
1688258040.504,-20.508,-28.320,-35.156,-35.156,170.898
1688258040.508,-18.555,-23.926,-33.691,-66.895,470.215
1688258040.512,-26.855,-18.555,-36.621,-54.199,176.758
1688258040.516,-29.785,-16.602,-43.945,-18.555,-67.383
1688258040.520,-7.324,-18.555,-38.574,-16.602,99.121
1688258040.524,6.348,-19.043,-33.203,-52.734,-66.406
1688258040.528,-6.348,-26.367,-31.250,-76.660,-279.297
1688258040.532,-27.832,-38.574,-31.738,-73.242,-222.656
1688258040.536,-42.480,-49.805,-33.691,-30.762,24.414
1688258040.540,-33.691,-52.246,-33.203,3.906,163.086
1688258040.544,-27.344,-48.828,-29.297,-12.207,87.402
1688258040.548,-37.109,-40.039,-23.926,-41.504,-94.727
1688258040.551,-42.480,-28.320,-13.672,-30.762,136.719
1688258040.555,-48.828,-23.926,-12.695,3.906,310.059
1688258040.559,-46.387,-27.832,-24.414,7.812,41.992
1688258040.563,-41.016,-30.273,-32.227,-29.297,-79.102
1688258040.567,-48.828,-31.250,-36.621,-66.895,-195.312
1688258040.567,-51.270,-34.668,-30.273,-60.059,-289.551
1688258040.571,-52.246,-35.645,-23.926,-17.578,-192.383
1688258040.575,-41.016,-40.039,-28.320,11.230,56.641
1688258040.579,-25.879,-40.039,-23.438,-10.254,57.129
1688258040.583,-28.809,-32.715,-19.043,-48.828,-207.031
1688258040.587,-39.551,-31.738,-23.926,-52.734,-240.723
1688258040.591,-45.410,-37.109,-21.484,-20.020,100.586
1688258040.594,-34.180,-37.598,-20.508,11.719,578.613
1688258040.598,-12.695,-20.996,-25.879,-6.348,259.277
1688258040.602,-12.207,-15.137,-20.996,-36.133,-243.652
1688258040.606,-35.156,-26.367,-18.066,-51.758,-87.891
1688258040.610,-48.828,-28.809,-25.391,-27.344,22.949
1688258040.627,-44.434,-26.367,-26.855,6.836,-17.090
1688258040.631,-29.785,-28.320,-24.902,-13.184,12.695
1688258040.635,-31.250,-33.691,-25.391,-57.129,-97.168
1688258040.639,-43.945,-40.527,-27.344,-70.801,-266.602
1688258040.643,-42.969,-32.715,-21.484,-38.574,-285.156
1688258040.647,-34.180,-25.879,-19.043,6.348,1.953
1688258040.651,-20.508,-29.785,-20.996,3.418,439.453
1688258040.654,-20.996,-32.227,-23.926,-37.598,109.375
1688258040.658,-31.738,-34.180,-25.879,-53.711,-344.238
1688258040.662,-41.504,-40.039,-23.438,-28.320,-234.863
1688258040.666,-32.227,-47.363,-8.789,13.672,33.691
1688258040.670,-14.160,-44.922,-5.859,18.555,48.340
1688258040.658,-19.043,-34.180,-14.648,-24.414,-149.414
1688258040.662,-36.133,-26.367,-21.484,-60.547,-176.758
1688258040.666,-51.270,-27.832,-31.250,-40.527,-84.473
1688258040.670,-46.387,-28.809,-29.297,3.418,-75.684
1688258040.674,-27.832,-26.367,-26.367,3.418,7.812
1688258040.678,-23.926,-30.273,-31.250,-37.109,91.797
1688258040.682,-39.551,-41.016,-32.715,-67.383,31.250
1688258040.685,-54.199,-48.828,-32.715,-61.523,-41.016
1688258040.689,-50.781,-45.898,-30.273,-22.949,20.996
1688258040.693,-32.715,-46.387,-30.273,0.000,229.004
1688258040.697,-16.602,-37.598,-24.902,-26.367,259.766
1688258040.701,-18.066,-23.926,-12.207,-48.340,-229.980
1688258040.719,-24.902,-27.832,-15.625,-34.668,-341.797
1688258040.723,-26.855,-32.227,-22.949,4.395,-62.500
1688258040.727,-21.484,-34.668,-27.344,19.531,79.102
1688258040.731,-26.855,-37.109,-37.109,-24.902,5.859
1688258040.735,-40.039,-41.016,-42.969,-63.965,-159.668
1688258040.739,-49.805,-43.457,-48.828,-68.359,135.254
1688258040.743,-61.035,-39.062,-40.039,-36.621,249.023
1688258040.746,-48.828,-41.992,-27.832,-9.277,49.805
1688258040.750,-24.902,-42.969,-26.367,-28.320,-11.230
1688258040.754,-25.391,-34.180,-32.715,-60.059,3.418
1688258040.758,-37.598,-24.902,-30.273,-60.059,-151.855
1688258040.762,-42.969,-24.414,-20.996,-27.832,-152.344
1688258040.763,-30.762,-33.691,-18.555,-1.953,37.598
1688258040.767,-14.648,-37.109,-20.508,-14.648,-19.043
1688258040.771,-14.160,-33.691,-29.297,-49.316,-231.445
1688258040.775,-20.996,-24.902,-31.738,-63.477,-273.438
1688258040.779,-42.480,-16.113,-31.738,-38.574,-102.051
1688258040.783,-44.434,-16.113,-32.227,-4.883,157.227
1688258040.787,-22.461,-23.438,-25.879,-16.113,183.105
1688258040.790,-16.602,-32.715,-24.902,-51.270,-122.559
1688258040.794,-26.367,-41.016,-23.926,-63.965,-134.277
1688258040.798,-43.945,-48.340,-27.344,-43.457,338.379
1688258040.802,-46.387,-37.598,-27.832,-5.859,298.340
1688258040.806,-35.156,-29.297,-31.738,-15.625,-47.852
1688258040.809,-30.762,-25.391,-35.156,-53.711,-176.270
1688258040.813,-37.109,-19.531,-20.996,-66.406,-339.355
1688258040.817,-48.828,-29.297,-14.648,-39.062,-280.273
1688258040.821,-40.039,-35.156,-17.578,11.230,-43.945
1688258040.825,-20.508,-24.902,-11.719,18.555,70.801
1688258040.829,-20.508,-24.902,-12.207,-26.367,-30.273
1688258040.833,-31.250,-39.062,-25.879,-44.922,-266.602
1688258040.836,-50.293,-34.180,-40.039,-37.109,-233.398
1688258040.840,-51.270,-21.973,-39.551,-15.625,168.457
1688258040.844,-34.180,-20.996,-32.227,-8.301,147.949
1688258040.848,-24.414,-20.996,-32.227,-40.039,-160.156
1688258040.852,-26.855,-22.949,-30.762,-62.012,-220.703
1688258040.852,-34.668,-23.438,-28.320,-41.016,132.324
1688258040.856,-32.715,-27.832,-28.809,0.000,166.016
1688258040.860,-20.020,-29.297,-28.320,11.719,8.301
1688258040.864,-10.254,-27.344,-23.926,-13.672,-65.430
1688258040.868,-22.949,-33.203,-26.367,-46.875,-222.168
1688258040.872,-43.457,-38.574,-32.715,-55.664,-231.445
1688258040.876,-62.988,-43.457,-35.645,-28.809,-47.852
1688258040.879,-50.293,-39.551,-39.551,-5.859,282.715
1688258040.883,-22.461,-29.297,-25.879,-22.461,454.590
1688258040.887,-20.508,-29.785,-14.648,-43.457,-18.555
1688258040.891,-27.832,-25.879,-15.137,-54.688,-282.227
1688258040.895,-41.016,-24.902,-11.719,-22.461,48.340
1688258040.900,-34.668,-29.297,-18.066,7.812,129.395
1688258040.904,-23.926,-30.762,-29.785,-21.484,-132.324
1688258040.908,-22.461,-27.344,-26.367,-56.641,-274.414
1688258040.912,-28.809,-21.973,-17.578,-59.082,-245.605
1688258040.916,-50.293,-39.062,-22.949,-29.785,-137.207
1688258040.920,-53.711,-50.781,-30.762,-13.184,24.414
1688258040.924,-32.715,-42.480,-34.668,-37.598,98.145
1688258040.927,-25.879,-34.180,-26.367,-57.617,203.125
1688258040.931,-35.645,-32.715,-12.695,-55.176,-61.523
1688258040.935,-48.828,-32.227,-18.555,-30.273,-278.809
1688258040.939,-53.711,-32.715,-45.410,-11.230,1.465
1688258040.943,-42.480,-37.598,-60.059,-38.086,106.445
1688258040.943,-36.621,-35.156,-45.898,-70.801,-130.371
1688258040.947,-34.668,-35.156,-28.809,-73.730,-250.488
1688258040.951,-39.062,-49.805,-25.391,-43.945,-145.996
1688258040.955,-38.086,-46.387,-27.832,-0.977,58.105
1688258040.959,-21.484,-24.414,-26.855,0.488,7.812
1688258040.963,-10.742,-14.160,-22.461,-31.250,-204.102
1688258040.967,-20.020,-17.090,-24.414,-49.805,-85.449
1688258040.970,-47.363,-28.809,-35.156,-39.551,455.566
1688258040.974,-48.340,-36.133,-34.180,-12.695,383.301
1688258040.978,-28.320,-40.039,-24.414,-10.742,-8.301
1688258040.982,-21.973,-49.805,-20.996,-38.574,-72.266
1688258040.986,-25.391,-42.480,-19.043,-53.223,-227.539
1688258041.017,-29.785,-27.832,-14.160,-19.043,-287.109
1688258041.021,-25.879,-23.926,-17.090,34.180,-51.758
1688258041.025,-14.160,-22.461,-27.832,29.785,126.953
1688258041.029,-10.254,-19.043,-27.832,-23.438,-24.902
1688258041.033,-23.926,-14.648,-21.484,-58.594,-286.621
1688258041.037,-41.016,-25.391,-20.508,-55.664,-186.523
1688258041.041,-38.086,-32.715,-11.719,-21.973,378.906
1688258041.044,-26.367,-30.762,-13.184,-16.602,443.848
1688258041.048,-19.531,-29.785,-22.949,-43.457,-117.676
1688258041.052,-18.066,-22.949,-19.043,-59.082,-427.246
1688258041.056,-26.855,-20.996,-16.602,-42.969,-367.676
1688258041.060,-33.691,-32.227,-22.949,-2.441,-137.207
1688258041.032,-20.508,-32.227,-31.738,6.348,-30.762
1688258041.036,-13.184,-33.203,-38.086,-30.273,-135.742
1688258041.040,-23.438,-42.969,-31.738,-50.781,-280.762
1688258041.044,-45.898,-41.016,-35.156,-57.129,-336.914
1688258041.048,-55.664,-26.855,-40.527,-35.645,-148.438
1688258041.052,-43.457,-15.137,-32.715,-7.812,242.188
1688258041.056,-38.086,-23.926,-29.297,-23.438,348.145
1688258041.059,-26.367,-33.203,-16.113,-36.133,3.906
1688258041.063,-20.508,-25.879,-14.160,-28.320,-222.656
1688258041.067,-32.715,-19.043,-24.414,-7.324,-64.453
1688258041.071,-34.668,-19.531,-33.691,10.742,98.633
1688258041.075,-39.551,-29.785,-41.992,-33.691,-21.484
1688258041.093,-41.504,-32.227,-35.645,-79.102,-257.324
1688258041.097,-38.086,-29.785,-34.180,-74.219,-74.707
1688258041.101,-61.523,-25.879,-41.992,-48.828,279.297
1688258041.105,-70.312,-16.602,-46.875,-31.738,69.824
1688258041.109,-31.250,-11.719,-46.387,-35.645,-64.453
1688258041.113,-16.602,-10.742,-41.016,-66.406,-21.484
1688258041.117,-35.645,-16.602,-41.016,-87.891,-143.555
1688258041.120,-52.246,-21.973,-47.363,-57.617,-209.961
1688258041.124,-45.410,-19.043,-48.340,-20.020,69.824
1688258041.128,-25.879,-14.648,-42.480,-25.879,370.605
1688258041.132,-20.508,-15.137,-36.133,-53.223,-10.254
1688258041.136,-17.090,-22.461,-27.344,-50.293,-435.547
1688258041.137,-18.555,-20.020,-14.648,-11.719,-312.988
1688258041.141,-27.832,-13.184,-22.461,12.695,-9.766
1688258041.145,-29.785,-25.879,-49.805,-10.742,118.652
1688258041.149,-39.062,-34.668,-62.988,-61.523,-64.941
1688258041.153,-53.711,-33.203,-55.176,-91.797,-161.621
1688258041.157,-61.035,-33.203,-40.527,-68.359,6.348
1688258041.161,-46.875,-20.996,-25.879,-9.277,190.918
1688258041.164,-22.949,-20.996,-26.855,-0.488,216.309
1688258041.168,-23.438,-36.621,-36.133,-51.270,137.207
1688258041.172,-33.691,-34.180,-35.645,-79.590,188.965
1688258041.176,-46.875,-29.297,-40.527,-69.824,-78.125
1688258041.180,-51.758,-30.273,-38.574,-28.320,16.113
1688258041.198,-13.184,-25.391,-24.414,-0.977,243.164
1688258041.202,8.301,-17.578,-18.066,-20.020,-3.418
1688258041.206,-20.020,-17.578,-22.949,-52.734,-302.246
1688258041.210,-49.805,-28.809,-35.156,-59.570,-276.855
1688258041.214,-59.570,-31.250,-38.086,-31.250,6.836
1688258041.218,-40.039,-31.250,-34.180,-8.789,175.293
1688258041.222,-20.508,-33.203,-33.203,-35.645,6.348
1688258041.225,-16.113,-28.320,-29.785,-60.547,-213.867
1688258041.229,-22.949,-26.367,-23.926,-29.785,22.949
1688258041.233,-41.992,-37.109,-33.203,-10.254,69.824
1688258041.237,-37.598,-36.621,-33.691,-13.672,-4.395
1688258041.241,-25.391,-25.879,-23.926,-24.902,-50.293
1688258041.228,-25.879,-25.879,-18.555,-49.316,-191.895
1688258041.232,-36.133,-28.320,-17.578,-57.129,-175.781
1688258041.236,-53.223,-31.738,-22.461,-31.250,-118.164
1688258041.240,-55.176,-43.457,-33.203,-20.020,29.297
1688258041.244,-39.062,-46.875,-37.598,-51.270,118.164
1688258041.248,-26.367,-41.016,-22.461,-74.707,-80.078
1688258041.252,-25.879,-31.250,-12.695,-65.918,-191.406
1688258041.255,-30.762,-31.250,-15.137,-25.391,68.848
1688258041.259,-44.434,-41.504,-30.762,-0.488,208.008
1688258041.263,-40.527,-38.574,-40.039,-29.785,-3.418
1688258041.267,-26.367,-28.809,-30.273,-75.195,-245.605
1688258041.271,-20.020,-28.809,-28.320,-72.754,-119.141
1688258041.274,-32.715,-32.715,-30.762,-29.785,252.930
1688258041.278,-30.762,-33.691,-28.320,0.000,126.465
1688258041.282,0.977,-37.109,-17.578,3.906,12.695
1688258041.286,-1.953,-41.504,-17.578,-21.484,-71.777
1688258041.290,-25.879,-26.855,-29.297,-44.922,-230.957
1688258041.294,-45.410,-21.484,-33.691,-34.180,-131.836
1688258041.298,-52.734,-29.297,-26.367,-2.930,134.766
1688258041.301,-44.922,-42.480,-24.902,-9.277,413.574
1688258041.305,-29.297,-37.598,-22.949,-16.602,166.504
1688258041.309,-26.367,-23.438,-26.855,-42.969,-366.211
1688258041.313,-49.805,-25.879,-53.711,-47.852,-326.660
1688258041.317,-39.062,-32.227,-61.523,13.672,-63.965
1688258041.317,-7.324,-45.898,-40.039,11.719,-8.301
1688258041.321,-26.367,-46.387,-26.855,-56.641,-159.668
1688258041.325,-70.801,-36.621,-36.621,-104.492,-258.301
1688258041.329,-74.707,-30.273,-36.621,-81.543,-195.312
1688258041.333,-75.684,-31.250,-23.926,-40.039,-14.648
1688258041.337,-74.219,-39.062,-21.973,-45.410,113.281
1688258041.341,-64.941,-43.945,-21.973,-80.566,108.887
1688258041.344,-79.590,-42.480,-18.066,-115.234,214.844
1688258041.348,-108.398,-37.109,-22.461,-118.652,0.977
1688258041.352,-122.559,-36.621,-18.555,-78.125,-104.980
1688258041.356,-120.605,-42.480,-12.695,-66.406,201.660
1688258041.360,-125.977,-47.363,-17.578,-126.953,82.031
1688258041.379,-148.926,-52.246,-20.020,-173.828,-332.031
1688258041.383,-175.781,-59.082,-22.461,-170.898,-307.617
1688258041.387,-201.172,-73.730,-28.809,-150.391,20.508
1688258041.391,-216.797,-85.449,-41.016,-158.203,151.855
1688258041.395,-209.961,-74.219,-44.434,-205.078,-5.859
1688258041.399,-211.914,-62.012,-42.969,-249.023,-132.812
1688258041.403,-221.680,-56.152,-38.574,-248.047,141.113
1688258041.406,-212.891,-47.852,-26.855,-195.312,137.695
1688258041.410,-190.430,-58.594,-32.715,-171.875,-21.484
1688258041.414,-161.133,-62.012,-34.180,-208.008,25.879
1688258041.418,-140.137,-54.199,-26.855,-242.676,-75.195
1688258041.422,-139.160,-52.734,-23.926,-224.121,-279.785
1688258041.407,-142.090,-54.688,-14.160,-155.273,-209.961
1688258041.411,-138.672,-64.941,-22.461,-115.234,43.945
1688258041.415,-113.770,-58.105,-21.973,-117.188,45.898
1688258041.419,-95.703,-45.410,-3.418,-124.023,-185.059
1688258041.423,-98.633,-49.805,1.953,-117.188,-271.484
1688258041.427,-106.934,-57.129,-6.348,-72.266,14.160
1688258041.431,-109.375,-68.359,-20.020,-29.785,304.688
1688258041.434,-83.984,-70.312,-18.066,-31.250,185.059
1688258041.438,-62.012,-59.082,-8.301,-42.480,-156.250
1688258041.442,-60.547,-45.410,0.000,-41.504,-198.730
1688258041.446,-82.031,-61.523,-18.555,-41.504,273.926
1688258041.450,-82.520,-65.918,-21.484,-13.672,317.871
1688258041.467,-33.691,-36.133,11.230,-5.371,-20.020
1688258041.471,-24.414,-37.598,7.812,-44.922,-86.914
1688258041.475,-46.387,-58.105,-6.836,-63.965,-272.461
1688258041.479,-51.758,-68.359,-9.277,-36.133,-353.516
1688258041.483,-51.270,-63.477,-10.254,9.277,-81.543
1688258041.487,-26.855,-49.316,-2.441,11.719,149.902
1688258041.491,-0.977,-36.621,4.883,-14.648,23.438
1688258041.494,1.465,-28.809,9.277,-20.996,-292.480
1688258041.498,-6.348,-34.668,-2.930,-0.977,-235.840
1688258041.502,5.371,-29.297,0.000,60.547,248.535
1688258041.506,52.734,5.859,32.715,96.680,209.473
1688258041.510,19.531,-7.324,-1.465,16.113,-137.207
1688258041.512,-54.688,-57.617,-65.430,-70.801,-291.992
1688258041.516,-64.941,-62.500,-72.266,-57.129,-213.867
1688258041.520,-48.340,-42.480,-40.039,19.531,29.297
1688258041.524,-19.043,-33.203,-17.090,52.734,34.180
1688258041.528,2.441,-29.297,-20.020,11.719,-23.438
1688258041.532,6.348,-21.973,-24.414,-13.672,88.379
1688258041.536,14.648,-15.137,-17.090,16.602,-36.133
1688258041.539,14.648,-16.602,-11.230,68.848,-51.758
1688258041.543,19.531,-23.438,-6.836,88.867,229.004
1688258041.547,30.762,-19.531,-0.488,44.434,332.031
1688258041.551,18.555,-24.414,-15.137,0.488,-141.113
1688258041.555,-3.906,-37.598,-27.832,-7.324,-340.332
1688258041.558,-10.254,-37.598,-19.043,25.391,-79.590
1688258041.562,12.207,-20.508,-13.672,64.941,65.918
1688258041.566,38.574,-1.953,-18.066,46.387,-82.520
1688258041.570,18.555,-11.719,-37.109,-22.949,-219.727
1688258041.574,5.371,2.930,-31.250,-29.785,-126.465
1688258041.578,12.695,19.043,-13.184,26.855,93.750
1688258041.582,-1.465,-17.090,-27.344,34.668,210.449
1688258041.585,-14.160,-59.570,-51.270,-19.531,21.484
1688258041.589,-21.973,-64.941,-61.035,-55.664,85.449
1688258041.593,-28.320,-41.016,-55.176,-42.969,-46.387
1688258041.597,-28.320,-27.832,-39.551,8.789,-199.707
1688258041.601,-23.438,-37.598,-33.691,47.363,42.969
1688258041.602,5.371,-41.016,-21.973,36.133,3.906
1688258041.606,31.738,-15.137,2.441,3.906,-282.715
1688258041.610,18.555,-0.977,-0.488,-13.184,-394.531
1688258041.614,-5.859,-11.719,-20.508,18.066,-187.500
1688258041.618,-11.230,-23.926,-35.156,44.434,75.684
1688258041.622,0.488,-36.133,-39.062,9.277,176.758
1688258041.626,4.883,-36.133,-36.133,-42.969,-23.926
1688258041.629,-14.648,-18.555,-36.621,-59.570,-90.820
1688258041.633,-24.902,-8.301,-33.691,-13.672,407.227
1688258041.637,-13.184,-9.766,-27.832,38.574,422.852
1688258041.641,20.996,0.000,-16.602,38.086,-15.625
1688258041.645,29.297,1.465,-13.672,-20.508,-199.219
1688258041.649,-12.695,-12.695,-33.691,-62.988,-332.031
1688258041.653,-44.922,-32.227,-47.852,-36.133,-303.223
1688258041.657,-45.410,-45.410,-47.852,14.648,-46.875
1688258041.661,-21.973,-29.297,-37.598,15.137,106.934
1688258041.665,-9.277,-18.555,-37.598,-41.992,-107.910
1688258041.669,-11.719,-13.672,-39.062,-76.660,-324.219
1688258041.673,-19.043,-2.441,-28.809,-55.176,-180.176
1688258041.676,-24.414,-2.441,-24.902,11.230,327.637
1688258041.680,-16.113,-16.113,-20.508,35.645,350.098
1688258041.684,-17.090,-34.180,-32.227,-17.578,-34.180
1688258041.688,-30.273,-20.508,-46.875,-64.453,-200.195
1688258041.692,-36.133,-12.207,-37.598,-45.410,-139.648
1688258041.692,-26.855,-20.996,-16.602,14.160,-23.926
1688258041.696,-17.578,-9.277,-19.531,16.113,35.645
1688258041.700,-5.859,-4.883,-36.133,-39.551,-92.285
1688258041.704,11.230,5.371,-26.367,-39.551,-276.367
1688258041.708,17.578,26.855,-9.277,4.395,-221.680
1688258041.712,-14.648,11.719,-29.297,40.039,15.625
1688258041.716,-40.527,-12.695,-62.012,17.090,322.754
1688258041.719,-37.109,-31.738,-74.219,-61.035,549.316
1688258041.723,-30.762,-31.250,-60.059,-91.797,-15.625
1688258041.727,-20.508,-15.137,-45.410,-61.523,-421.875
1688258041.731,-26.855,-11.230,-42.480,-19.043,-117.676
1688258041.735,-23.438,-12.207,-34.180,-0.488,92.773
1688258041.738,14.160,-12.207,-21.973,-16.602,-14.160
1688258041.742,28.320,-2.930,-11.719,-33.691,-251.465
1688258041.746,-15.137,-8.301,-29.297,-49.316,-128.418
1688258041.750,-58.105,-17.578,-58.594,-34.180,2.441
1688258041.754,-44.922,-5.859,-49.805,0.977,50.293
1688258041.758,-14.648,-5.859,-38.086,-23.438,89.844
1688258041.762,-17.090,-17.090,-43.457,-65.430,215.820
1688258041.765,-18.555,-11.719,-31.738,-57.129,5.859
1688258041.769,2.930,12.207,-6.348,24.414,-214.844
1688258041.773,-4.883,-3.418,-10.254,65.918,29.297
1688258041.777,-22.949,-41.992,-37.598,-5.859,40.039
1688258041.781,-23.926,-39.062,-49.316,-84.473,-249.512
1688258041.783,-21.484,-24.414,-39.551,-83.496,-427.246
1688258041.787,-31.250,-13.184,-26.855,-26.855,-211.426
1688258041.791,-38.574,-6.348,-29.785,9.766,219.727
1688258041.795,-18.555,-9.277,-35.156,-3.418,167.969
1688258041.799,0.488,-10.742,-20.508,-45.410,-151.855
1688258041.803,-10.254,-28.809,-22.949,-70.312,-75.195
1688258041.807,-11.719,-15.625,-23.438,-15.625,357.422
1688258041.810,-12.695,-4.883,-19.043,18.066,354.492
1688258041.814,-41.016,-37.109,-47.363,-39.551,52.246
1688258041.818,-60.547,-61.523,-64.453,-108.887,-102.051
1688258041.822,-52.734,-60.059,-57.129,-115.723,-195.801
1688258041.826,-51.270,-41.992,-45.898,-70.312,-300.781
1688258041.843,-49.805,-17.578,-34.180,-18.555,-68.359
1688258041.847,-27.344,-11.719,-26.855,-6.836,109.863
1688258041.851,-3.418,-14.648,-20.020,-40.039,-121.094
1688258041.855,5.371,-3.906,-5.859,-46.387,-394.043
1688258041.859,-3.906,-9.277,-6.836,-10.254,-231.445
1688258041.863,-38.574,-25.391,-31.738,19.043,293.945
1688258041.867,-55.664,-24.902,-52.734,-18.066,303.223
1688258041.870,-27.344,-15.625,-39.551,-67.871,-183.105
1688258041.874,-7.812,-9.277,-12.695,-69.824,-383.301
1688258041.878,-6.348,-7.812,1.465,-30.273,-36.621
1688258041.882,-26.367,-9.277,-14.648,11.230,60.059
1688258041.886,-39.551,-15.137,-35.156,12.695,7.812
1688258041.887,-20.020,-20.508,-36.621,-42.969,-43.457
1688258041.891,-8.301,-13.672,-28.320,-74.219,-227.051
1688258041.895,-10.742,-11.230,-18.555,-28.320,-318.359
1688258041.899,-8.789,-16.602,-11.230,37.598,-122.559
1688258041.903,-10.742,-36.133,-17.090,51.270,210.449
1688258041.907,-10.254,-39.551,-30.273,-15.137,185.059
1688258041.911,-23.438,-29.297,-41.016,-96.680,-100.098
1688258041.914,-40.527,-27.832,-41.504,-90.332,-190.430
1688258041.918,-38.574,-21.973,-27.344,-25.391,109.375
1688258041.922,-19.531,-11.230,-15.625,18.555,667.480
1688258041.926,-11.230,-15.137,-28.809,-26.367,358.398
1688258041.930,-29.785,-29.785,-42.969,-91.797,-302.246
1688258041.933,-42.480,-31.738,-28.809,-77.148,-334.961
1688258041.937,-58.594,-27.832,-28.320,-39.062,-185.059
1688258041.941,-56.152,-28.320,-40.039,-8.789,-44.434
1688258041.945,-30.273,-30.273,-35.156,-17.578,-7.812
1688258041.949,-10.742,-22.949,-13.672,-38.574,-140.625
1688258041.953,-10.254,-21.484,-10.742,-35.156,-251.465
1688258041.957,-41.504,-38.086,-30.273,-18.066,-128.906
1688258041.960,-62.500,-50.781,-45.410,4.395,83.984
1688258041.964,-44.922,-42.480,-47.852,-36.133,347.168
1688258041.968,-28.809,-20.996,-31.738,-80.566,129.883
1688258041.972,-16.602,-6.348,-16.602,-56.641,-273.926
1688258041.976,2.441,-8.301,-1.953,1.953,-158.691
1688258041.977,-1.953,-12.207,-9.277,30.273,171.387
1688258041.981,-12.695,-22.949,-32.227,-17.578,59.570
1688258041.985,-24.902,-26.855,-36.133,-78.613,-210.449
1688258041.989,-40.039,-29.297,-41.504,-86.914,-270.996
1688258041.993,-51.270,-35.156,-42.480,-49.805,-151.855
1688258041.997,-51.270,-26.367,-26.855,10.742,24.902
1688258042.001,-30.762,-22.461,-22.949,9.766,61.035
1688258042.004,-9.766,-22.461,-25.879,-45.410,119.141
1688258042.008,2.930,-18.555,-13.672,-61.035,226.074
1688258042.012,-9.766,-21.484,-11.230,-25.879,-57.617
1688258042.016,-35.645,-18.066,-21.484,13.672,-124.023
1688258042.020,-23.438,-9.766,-25.879,14.648,102.539
1688258042.023,-19.531,-22.949,-31.738,-28.320,-33.203
1688258042.027,-24.414,-37.109,-40.527,-65.430,-344.238
1688258042.031,-33.203,-32.227,-41.504,-40.527,-303.223
1688258042.035,-33.691,-16.602,-25.879,19.531,109.863
1688258042.039,1.953,-11.719,-15.137,36.621,166.504
1688258042.043,3.906,-21.973,-33.691,-34.180,-64.941
1688258042.047,-45.898,-31.738,-52.734,-110.352,-229.004
1688258042.050,-58.594,-27.832,-40.039,-93.262,-26.855
1688258042.054,-50.781,-26.367,-27.344,-23.926,77.148
1688258042.058,-40.039,-31.738,-25.879,10.254,4.883
1688258042.062,-12.207,-22.949,-16.113,-16.602,-47.363
1688258042.066,-4.883,-13.184,-13.184,-41.016,-236.816
1688258042.083,-28.320,-28.320,-28.320,-56.152,-303.711
1688258042.087,-27.344,-24.414,-16.113,-2.930,-134.277
1688258042.091,-6.348,-8.789,0.488,59.082,221.680
1688258042.095,-24.414,-40.039,-33.691,-9.766,201.660
1688258042.099,-55.176,-51.758,-56.152,-79.590,-193.848
1688258042.103,-69.824,-40.039,-56.152,-82.031,-269.531
1688258042.107,-71.289,-37.598,-50.781,-48.828,97.168
1688258042.110,-58.594,-33.691,-32.227,-0.488,692.871
1688258042.114,-19.043,-21.484,-18.555,-13.184,312.012
1688258042.118,5.371,-13.672,-10.254,-41.992,-310.547
1688258042.122,0.977,-12.695,0.488,-29.785,-296.875
1688258042.126,-28.809,-20.996,-23.438,-9.277,-212.891
1688258042.127,-53.711,-36.621,-51.758,1.953,-46.875
1688258042.131,-31.738,-31.738,-42.480,-12.695,5.371
1688258042.135,-10.254,-24.414,-35.156,-50.781,-181.641
1688258042.139,-20.996,-33.691,-37.598,-70.312,-316.406
1688258042.143,-44.434,-25.391,-34.180,-41.504,-180.176
1688258042.147,-62.988,-31.250,-40.527,-2.930,190.430
1688258042.151,-35.156,-35.156,-26.855,0.977,415.039
1688258042.154,-6.348,-23.438,-7.324,-37.109,41.504
1688258042.158,-5.371,-13.184,-10.254,-53.711,-332.031
1688258042.162,-20.996,-11.230,-25.879,-28.809,-235.840
1688258042.166,-50.293,-27.832,-53.223,-8.301,326.660
1688258042.170,-49.805,-47.852,-59.570,-32.227,389.160
1688258042.172,-4.883,-42.480,-36.621,-62.988,-152.832
1688258042.176,-3.418,-28.809,-29.785,-88.379,-332.031
1688258042.180,-29.297,-18.555,-32.715,-81.543,-221.191
1688258042.184,-25.879,-9.766,-32.715,-13.184,-41.504
1688258042.188,7.324,5.859,-11.719,14.648,43.945
1688258042.192,22.949,0.977,-4.395,-53.223,34.668
1688258042.196,13.184,-3.906,-13.672,-77.148,-71.289
1688258042.199,-23.926,-16.113,-33.203,-53.711,-173.828
1688258042.203,-78.125,-45.410,-54.688,-32.227,-39.551
1688258042.207,-79.102,-40.039,-43.945,-15.625,169.922
1688258042.211,-58.105,-25.879,-32.227,-46.387,361.816
1688258042.215,-61.523,-24.902,-35.645,-97.168,-90.820
1688258042.219,-53.711,-21.484,-26.367,-65.430,-311.035
1688258042.223,-38.574,-15.137,-13.672,18.555,17.578
1688258042.227,-11.230,-0.977,-2.930,53.711,122.070
1688258042.231,5.371,-12.207,-7.812,11.719,-71.289
1688258042.235,-27.832,-44.434,-35.156,-65.430,-231.934
1688258042.239,-65.918,-45.410,-49.805,-93.750,-108.887
1688258042.243,-74.219,-25.391,-42.480,-31.250,40.527
1688258042.246,-49.805,-18.066,-31.250,12.695,124.023
1688258042.250,-22.461,-20.996,-24.414,-20.020,-4.395
1688258042.254,-14.648,-19.043,-15.625,-46.875,117.188
1688258042.258,-16.113,-22.461,-14.648,-31.250,53.223
1688258042.262,-41.992,-30.273,-40.039,-18.066,-159.180
1688258042.263,-47.852,-28.320,-55.664,-2.930,55.664
1688258042.267,-27.832,-28.320,-45.898,-29.785,71.777
1688258042.271,-35.156,-31.738,-30.273,-87.891,-243.652
1688258042.275,-42.969,-29.297,-25.391,-85.449,-382.324
1688258042.279,-40.039,-26.855,-21.484,-15.625,-149.902
1688258042.283,-24.414,-28.809,-11.719,36.621,215.820
1688258042.287,3.418,-24.902,-9.277,0.488,200.195
1688258042.290,9.766,-10.742,-11.230,-56.152,-173.340
1688258042.294,-16.113,-10.254,-23.926,-70.312,-190.918
1688258042.298,-41.992,-20.996,-35.645,-39.062,293.945
1688258042.302,-42.480,-29.297,-31.738,10.742,291.016
1688258042.306,-28.320,-40.039,-33.691,4.883,-10.742
1688258042.309,-28.809,-45.898,-45.410,-51.270,-71.289
1688258042.313,-31.250,-35.156,-36.133,-60.547,-255.371
1688258042.317,-40.039,-24.414,-22.949,-26.855,-353.516
1688258042.321,-49.316,-30.762,-25.879,12.695,-58.594
1688258042.325,-23.438,-17.578,-25.879,20.996,157.715
1688258042.329,-10.742,-5.371,-25.391,-37.598,-18.066
1688258042.333,-19.531,-7.812,-21.973,-62.988,-239.746
1688258042.336,-18.066,-8.789,-17.090,-23.926,-206.055
1688258042.340,-50.781,-32.227,-35.645,0.000,311.035
1688258042.344,-55.664,-47.852,-45.898,-13.184,361.816
1688258042.348,-28.809,-46.387,-45.410,-56.152,-125.000
1688258042.352,-20.996,-39.551,-35.645,-80.566,-327.637
1688258042.352,-24.414,-31.250,-18.066,-41.016,-275.879
1688258042.356,-33.203,-28.809,-12.695,27.832,-77.637
1688258042.360,-14.648,-25.879,-6.348,25.879,67.383
1688258042.364,-0.488,-21.484,-15.625,-40.527,-11.719
1688258042.368,-20.508,-24.902,-27.832,-77.637,-192.383
1688258042.372,-41.992,-35.156,-36.133,-61.035,-242.676
1688258042.376,-52.734,-44.922,-35.645,-10.254,-17.090
1688258042.379,-55.664,-48.828,-35.645,0.488,344.727
1688258042.383,-34.668,-25.879,-30.273,-40.527,552.734
1688258042.387,-28.809,-16.113,-29.785,-84.961,16.602
1688258042.391,-50.293,-28.809,-41.504,-93.262,-388.184
1688258042.395,-55.664,-40.527,-34.668,-33.203,-142.578
1688258042.399,-25.391,-41.504,-10.254,26.855,46.875
1688258042.403,13.184,-12.695,7.324,2.441,-80.566
1688258042.407,-7.324,1.465,-17.578,-60.059,-264.160
1688258042.411,-43.457,-13.184,-34.668,-66.895,-217.285
1688258042.415,-57.129,-20.996,-28.809,-26.367,-59.082
1688258042.419,-55.176,-26.367,-24.902,-0.977,116.699
1688258042.423,-33.203,-35.156,-24.414,-16.113,122.070
1688258042.426,-25.391,-32.715,-32.227,-54.688,217.285
1688258042.430,-37.109,-31.250,-28.809,-48.828,89.844
1688258042.434,-46.875,-32.227,-23.926,-1.953,-173.828
1688258042.438,-38.574,-22.461,-36.133,21.973,48.340
1688258042.442,-23.926,-11.230,-33.203,-3.418,116.211
1688258042.442,-12.207,-8.301,-18.066,-45.410,-208.008
1688258042.446,-4.883,-14.160,-9.277,-43.457,-362.793
1688258042.450,-24.902,-27.832,-11.719,-13.184,-189.941
1688258042.454,-41.504,-31.250,-23.438,11.230,-9.766
1688258042.458,-27.832,-17.578,-28.320,0.000,-5.371
1688258042.462,-14.160,-11.719,-27.344,-40.527,-176.758
1688258042.466,-19.043,-7.324,-26.855,-62.012,-115.234
1688258042.469,-34.180,-12.207,-33.203,-36.133,400.879
1688258042.473,-40.039,-19.043,-32.715,19.043,344.238
1688258042.477,-17.090,-4.883,-27.344,19.043,-37.109
1688258042.481,-9.277,-9.766,-30.762,-33.691,-87.402
1688258042.485,-24.414,-29.785,-28.809,-68.848,-216.797
1688258042.489,-34.180,-26.367,-23.438,-44.922,-333.008
1688258042.493,-47.852,-17.090,-31.250,-1.953,-43.457
1688258042.497,-36.133,-10.742,-35.645,-4.395,171.875
1688258042.501,-15.137,-10.254,-36.621,-50.293,-62.988
1688258042.505,-18.555,-13.672,-39.551,-75.195,-350.098
1688258042.509,-31.250,-14.648,-32.715,-58.594,-191.406
1688258042.513,-47.852,-33.203,-28.320,-18.555,349.609
1688258042.516,-42.969,-43.457,-27.344,9.277,314.941
1688258042.520,-20.020,-26.367,-26.367,-29.785,-145.020
1688258042.524,-27.832,-14.160,-30.762,-82.520,-295.410
1688258042.528,-41.016,-8.789,-28.320,-68.359,-151.855
1688258042.532,-41.016,-17.578,-16.602,0.000,-50.781
1688258042.532,-11.719,-28.320,3.418,47.852,-7.812
1688258042.536,10.742,-26.367,4.883,8.789,-50.781
1688258042.540,-10.254,-17.578,-17.578,-53.711,-145.508
1688258042.544,-32.715,-10.254,-33.691,-62.500,-296.387
1688258042.548,-63.477,-23.438,-43.457,-16.113,-165.527
1688258042.552,-71.289,-41.504,-47.363,-4.883,259.766
1688258042.556,-39.062,-43.945,-32.715,-50.781,373.535
1688258042.559,-30.273,-43.945,-28.320,-94.727,-81.543
1688258042.563,-35.156,-41.504,-31.250,-89.355,-331.543
1688258042.567,-25.391,-33.691,-26.855,-15.625,-15.625
1688258042.571,-20.996,-37.109,-29.297,28.809,324.707
1688258042.575,-20.508,-52.734,-32.715,-12.695,68.848
1688258042.608,-26.855,-64.453,-33.691,-71.777,-191.895
1688258042.612,-30.273,-51.270,-32.227,-80.566,-54.199
1688258042.616,-33.203,-39.551,-31.738,-27.832,21.973
1688258042.620,-30.273,-31.738,-27.344,28.320,20.020
1688258042.624,-23.926,-30.273,-32.227,-2.441,16.113
1688258042.628,-18.555,-27.344,-23.926,-47.852,-63.965
1688258042.632,-18.555,-12.695,-15.625,-48.828,-182.617
1688258042.635,-33.691,-19.531,-25.879,-17.090,-216.309
1688258042.639,-35.156,-37.598,-32.715,27.832,-12.207
1688258042.643,-33.691,-45.410,-36.133,-7.324,131.348
1688258042.647,-26.855,-31.738,-30.273,-70.312,-118.652
1688258042.651,-21.973,-16.602,-22.461,-70.801,-346.680
1688258042.637,-30.273,-20.996,-7.324,-22.949,-139.648
1688258042.641,-23.438,-18.555,4.395,41.992,402.344
1688258042.645,-19.043,-18.555,-16.602,20.020,270.020
1688258042.649,-33.203,-33.691,-51.270,-66.406,-101.074
1688258042.653,-52.246,-42.480,-66.895,-102.051,-158.691
1688258042.657,-54.688,-35.645,-55.176,-66.406,27.344
1688258042.661,-49.805,-26.855,-28.809,-2.441,152.832
1688258042.664,-18.555,-16.113,-1.953,22.461,144.531
1688258042.668,7.324,-10.254,6.348,-7.812,-46.387
1688258042.672,-8.789,-20.996,-12.207,-52.734,-276.855
1688258042.676,-28.809,-30.273,-26.367,-52.734,-301.270
1688258042.680,-26.367,-31.250,-20.020,15.137,-155.762
1688258042.684,-4.883,-29.297,-12.207,47.363,204.102
1688258042.688,-4.395,-21.973,-23.438,-14.648,362.793
1688258042.692,-19.531,-11.230,-29.297,-72.266,-220.215
1688258042.696,-33.203,-10.254,-22.461,-60.059,-416.016
1688258042.700,-50.293,-19.531,-35.645,-16.113,-72.754
1688258042.704,-42.480,-29.785,-45.898,-7.324,164.551
1688258042.708,-26.855,-32.227,-38.574,-44.922,49.805
1688258042.711,-27.832,-32.715,-28.809,-71.777,-123.535
1688258042.715,-3.418,-27.832,-5.859,-33.203,64.453
1688258042.719,31.250,-7.324,20.508,59.082,122.070
1688258042.723,10.742,-9.277,-7.324,65.918,-15.137
1688258042.727,-29.785,-39.551,-50.293,-24.902,-6.348
1688258042.727,-55.664,-50.293,-61.035,-94.727,-10.254
1688258042.731,-69.336,-41.992,-64.941,-93.262,-258.789
1688258042.735,-60.547,-35.645,-58.105,-26.855,-195.312
1688258042.739,-34.180,-25.879,-35.156,32.227,91.309
1688258042.743,-8.301,-23.926,-12.207,2.441,44.434
1688258042.747,-10.254,-30.762,-9.277,-62.988,-148.926
1688258042.751,-17.090,-25.391,-20.996,-61.523,-198.242
1688258042.754,-27.832,-24.902,-32.227,-6.836,97.656
1688258042.758,-31.250,-20.508,-34.668,22.949,677.246
1688258042.762,-27.832,-24.902,-43.945,-22.949,483.887
1688258042.766,-29.297,-28.320,-46.875,-79.102,-223.145
1688258042.770,-38.086,-28.320,-37.598,-88.867,-352.539
1688258042.788,-61.523,-37.598,-41.016,-55.176,-175.781
1688258042.792,-50.781,-27.832,-30.762,15.137,-12.695
1688258042.796,-18.066,-23.926,-25.879,1.465,-17.090
1688258042.800,-25.879,-43.457,-38.086,-79.102,-185.059
1688258042.804,-49.316,-49.805,-36.621,-92.285,-334.961
1688258042.808,-55.176,-39.062,-28.320,-44.434,-145.996
1688258042.812,-45.898,-20.508,-23.438,5.371,107.910
1688258042.815,-23.926,-13.672,-23.438,-6.836,339.844
1688258042.819,-19.043,-21.973,-33.203,-64.453,82.031
1688258042.823,-39.062,-33.203,-39.551,-89.844,-428.223
1688258042.827,-51.270,-41.016,-35.645,-51.758,-259.766
1688258042.831,-54.688,-47.852,-34.668,3.418,184.082
1688258042.817,-39.062,-42.480,-26.367,13.184,138.184
1688258042.821,-17.090,-29.297,-16.602,-35.645,-172.363
1688258042.825,-17.578,-20.020,-20.020,-58.105,-309.082
1688258042.829,-43.945,-20.996,-34.180,-41.504,-188.965
1688258042.833,-37.109,-13.184,-20.020,12.695,29.785
1688258042.837,-7.324,-5.371,-5.371,28.809,197.266
1688258042.841,-13.672,-21.484,-20.508,-38.574,136.719
1688258042.844,-40.039,-35.156,-35.645,-88.867,-67.383
1688258042.848,-74.219,-45.898,-49.805,-86.914,-248.535
1688258042.852,-71.289,-40.527,-40.527,-18.555,-167.969
1688258042.856,-41.504,-29.297,-21.973,30.762,229.492
1688258042.860,-35.645,-30.762,-32.227,-14.648,462.891
1688258042.880,-39.062,-16.113,-33.203,-62.988,-72.754
1688258042.884,-43.945,-17.578,-30.273,-63.965,-308.105
1688258042.888,-53.711,-38.086,-37.109,-35.645,50.781
1688258042.892,-38.574,-37.598,-33.203,-9.277,117.676
1688258042.896,-2.441,-32.715,-24.902,-41.016,-121.582
1688258042.900,7.812,-32.715,-16.113,-81.543,-230.469
1688258042.904,-6.348,-32.227,-27.344,-81.055,8.789
1688258042.907,-18.555,-31.738,-33.691,-27.832,58.594
1688258042.911,-27.832,-31.250,-40.039,-6.836,-17.578
1688258042.915,-26.367,-19.043,-38.574,-44.434,-11.230
1688258042.919,-27.832,-7.324,-19.531,-64.941,-135.742
1688258042.923,-52.734,-28.320,-26.855,-63.965,-306.641
1688258042.907,-74.707,-49.805,-39.062,-22.461,-187.012
1688258042.911,-47.363,-25.391,-18.555,21.973,54.688
1688258042.915,-22.949,-9.766,-18.555,-11.230,13.672
1688258042.919,-26.855,-24.414,-35.645,-57.617,-185.547
1688258042.923,-37.109,-37.598,-36.621,-65.430,-182.617
1688258042.927,-43.945,-35.645,-30.762,-20.020,57.617
1688258042.931,-51.270,-29.297,-31.250,22.461,301.758
1688258042.934,-41.504,-29.297,-42.480,-10.254,177.246
1688258042.938,-10.742,-16.113,-26.367,-41.016,-176.758
1688258042.942,-22.461,-12.695,-5.371,-54.688,-235.840
1688258042.946,-61.523,-27.832,-16.113,-44.434,300.293
1688258042.950,-62.012,-30.762,-28.809,9.766,467.773
1688258042.968,-26.367,-17.578,-24.414,14.160,113.770
1688258042.972,-11.230,-13.672,-20.020,-35.645,-120.117
1688258042.976,-8.789,-9.766,-1.465,-44.922,-302.246
1688258042.980,-21.973,-12.695,0.488,-16.602,-310.059
1688258042.984,-43.457,-27.832,-24.414,0.488,-62.500
1688258042.988,-38.574,-31.250,-42.969,-13.184,242.188
1688258042.992,-32.227,-31.738,-47.363,-64.453,73.242
1688258042.995,-26.855,-34.668,-33.203,-85.449,-300.293
1688258042.999,-23.926,-30.762,-18.066,-45.410,-340.332
1688258043.003,-23.438,-11.230,-0.488,27.344,185.547
1688258043.007,-26.855,-14.160,-8.789,39.062,323.730
1688258043.011,-19.043,-25.391,-22.949,-32.227,-129.883
1688258043.027,-3.906,-14.160,-5.371,-62.988,-329.102
1688258043.031,-20.996,-11.719,-6.836,-41.504,-283.203
1688258043.035,-54.199,-23.926,-34.180,-2.441,-90.332
1688258043.039,-43.457,-29.297,-41.016,7.324,55.176
1688258043.043,-10.254,-24.902,-30.273,-33.691,11.719
1688258043.047,-19.043,-30.273,-28.809,-72.266,-52.734
1688258043.051,-44.922,-43.945,-31.738,-61.035,-103.516
1688258043.054,-44.434,-37.598,-20.020,-5.859,-87.402
1688258043.058,-37.598,-27.832,-16.602,29.297,239.746
1688258043.062,-36.621,-33.691,-31.250,-22.461,567.871
1688258043.066,-36.133,-28.809,-36.133,-71.777,43.945
1688258043.070,-27.344,-11.719,-28.809,-62.012,-397.949
1688258043.058,-25.879,-10.742,-19.043,-6.348,-138.184
1688258043.062,-33.691,-31.250,-27.832,22.949,25.879
1688258043.066,-27.832,-44.434,-36.133,-23.438,-114.258
1688258043.070,-28.809,-41.016,-37.598,-81.543,-267.090
1688258043.074,-35.645,-25.391,-37.109,-83.008,-209.473
1688258043.078,-38.086,-9.277,-34.180,-20.020,-2.930
1688258043.082,-41.992,-15.625,-35.156,21.484,102.539
1688258043.085,-30.762,-37.598,-37.598,-11.719,102.051
1688258043.089,-18.555,-42.480,-33.203,-59.082,-54.199
1688258043.093,-32.227,-42.969,-27.344,-60.547,-341.797
1688258043.097,-49.316,-45.410,-38.086,-36.621,-320.801
1688258043.101,-33.203,-26.855,-36.621,14.160,93.750
1688258043.102,-5.371,-15.137,-20.020,21.484,490.234
1688258043.106,-10.254,-18.066,-25.391,-40.527,131.348
1688258043.110,-33.203,-25.879,-41.504,-86.914,-412.109
1688258043.114,-41.504,-27.344,-41.016,-60.547,-315.430
1688258043.118,-35.645,-26.367,-30.273,4.395,51.758
1688258043.122,-10.742,-20.508,-17.578,15.137,185.547
1688258043.126,-9.277,-18.066,-25.879,-42.969,-41.016
1688258043.129,-32.227,-29.297,-37.598,-69.824,-131.836
1688258043.133,-42.480,-28.320,-26.855,-32.227,219.727
1688258043.137,-31.250,-15.137,-13.184,35.645,248.047
1688258043.141,6.836,-8.301,-1.465,46.387,3.906
1688258043.145,12.207,-16.602,-10.742,-13.672,-128.418
1688258043.148,-32.715,-41.016,-41.992,-75.684,-317.871
1688258043.152,-51.758,-37.109,-47.363,-63.477,-271.484
1688258043.156,-46.875,-18.555,-35.156,-4.395,46.387
1688258043.160,-40.039,-18.066,-36.133,-0.488,282.715
1688258043.164,-20.020,-22.949,-28.320,-40.527,-15.137
1688258043.168,-22.461,-23.926,-24.902,-76.172,-347.168
1688258043.172,-35.645,-20.020,-24.414,-56.152,-211.426
1688258043.175,-48.828,-18.066,-20.508,3.418,279.297
1688258043.179,-35.156,-17.578,-24.414,20.020,333.984
1688258043.183,-0.488,-22.461,-20.020,-11.230,-96.680
1688258043.187,-9.277,-35.156,-18.066,-50.781,-319.824
1688258043.191,-46.387,-38.574,-33.203,-64.453,-294.434
1688258043.193,-65.918,-32.715,-41.016,-14.648,-126.465
1688258043.197,-48.340,-25.391,-26.855,21.973,64.453
1688258043.201,-20.508,-20.508,-16.602,-26.855,-3.418
1688258043.205,-22.461,-19.043,-24.414,-77.148,-199.219
1688258043.209,-36.133,-14.648,-28.320,-71.289,-176.270
1688258043.213,-37.109,-18.555,-19.531,-18.066,-29.785
1688258043.217,-26.855,-27.832,-13.184,22.461,276.855
1688258043.220,-8.301,-29.297,-14.648,2.441,677.246
1688258043.224,-6.836,-20.996,-17.578,-48.340,259.277
1688258043.228,-23.926,-15.137,-20.996,-62.500,-329.102
1688258043.232,-41.016,-21.973,-29.297,-24.414,-143.555
1688258043.236,-43.457,-27.344,-30.762,9.766,68.359
1688258043.253,-19.043,-25.391,-15.137,-4.883,-75.684
1688258043.257,-6.836,-25.391,-8.301,-53.711,-280.273
1688258043.261,-30.762,-39.551,-25.391,-76.172,-294.922
1688258043.265,-42.480,-45.898,-33.203,-29.785,-189.453
1688258043.269,-35.156,-30.762,-32.227,22.949,-10.254
1688258043.273,-23.438,-25.391,-32.715,1.465,102.051
1688258043.277,-22.949,-30.762,-31.250,-48.340,206.543
1688258043.280,-31.738,-26.855,-30.762,-58.105,20.020
1688258043.284,-31.250,-18.066,-20.996,-15.625,-231.934
1688258043.288,-18.066,-16.602,-5.371,29.785,-21.484
1688258043.292,-2.930,-21.484,-11.719,1.953,212.891
1688258043.296,-7.324,-17.578,-27.344,-63.477,-165.527
1688258043.282,-23.926,-18.555,-30.273,-81.055,-505.859
1688258043.286,-34.668,-23.926,-28.809,-49.316,-359.375
1688258043.290,-27.832,-14.648,-19.531,26.367,-57.617
1688258043.294,-15.137,-20.508,-17.090,33.203,29.785
1688258043.298,-15.137,-30.273,-22.461,-35.645,-224.121
1688258043.302,-28.809,-30.273,-30.273,-71.289,-239.258
1688258043.306,-48.340,-31.738,-39.551,-53.223,16.113
1688258043.309,-54.199,-33.691,-31.738,-1.465,94.727
1688258043.313,-22.949,-23.438,-15.625,22.461,56.641
1688258043.317,-12.695,-18.555,-28.809,-41.504,36.621
1688258043.321,-40.527,-26.367,-46.875,-83.008,141.113
1688258043.325,-54.199,-30.762,-39.551,-51.758,-147.949
1688258043.343,-58.594,-33.203,-33.691,-11.719,-188.965
1688258043.347,-33.691,-29.297,-25.879,8.789,62.012
1688258043.351,-12.695,-32.227,-23.438,-34.668,-23.438
1688258043.355,-37.598,-39.062,-29.297,-83.496,-307.129
1688258043.359,-50.293,-36.621,-25.391,-69.824,-330.078
1688258043.363,-51.270,-29.785,-17.578,-21.484,114.258
1688258043.367,-43.457,-28.320,-20.508,2.930,331.055
1688258043.370,-27.832,-39.062,-27.832,-29.297,4.883
1688258043.374,-25.391,-51.270,-22.461,-60.547,-266.602
1688258043.378,-25.879,-36.621,-17.578,-44.434,-49.805
1688258043.382,-49.316,-18.555,-31.250,-2.441,73.730
1688258043.386,-61.035,-24.414,-44.922,4.395,88.867
1688258043.387,-41.504,-40.527,-48.828,-49.805,99.121
1688258043.391,-32.227,-35.156,-40.039,-96.680,-103.516
1688258043.395,-34.668,-19.531,-29.785,-82.520,-322.754
1688258043.399,-45.898,-25.879,-31.738,-28.809,-216.309
1688258043.403,-53.223,-34.180,-36.621,4.883,149.902
1688258043.407,-30.762,-32.715,-31.738,-22.949,237.305
1688258043.411,-14.160,-36.133,-33.691,-73.730,-57.617
1688258043.414,-10.742,-35.645,-29.297,-64.941,-266.113
1688258043.418,-21.484,-39.062,-23.438,-19.531,-45.898
1688258043.422,-36.621,-42.480,-28.320,13.184,483.398
1688258043.426,-20.020,-28.320,-25.879,-1.465,244.141
1688258043.430,-19.531,-22.949,-30.273,-57.617,-243.652
1688258043.435,-31.250,-16.113,-27.344,-63.965,-327.148
1688258043.439,-36.621,-22.949,-26.855,-11.719,-197.754
1688258043.443,-39.062,-32.715,-27.344,25.391,38.086
1688258043.447,-18.555,-25.879,-15.625,25.879,36.621
1688258043.451,-2.930,-27.344,-19.531,-24.414,11.230
1688258043.455,-16.602,-30.762,-27.344,-63.965,-178.223
1688258043.459,-37.109,-31.250,-23.926,-28.809,-192.383
1688258043.462,-44.922,-33.691,-34.668,4.395,76.660
1688258043.466,-33.203,-33.691,-57.617,-21.484,334.961
1688258043.470,-20.020,-38.574,-51.758,-68.359,112.793
1688258043.474,-24.902,-41.992,-29.785,-84.961,-345.703
1688258043.478,-38.086,-29.785,-23.438,-46.387,-304.199
1688258043.477,-49.316,-20.996,-22.461,0.977,5.371
1688258043.481,-40.527,-16.602,-24.902,0.977,87.402
1688258043.485,-27.832,-18.555,-27.344,-54.199,-121.094
1688258043.489,-35.156,-21.973,-24.902,-82.520,-287.598
1688258043.493,-49.805,-19.531,-30.273,-62.012,-188.477
1688258043.497,-52.734,-21.973,-37.109,-14.648,91.309
1688258043.501,-32.227,-30.762,-26.855,7.324,171.875
1688258043.504,-8.301,-19.531,-8.301,-25.879,67.871
1688258043.508,-1.465,5.859,-1.465,-48.828,329.102
1688258043.512,-38.574,-17.578,-31.738,-53.223,217.773
1688258043.516,-65.918,-45.410,-49.805,-16.602,-108.398
1688258043.520,-52.246,-41.016,-41.992,4.883,75.195
1688258043.524,-12.695,-26.855,-24.414,-25.879,-11.719
1688258043.528,-0.977,-9.766,-6.836,-45.410,-330.078
1688258043.532,-20.508,1.953,-2.930,-40.527,-367.676
1688258043.536,-51.270,-16.602,-32.715,-10.742,-64.453
1688258043.540,-59.082,-44.434,-54.688,-0.977,85.449
1688258043.544,-35.156,-52.246,-38.574,-24.414,-22.949
1688258043.548,-14.160,-47.852,-25.879,-35.156,-145.996
1688258043.551,-28.320,-32.715,-31.738,-48.828,83.008
1688258043.555,-76.172,-23.438,-35.156,-53.223,208.496
1688258043.559,-63.965,-21.973,-31.250,-14.648,49.316
1688258043.563,-20.508,-9.766,-20.996,-18.066,36.133
1688258043.567,-25.879,-3.906,-20.508,-78.613,11.719
1688258043.567,-41.504,-9.766,-22.461,-88.379,-250.000
1688258043.571,-40.527,-6.348,-11.230,-32.227,-234.863
1688258043.575,-43.945,-11.719,-26.367,-5.859,58.105
1688258043.579,-37.109,-29.785,-39.062,-52.734,54.688
1688258043.583,-23.926,-15.625,-23.438,-106.934,-196.777
1688258043.587,-56.641,-14.160,-51.270,-139.648,-295.898
1688258043.591,-90.332,-28.320,-76.172,-128.418,-33.203
1688258043.594,-79.590,-15.137,-60.547,-79.590,573.730
1688258043.598,-42.969,-2.441,-44.922,-71.289,368.652
1688258043.602,-37.598,-14.160,-45.410,-106.445,-159.668
1688258043.606,-67.871,-40.039,-55.176,-117.188,-200.684
1688258043.610,-79.102,-33.691,-44.434,-63.965,-154.785
1688258043.614,-75.195,-20.996,-34.180,-14.648,-59.082
1688258043.618,-51.758,-24.414,-35.645,-26.855,7.812
1688258043.622,-17.090,-8.789,-16.602,-55.176,-141.113
1688258043.626,-47.363,-23.438,-34.180,-93.750,-345.703
1688258043.630,-84.961,-44.434,-61.523,-86.426,-333.008
1688258043.634,-72.266,-30.273,-45.410,-16.113,52.734
1688258043.638,-49.316,-35.156,-33.691,1.953,523.926
1688258043.641,-36.621,-54.199,-30.762,-53.711,210.938
1688258043.645,-41.992,-41.504,-28.809,-79.590,-372.070
1688258043.649,-57.129,-22.949,-34.668,-44.434,-370.605
1688258043.653,-71.777,-25.879,-40.039,3.418,-101.074
1688258043.657,-52.734,-31.250,-38.086,16.113,63.965
1688258043.658,-18.066,-23.438,-25.391,-38.086,-24.902
1688258043.662,-25.879,-26.367,-34.180,-95.215,-223.145
1688258043.666,-55.176,-33.203,-47.852,-82.520,-178.711
1688258043.670,-54.199,-24.414,-36.621,-19.043,-35.645
1688258043.674,-16.113,-15.625,-22.461,25.879,61.035
1688258043.678,-2.441,-23.926,-29.297,-12.695,148.926
1688258043.682,-34.668,-32.227,-48.340,-85.938,166.992
1688258043.685,-47.363,-33.691,-43.945,-81.543,-117.188
1688258043.689,-38.574,-29.297,-27.832,-8.301,-152.344
1688258043.693,-30.762,-22.949,-30.762,25.391,160.156
1688258043.697,4.395,-8.301,-23.438,1.953,271.973
1688258043.701,17.090,-5.371,-5.371,-42.480,-186.035
1688258043.734,-3.418,-13.672,-2.441,-52.246,-356.934
1688258043.738,-43.457,-27.344,-30.273,-10.254,-38.086
1688258043.742,-50.781,-22.949,-39.551,22.461,204.590
1688258043.746,-26.855,-13.184,-27.344,-17.090,26.367
1688258043.750,-14.160,-11.719,-20.020,-53.223,-239.746
1688258043.754,-22.461,-15.137,-19.531,-49.805,117.188
1688258043.758,-50.781,-21.484,-31.250,-27.832,299.316
1688258043.761,-63.965,-32.715,-42.480,-3.418,34.180
1688258043.765,-23.438,-24.414,-24.414,-2.441,-39.551
1688258043.769,-14.648,-20.508,-17.578,-49.805,-55.176
1688258043.773,-47.363,-37.598,-30.762,-85.449,-267.578
1688258043.777,-74.707,-42.480,-47.852,-71.289,-286.621
1688258043.762,-71.777,-37.598,-54.688,-26.855,36.621
1688258043.766,-24.414,-14.160,-26.855,-17.578,113.770
1688258043.770,-7.324,-7.812,-18.066,-70.312,-180.176
1688258043.774,-30.762,-23.926,-33.691,-84.961,-367.188
1688258043.778,-31.250,-16.602,-19.531,-22.949,-151.855
1688258043.782,-14.160,-14.648,0.000,44.434,203.125
1688258043.786,-4.883,-31.738,-15.625,24.414,213.867
1688258043.789,14.160,-14.160,-19.531,-29.297,-5.859
1688258043.793,-2.930,-17.578,-22.461,-69.336,-30.762
1688258043.797,-42.480,-34.668,-28.809,-65.430,-63.965
1688258043.801,-55.176,-31.250,-34.668,-10.254,-3.906
1688258043.805,-36.621,-25.879,-34.180,11.719,56.152
1688258043.808,-14.160,-18.555,-24.902,-28.809,41.504
1688258043.812,-13.672,-25.879,-23.926,-63.965,233.887
1688258043.816,-27.832,-34.668,-27.832,-48.340,18.066
1688258043.820,-34.668,-14.648,-32.227,16.113,-95.703
1688258043.824,-36.133,-20.508,-53.711,17.090,97.168
1688258043.828,-21.484,-30.273,-56.641,-34.668,-8.789
1688258043.832,-25.879,-25.879,-33.691,-63.477,-164.551
1688258043.835,-60.547,-34.668,-20.996,-67.383,-178.711
1688258043.839,-54.688,-27.832,-11.719,-4.395,257.812
1688258043.843,-34.180,-20.996,-17.090,24.902,511.719
1688258043.847,-12.695,-13.672,-10.254,-8.789,35.645
1688258043.851,-12.207,-11.719,-2.930,-50.781,-345.215
1688258043.852,-53.711,-27.832,-30.273,-78.125,-341.309
1688258043.856,-74.707,-38.086,-41.504,-40.527,-216.309
1688258043.860,-61.523,-44.922,-47.852,-10.254,-63.477
1688258043.864,-20.020,-43.945,-44.922,-25.879,-77.148
1688258043.868,-11.719,-42.969,-31.738,-61.523,-223.633
1688258043.872,-30.273,-25.879,-30.273,-63.965,-213.379
1688258043.876,-29.297,-3.418,-23.438,-9.277,-80.078
1688258043.879,-25.879,-10.742,-23.926,15.137,252.930
1688258043.883,-33.203,-27.344,-40.039,-27.832,505.371
1688258043.887,-51.270,-41.992,-48.828,-102.539,0.000
1688258043.891,-50.293,-44.434,-40.039,-110.352,-355.469
1688258043.895,-33.691,-35.645,-12.695,-30.762,-115.723
1688258043.899,-38.086,-36.133,-12.207,10.742,65.918
1688258043.903,-34.180,-23.438,-34.180,-23.926,-67.871
1688258043.907,-25.391,-6.348,-35.645,-68.848,-248.047
1688258043.911,-48.828,-43.457,-44.922,-98.633,-254.395
1688258043.915,-66.895,-56.641,-39.062,-62.012,-194.824
1688258043.919,-58.105,-36.621,-25.879,-6.836,75.684
1688258043.923,-31.738,-31.250,-31.738,-16.602,225.586
1688258043.926,-24.902,-29.297,-41.504,-60.059,153.320
1688258043.930,-36.621,-24.414,-37.109,-78.125,-102.051
1688258043.934,-33.203,-9.766,-17.578,-35.156,-257.812
1688258043.938,-30.762,-10.742,-17.578,19.531,16.113
1688258043.942,-16.113,-15.625,-19.531,20.020,115.723
1688258043.943,6.348,-8.789,-10.254,-24.414,-40.527
1688258043.947,-18.555,-33.691,-26.367,-65.430,-294.434
1688258043.951,-54.688,-39.551,-46.875,-59.570,-281.250
1688258043.955,-61.035,-20.996,-40.527,-8.301,109.375
1688258043.959,-44.434,-30.273,-29.785,3.418,194.824
1688258043.963,-15.625,-19.531,-24.902,-30.273,-72.266
1688258043.967,-0.488,0.000,-16.113,-39.062,-120.117
1688258043.970,-28.320,-23.438,-27.832,-43.457,361.816
1688258043.974,-47.363,-18.555,-30.273,-14.648,439.941
1688258043.978,-29.297,2.441,-24.414,4.395,105.469
1688258043.982,-39.551,-38.086,-51.758,-60.059,-7.812
1688258043.986,-56.641,-55.176,-60.059,-105.469,-200.195
1688258044.002,-58.594,-32.227,-41.016,-75.684,-314.453
1688258044.006,-55.664,-18.066,-29.785,-8.301,-100.586
1688258044.010,-41.504,-16.113,-21.973,19.043,208.984
1688258044.014,-17.578,-17.578,-10.254,-12.695,114.746
1688258044.018,4.883,-10.254,2.441,-33.203,-221.680
1688258044.022,0.000,-6.348,-2.441,-30.273,-183.105
1688258044.026,-31.738,-17.578,-24.414,-5.371,348.145
1688258044.029,-47.363,-41.504,-38.574,15.137,541.016
1688258044.033,-26.367,-41.504,-26.367,-17.090,38.086
1688258044.037,-4.395,-26.367,-2.930,-46.875,-311.523
1688258044.041,-4.395,-18.555,5.371,-20.996,-348.633
1688258044.045,-50.293,-30.273,-22.461,-4.883,-229.004
1688258044.032,-42.969,-17.578,-22.461,11.230,-30.273
1688258044.036,7.812,1.465,-7.324,-1.465,-52.734
1688258044.040,-14.160,-24.902,-28.809,-66.895,-224.121
1688258044.044,-67.871,-48.340,-49.805,-93.750,-312.500
1688258044.048,-95.703,-49.805,-56.641,-55.176,-152.832
1688258044.052,-66.406,-34.668,-42.969,0.000,311.523
1688258044.056,-21.973,-18.066,-23.438,-5.371,407.227
1688258044.059,-1.465,-8.789,-12.207,-50.293,10.254
1688258044.063,0.000,-7.324,-10.742,-61.035,-250.000
1688258044.067,-26.367,-20.020,-19.043,-28.809,-125.977
1688258044.071,-55.664,-35.645,-29.785,12.207,438.477
1688258044.075,-52.734,-43.945,-41.016,-9.766,252.441
1688258044.108,-34.668,-36.133,-39.062,-59.570,-261.230
1688258044.112,-30.762,-14.648,-20.996,-58.594,-312.012
1688258044.116,-44.922,-11.230,-19.531,-27.832,-243.164
1688258044.120,-47.363,-16.113,-19.531,7.324,-102.051
1688258044.124,-21.484,-14.648,-15.137,8.301,12.695
1688258044.128,-12.207,-19.531,-29.785,-48.340,-16.113
1688258044.132,-24.902,-24.902,-29.785,-71.777,-216.309
1688258044.135,-47.363,-38.574,-29.297,-39.062,-255.371
1688258044.139,-62.988,-31.738,-38.086,9.766,16.602
1688258044.143,-47.852,-16.113,-47.363,8.301,409.180
1688258044.147,-29.297,-27.344,-50.293,-49.316,238.281
1688258044.151,-22.461,-24.902,-36.621,-69.336,-281.738
1688258044.137,-9.277,-0.977,-2.930,-16.113,-323.242
1688258044.141,-36.621,-17.090,-17.578,14.160,-48.340
1688258044.145,-66.406,-50.781,-59.082,-33.203,79.102
1688258044.149,-38.574,-50.781,-48.828,-70.312,-129.395
1688258044.153,-31.738,-44.922,-41.016,-90.820,-254.883
1688258044.157,-50.293,-40.527,-48.340,-80.566,-130.371
1688258044.161,-48.828,-27.344,-39.062,-11.719,29.297
1688258044.164,-25.391,-12.207,-30.762,22.949,177.246
1688258044.168,4.395,-3.906,-20.508,-11.719,75.684
1688258044.172,-2.441,-10.742,-11.719,-54.688,-176.270
1688258044.176,-33.203,-23.926,-15.137,-61.035,-238.281
1688258044.180,-46.875,-28.809,-20.020,-18.555,-139.160
1688258044.183,-44.922,-41.992,-29.297,4.883,184.082
1688258044.187,-49.316,-49.805,-45.410,-40.527,477.051
1688258044.191,-36.621,-31.738,-38.574,-64.453,-7.324
1688258044.195,-28.320,-28.809,-25.879,-47.852,-395.996
1688258044.199,-29.297,-22.461,-12.695,0.000,-117.676
1688258044.203,-25.879,-15.137,-8.301,36.133,149.414
1688258044.207,-32.715,-37.598,-29.785,-29.785,117.676
1688258044.210,-47.852,-45.898,-49.316,-100.098,-151.855
1688258044.214,-70.312,-47.363,-59.570,-105.469,-42.969
1688258044.218,-69.336,-35.645,-45.410,-48.828,97.656
1688258044.222,-26.367,-8.789,-9.277,27.832,44.922
1688258044.226,19.531,5.859,4.883,30.273,2.441
1688258044.228,2.930,-20.508,-15.625,-38.086,-129.883
1688258044.232,-28.320,-47.363,-37.109,-69.824,-226.562
1688258044.236,-26.855,-32.715,-33.203,-16.113,-227.051
1688258044.240,-16.113,-11.230,-18.066,42.969,46.875
1688258044.244,-16.602,-15.137,-23.926,3.418,224.609
1688258044.248,-28.809,-34.668,-31.738,-66.406,-31.738
1688258044.252,-31.250,-38.086,-24.414,-67.383,-275.391
1688258044.255,-47.363,-35.156,-32.715,-37.109,-117.188
1688258044.259,-66.406,-32.715,-50.781,-10.254,477.539
1688258044.263,-26.855,-8.789,-30.762,-5.859,319.824
1688258044.267,-9.766,-7.324,-19.531,-64.941,-241.699
1688258044.271,-57.129,-33.203,-40.039,-107.422,-352.051
1688258044.272,-85.449,-38.086,-42.969,-78.613,-265.625
1688258044.276,-78.613,-28.809,-31.738,-16.113,-83.984
1688258044.280,-50.293,-29.297,-26.367,-6.348,53.223
1688258044.284,-14.160,-14.160,-14.648,-33.691,23.438
1688258044.288,-18.066,-2.441,-13.184,-47.852,-227.051
1688258044.292,-44.434,-19.043,-25.391,-37.598,-236.816
1688258044.296,-42.969,-41.992,-27.344,10.254,59.082
1688258044.299,-27.344,-43.945,-24.414,19.043,435.059
1688258044.303,-17.090,-17.090,-23.438,-28.809,269.531
1688258044.307,-27.832,-20.996,-33.203,-66.895,-289.062
1688258044.311,-61.523,-50.781,-54.199,-69.824,-313.477
1688258044.315,-69.336,-23.438,-45.410,-15.625,-62.500
1688258044.317,-42.969,4.883,-24.414,12.207,50.293
1688258044.321,-25.879,-8.301,-32.715,-47.363,-97.168
1688258044.325,-16.602,-4.395,-32.715,-85.449,-287.598
1688258044.329,-30.273,-6.348,-33.691,-76.172,-281.738
1688258044.333,-51.270,-22.949,-32.227,-28.809,-65.430
1688258044.337,-45.410,-33.691,-23.926,0.977,131.836
1688258044.341,-10.742,-34.180,-17.090,-37.109,97.656
1688258044.344,2.441,-31.250,-14.160,-77.637,148.438
1688258044.348,-15.625,-31.738,-22.461,-82.520,-31.250
1688258044.352,-28.809,-20.996,-26.367,-36.133,-132.812
1688258044.356,-19.531,-3.418,-19.531,8.301,140.625
1688258044.360,10.742,1.953,-15.137,-18.066,181.152
1688258044.364,-1.465,-10.254,-21.973,-72.754,-297.363
1688258044.368,-49.805,-28.809,-40.527,-87.402,-419.434
1688258044.372,-76.172,-32.227,-46.387,-39.062,-115.234
1688258044.376,-55.664,-21.484,-29.297,29.297,97.168
1688258044.380,-7.812,-18.555,-0.488,37.109,17.578
1688258044.384,-11.719,-22.949,-0.488,-15.625,-95.215
1688258044.388,-55.664,-26.855,-28.320,-56.641,77.637
1688258044.391,-74.707,-23.926,-43.457,-37.109,128.906
1688258044.395,-55.664,-16.113,-27.832,12.207,85.449
1688258044.399,-28.320,-26.855,-17.578,13.672,137.695
1688258044.403,-9.277,-20.020,-18.555,-26.855,6.836
1688258044.407,-11.230,-16.602,-17.578,-37.109,-301.270
1688258044.407,-26.367,-17.578,-14.160,-7.324,-263.672
1688258044.411,-38.574,-19.531,-20.508,20.508,12.695
1688258044.415,-28.809,-44.922,-32.227,11.719,100.098
1688258044.419,-21.973,-39.062,-39.551,-43.945,-80.566
1688258044.423,-44.922,-23.926,-49.316,-80.566,-298.340
1688258044.427,-56.152,-19.531,-44.922,-41.504,0.000
1688258044.431,-39.062,-8.301,-25.391,15.137,458.496
1688258044.434,-22.461,-20.020,-16.113,4.883,282.715
1688258044.438,-30.762,-40.039,-26.855,-61.035,-145.020
1688258044.442,-30.762,-27.832,-20.996,-84.473,-200.684
1688258044.446,-42.480,-21.973,-22.949,-54.688,82.520
1688258044.450,-60.059,-33.203,-35.645,8.301,83.008
1688258044.467,-23.438,-21.973,-20.020,45.410,0.977
1688258044.471,-0.488,-9.766,-4.395,-0.488,4.395
1688258044.475,-30.762,-26.367,-28.809,-64.941,-194.336
1688258044.479,-32.715,-33.203,-26.855,-41.504,-328.125
1688258044.483,-21.484,-9.277,-6.836,13.672,-60.059
1688258044.487,-45.410,-18.066,-41.992,-13.184,314.941
1688258044.491,-50.293,-35.645,-63.477,-75.684,127.441
1688258044.494,-26.855,-32.227,-36.133,-85.938,-316.406
1688258044.498,-25.391,-28.320,-22.461,-48.828,-306.152
1688258044.502,-40.527,-20.020,-26.367,19.043,204.102
1688258044.506,-42.969,-26.855,-34.180,27.832,287.109
1688258044.510,-25.879,-27.344,-35.156,-45.410,-75.684
1688258044.512,-20.996,-27.344,-29.785,-91.797,-299.805
1688258044.516,-20.508,-26.855,-20.020,-68.848,-257.324
1688258044.520,-18.066,-9.277,-10.254,-0.977,-77.148
1688258044.524,-26.855,-5.371,-16.602,23.438,-0.488
1688258044.528,-40.039,-23.926,-39.551,-31.738,75.195
1688258044.532,-45.898,-43.457,-59.082,-84.961,146.484
1688258044.536,-52.246,-48.340,-57.617,-81.055,-116.211
1688258044.539,-66.895,-48.828,-54.688,-45.898,-137.207
1688258044.543,-45.898,-40.527,-41.992,-17.090,180.664
1688258044.547,-18.555,-32.227,-25.391,-26.367,387.695
1688258044.551,-20.020,-34.668,-24.414,-63.965,-37.598
1688258044.555,-19.531,-38.574,-17.090,-58.594,-358.887
1688258044.559,-3.418,-12.207,5.859,9.766,-129.395
1688258044.563,-7.324,1.465,-2.930,48.340,93.262
1688258044.567,-32.715,-33.203,-46.387,-14.160,12.207
1688258044.571,-36.133,-43.945,-51.758,-91.309,-164.551
1688258044.575,-42.969,-39.551,-37.598,-95.703,-134.766
1688258044.579,-54.199,-39.062,-31.250,-37.598,-72.754
1688258044.583,-52.246,-39.062,-30.762,5.371,119.629
1688258044.586,-19.043,-30.762,-17.090,-12.695,124.512
1688258044.590,7.324,-21.484,-7.324,-45.410,138.184
1688258044.594,-21.973,-29.297,-20.020,-65.430,-25.879
1688258044.598,-28.809,-13.672,-12.695,-24.414,-253.418
1688258044.602,-25.391,0.977,-6.348,49.805,-32.715
1688258044.602,-26.855,-14.160,-22.461,24.902,82.520
1688258044.606,-37.598,-38.086,-32.227,-85.938,-163.086
1688258044.610,-74.219,-44.434,-26.855,-129.395,-341.309
1688258044.614,-81.055,-23.926,-8.301,-82.031,-273.926
1688258044.618,-77.637,-19.531,-12.207,-48.828,-19.043
1688258044.622,-83.008,-34.180,-28.809,-62.012,133.789
1688258044.626,-67.871,-38.574,-20.996,-91.797,-51.758
1688258044.629,-58.594,-36.621,-13.672,-101.562,-202.637
1688258044.633,-94.727,-47.852,-32.227,-96.680,255.859
1688258044.637,-125.000,-49.805,-47.852,-62.500,449.219
1688258044.641,-104.004,-33.203,-47.363,-37.109,75.684
1688258044.645,-84.961,-32.227,-46.875,-90.332,-65.430
1688258044.649,-90.332,-31.738,-38.086,-143.066,-226.562
1688258044.653,-97.656,-35.156,-32.227,-128.906,-335.449
1688258044.657,-106.445,-39.551,-27.832,-62.988,-72.266
1688258044.661,-61.035,-15.625,0.977,-5.371,187.988
1688258044.665,-19.531,-16.602,5.371,-35.645,53.223
1688258044.669,-50.293,-43.945,-32.715,-101.074,-189.941
1688258044.673,-69.824,-38.574,-44.434,-100.586,-231.445
1688258044.676,-68.359,-40.527,-38.574,-54.688,131.348
1688258044.680,-61.035,-54.199,-45.898,-24.414,291.016
1688258044.684,-32.227,-36.621,-36.133,-34.180,-30.762
1688258044.688,-26.855,-26.367,-33.203,-67.871,-277.344
1688258044.692,-38.574,-30.273,-39.062,-61.035,-231.445
1688258044.692,-27.344,-15.625,-25.391,4.883,-140.625
1688258044.696,-14.648,-23.438,-21.484,35.156,27.344
1688258044.700,-9.766,-45.898,-31.250,2.441,37.598
1688258044.704,11.230,-23.926,-16.602,-19.531,-171.875
1688258044.708,-3.906,-18.555,-27.344,-35.645,-256.836
1688258044.712,-42.969,-35.645,-52.734,-26.855,-78.125
1688258044.716,-33.203,-29.785,-34.668,17.090,318.359
1688258044.719,-14.648,-34.668,-26.855,0.488,617.676
1688258044.723,-23.438,-42.969,-45.410,-56.641,60.547
1688258044.727,-24.902,-25.879,-41.992,-63.965,-392.090
1688258044.731,-18.555,-22.949,-22.461,-8.789,-147.949
1688258044.735,-20.020,-29.297,-18.555,36.621,165.039
1688258044.753,-9.277,-31.738,-22.461,10.742,52.734
1688258044.757,5.859,-24.414,-14.160,-20.996,-252.930
1688258044.761,-6.348,-29.785,-16.113,-31.250,-129.395
1688258044.765,-34.180,-32.227,-28.809,-21.484,145.996
1688258044.769,-23.926,-13.672,-15.137,45.410,83.496
1688258044.773,-8.789,-14.160,-16.113,39.551,105.957
1688258044.777,-21.973,-25.879,-31.738,-22.461,163.086
1688258044.780,-28.809,-29.785,-36.133,-49.805,-103.516
1688258044.784,-34.180,-37.598,-44.434,-45.410,-392.578
1688258044.788,-37.109,-37.109,-36.133,4.395,-107.422
1688258044.792,-15.137,-31.250,-27.344,17.090,104.980
1688258044.796,-5.371,-37.598,-37.598,-43.945,-133.301
1688258044.798,-2.930,-30.762,-33.203,-61.523,-359.863
1688258044.802,3.418,0.488,-11.719,-12.207,-232.422
1688258044.806,-8.301,0.000,-17.090,26.367,61.035
1688258044.810,-19.043,-35.156,-43.945,13.184,78.125
1688258044.814,-14.648,-45.410,-42.969,-36.133,-118.652
1688258044.818,-20.996,-41.016,-26.855,-64.453,-212.891
1688258044.822,-20.508,-28.320,-10.254,-16.602,-121.094
1688258044.825,-26.855,-21.484,-11.719,40.527,64.453
1688258044.829,-38.086,-39.551,-39.062,17.578,133.301
1688258044.833,-20.020,-42.969,-39.551,-47.852,6.348
1688258044.837,-9.277,-29.785,-21.484,-74.707,108.398
1688258044.841,-3.906,-11.230,-15.137,-31.250,-71.777
1688258044.857,8.789,8.301,-1.465,45.410,-120.117
1688258044.861,-6.836,-18.555,-14.648,39.551,149.414
1688258044.865,-20.508,-38.086,-43.945,-31.250,12.207
1688258044.869,-21.973,-37.598,-49.805,-70.312,-281.738
1688258044.873,-22.461,-35.645,-32.715,-52.246,-210.938
1688258044.877,-29.297,-28.809,-16.602,-11.719,171.875
1688258044.881,-9.766,-13.672,-8.789,28.809,322.266
1688258044.884,5.371,-3.418,-11.719,1.465,14.648
1688258044.888,-25.391,-29.297,-29.785,-69.824,-298.340
1688258044.892,-52.246,-41.016,-40.527,-83.496,-45.898
1688258044.896,-66.895,-43.945,-47.852,-36.621,212.891
1688258044.900,-60.547,-41.504,-42.480,9.277,73.242
1688258044.888,-2.930,-12.207,-4.395,26.367,-15.137
1688258044.892,21.484,-8.301,10.254,-1.465,-140.137
1688258044.896,-12.695,-30.762,-21.973,-29.297,-313.477
1688258044.900,-24.414,-25.879,-25.391,12.207,-244.141
1688258044.904,-22.949,-21.484,-8.789,37.109,41.992
1688258044.908,-17.090,-37.109,-18.555,-1.465,174.316
1688258044.912,-9.277,-39.551,-31.250,-60.547,-87.402
1688258044.915,-26.367,-27.832,-36.621,-89.844,-297.363
1688258044.919,-37.598,-9.277,-36.621,-45.898,-101.074
1688258044.923,-28.320,0.488,-28.809,12.695,156.738
1688258044.927,-7.812,0.000,-20.508,18.555,58.105
1688258044.931,-14.648,-14.160,-29.297,-31.738,-225.586
1688258044.933,-35.645,-35.156,-37.598,-75.195,-163.086
1688258044.937,-41.504,-30.762,-26.855,-44.922,282.227
1688258044.941,-43.945,-23.926,-21.484,9.766,167.480
1688258044.945,-28.809,-26.367,-21.484,18.555,-10.742
1688258044.949,-8.301,-23.438,-17.578,-22.949,-20.508
1688258044.953,-11.719,-21.973,-19.043,-52.246,-167.969
1688258044.957,-19.531,-25.391,-20.508,-17.578,-183.105
1688258044.960,-23.438,-13.672,-21.484,38.574,-61.523
1688258044.964,-22.949,-12.207,-34.668,27.344,328.613
1688258044.968,-20.996,-28.809,-52.246,-43.457,175.781
1688258044.972,-32.715,-39.062,-51.270,-95.215,-327.148
1688258044.976,-50.293,-41.992,-50.781,-96.680,-291.016
1688258044.977,-47.363,-30.762,-38.086,-36.133,43.945
1688258044.981,-20.996,-20.508,-12.207,17.090,54.688
1688258044.985,-5.859,-31.250,-9.766,-17.090,-159.180
1688258044.989,-15.625,-31.738,-22.461,-61.035,-278.809
1688258044.993,-41.016,-33.691,-46.875,-63.477,-263.672
1688258044.997,-56.152,-38.574,-49.805,-16.113,-22.461
1688258045.001,-24.414,-17.578,-17.090,32.715,160.156
1688258045.004,-3.906,-16.602,-17.090,-10.254,141.602
1688258045.008,-27.344,-34.180,-33.691,-70.801,226.562
1688258045.012,-46.875,-41.504,-37.598,-82.031,-34.180
1688258045.016,-45.410,-37.109,-26.367,-28.809,-217.285
1688258045.020,-34.180,-27.832,-15.137,13.184,98.633
1688258045.023,-32.715,-24.414,-29.785,-30.762,43.457
1688258045.027,-29.785,-28.320,-31.738,-72.754,-293.945
1688258045.031,-8.789,-7.812,-7.812,-40.039,-346.191
1688258045.035,-30.273,-4.883,-13.184,-0.488,-75.684
1688258045.039,-69.336,-34.668,-43.457,-3.418,139.648
1688258045.043,-62.988,-53.711,-55.176,-34.180,130.371
1688258045.047,-46.875,-53.711,-38.574,-63.477,-61.035
1688258045.050,-36.621,-46.875,-21.973,-48.828,-15.137
1688258045.054,-16.113,-21.973,-7.324,-3.418,57.129
1688258045.058,-15.137,-8.301,0.488,30.762,-2.441
1688258045.062,-36.621,-33.691,-28.320,-5.371,26.855
1688258045.066,-30.273,-30.273,-27.344,-55.664,-123.047
1688258045.068,-7.324,-1.465,-0.488,-54.688,-322.266
1688258045.072,-31.738,-18.555,-28.809,-41.992,-235.352
1688258045.076,-64.453,-50.293,-64.453,-30.273,111.328
1688258045.080,-41.016,-37.598,-53.223,-25.879,239.258
1688258045.084,-12.695,-17.090,-32.715,-72.754,-77.637
1688258045.088,-6.836,-14.160,-23.438,-105.957,-319.824
1688258045.092,3.906,-6.836,-12.207,-53.223,-125.000
1688258045.095,16.113,2.930,-0.977,15.625,474.121
1688258045.099,19.043,-12.695,-8.301,4.883,402.344
1688258045.103,5.371,-32.227,-23.438,-56.152,-135.254
1688258045.107,-19.531,-32.715,-34.180,-68.848,-276.367
1688258045.111,-44.434,-35.645,-39.062,-39.062,-227.051
1688258045.112,-62.988,-37.598,-39.062,11.719,-77.637
1688258045.116,-53.223,-21.973,-30.762,22.949,44.434
1688258045.120,-32.227,-18.555,-27.832,-26.367,-36.621
1688258045.124,-31.738,-25.879,-36.621,-54.199,-269.531
1688258045.128,-39.551,-23.438,-42.969,-45.410,-255.371
1688258045.132,-53.711,-21.484,-39.551,-10.254,-29.785
1688258045.136,-41.992,-20.508,-23.926,21.484,498.047
1688258045.139,-19.531,-24.414,-15.625,-5.859,514.160
1688258045.143,-18.555,-28.809,-14.648,-42.480,-202.148
1688258045.147,-31.738,-22.461,-18.066,-31.250,-343.750
1688258045.151,-53.223,-21.484,-30.273,-4.395,-104.004
1688258045.155,-52.246,-40.039,-41.016,17.578,13.672
1688258045.172,-16.113,-44.922,-32.227,-2.441,-78.613
1688258045.176,-26.855,-27.832,-30.273,-63.477,-267.090
1688258045.180,-68.848,-24.902,-42.480,-83.984,-295.410
1688258045.184,-68.359,-26.855,-36.133,-29.297,-165.527
1688258045.188,-49.316,-26.367,-26.855,1.465,59.082
1688258045.192,-28.809,-20.996,-24.902,-48.340,193.359
1688258045.196,-19.531,-18.066,-22.461,-80.566,107.910
1688258045.199,-39.551,-27.832,-39.062,-80.078,-181.152
1688258045.203,-66.406,-31.250,-55.664,-51.758,-191.895
1688258045.207,-67.871,-29.297,-52.246,-11.230,170.410
1688258045.211,-52.734,-34.668,-46.875,-22.461,428.711
1688258045.215,-37.109,-34.668,-35.156,-62.500,-118.164
1688258045.218,-32.715,-34.180,-21.973,-77.148,-429.688
1688258045.222,-51.270,-37.109,-22.949,-40.039,-164.551
1688258045.226,-49.805,-22.461,-18.555,12.207,57.129
1688258045.230,-22.461,-8.301,-19.531,8.789,56.152
1688258045.234,-24.414,-20.996,-43.457,-61.035,-146.973
1688258045.238,-41.992,-35.156,-50.293,-99.121,-94.238
1688258045.242,-44.922,-37.109,-39.551,-58.105,-5.859
1688258045.245,-41.992,-29.297,-29.297,-1.953,33.203
1688258045.249,-16.113,-19.043,-20.508,8.789,35.645
1688258045.253,-7.812,-30.273,-26.367,-36.621,256.348
1688258045.257,-21.973,-28.809,-28.320,-62.988,156.738
1688258045.261,-27.832,-12.695,-33.691,-27.344,-226.562
1688258045.262,-46.387,-16.113,-45.410,17.578,-35.156
1688258045.266,-46.387,-23.926,-54.688,6.348,102.539
1688258045.270,-32.227,-25.391,-52.246,-65.430,-116.211
1688258045.274,-29.297,-27.344,-36.133,-101.562,-311.035
1688258045.278,-30.762,-24.414,-25.879,-70.801,-180.176
1688258045.282,-36.133,-28.320,-28.809,-14.160,184.082
1688258045.286,-15.137,-24.414,-16.113,5.859,271.973
1688258045.289,-2.441,-23.926,-13.184,-38.086,15.137
1688258045.293,-30.273,-46.387,-38.574,-92.773,-195.801
1688258045.297,-43.945,-39.062,-43.457,-71.777,170.410
1688258045.301,-50.781,-21.484,-41.504,-3.906,131.348
1688258045.305,-35.156,-29.297,-36.133,8.789,-50.781
1688258045.308,-7.812,-26.367,-22.949,-25.391,92.285
1688258045.312,-15.137,-22.949,-23.926,-54.688,-108.887
1688258045.316,-26.367,-22.949,-23.438,-50.781,-292.969
1688258045.320,-30.762,-27.344,-14.648,-1.953,-83.496
1688258045.324,-17.578,-30.273,-11.230,34.180,115.723
1688258045.328,-9.766,-29.785,-30.762,-26.855,-23.926
1688258045.332,-31.738,-37.598,-49.316,-98.633,-272.949
1688258045.335,-33.203,-35.156,-32.715,-75.195,-323.730
1688258045.339,-11.719,-12.207,-1.953,7.324,125.000
1688258045.343,-10.254,-16.113,-14.160,42.969,349.121
1688258045.347,-20.020,-41.504,-43.945,-11.719,-21.973
1688258045.351,-29.297,-40.527,-51.758,-68.848,-252.930
1688258045.353,-41.016,-35.156,-47.363,-61.035,-265.625
1688258045.357,-46.387,-41.992,-36.621,-21.973,-135.254
1688258045.361,-42.480,-35.156,-24.414,19.043,144.531
1688258045.365,-26.855,-20.020,-29.297,-1.465,153.809
1688258045.369,-8.789,-11.719,-24.902,-44.922,-45.410
1688258045.373,-7.324,-24.414,-9.277,-40.527,-225.098
1688258045.377,-34.668,-32.715,-12.207,-21.973,-180.664
1688258045.380,-49.316,-24.414,-26.367,4.395,159.668
1688258045.384,-32.715,-30.273,-40.527,5.371,567.871
1688258045.388,-26.855,-42.480,-47.852,-45.898,106.934
1688258045.392,-48.340,-38.574,-43.457,-76.172,-400.391
1688258045.396,-60.059,-30.762,-25.879,-41.504,-186.523
1688258045.398,-60.547,-24.902,-24.902,4.883,24.902
1688258045.402,-43.945,-22.949,-35.156,-14.160,-13.672
1688258045.406,-21.973,-9.766,-20.996,-63.477,-221.680
1688258045.410,-12.207,-5.859,-1.953,-72.754,-340.332
1688258045.414,-33.691,-16.113,-18.066,-49.805,-234.863
1688258045.418,-74.219,-30.762,-51.758,-17.090,112.793
1688258045.422,-69.336,-37.109,-60.547,-12.207,253.418
1688258045.425,-48.340,-37.598,-44.434,-49.805,211.914
1688258045.429,-45.410,-36.621,-26.367,-82.031,-83.008
1688258045.433,-35.156,-34.668,-20.020,-67.383,-343.750
1688258045.437,-35.156,-38.086,-25.879,-16.602,-68.848
1688258045.441,-37.598,-32.227,-33.203,-4.883,342.773
1688258045.442,-19.043,-8.301,-35.156,-53.223,31.738
1688258045.446,-19.043,-9.766,-38.574,-90.332,-381.348
1688258045.450,-44.434,-37.109,-45.898,-79.102,-264.160
1688258045.454,-49.805,-43.945,-42.480,-22.461,17.578
1688258045.458,-30.273,-37.598,-20.996,23.438,125.000
1688258045.462,-27.344,-40.527,-17.090,-17.090,-13.184
1688258045.466,-49.316,-47.852,-45.410,-92.285,-109.375
1688258045.469,-54.199,-43.945,-49.805,-85.938,198.730
1688258045.473,-31.738,-27.344,-24.902,-9.766,201.660
1688258045.477,-22.949,-30.273,-26.855,6.348,22.461
1688258045.481,-18.066,-37.598,-30.762,-38.086,-9.766
1688258045.485,-35.156,-40.039,-38.574,-87.891,-150.879
1688258045.502,-63.965,-38.574,-50.293,-99.609,-336.426
1688258045.506,-64.941,-36.621,-33.203,-38.574,-213.867
1688258045.510,-39.062,-32.715,-14.648,11.230,71.777
1688258045.514,-15.137,-16.113,-20.996,-15.625,34.668
1688258045.518,-18.066,-11.719,-26.855,-51.270,-242.676
1688258045.522,-48.340,-30.762,-39.551,-58.105,-277.832
1688258045.526,-62.500,-29.785,-40.527,-31.738,201.172
1688258045.529,-57.129,-26.855,-36.621,-6.836,408.691
1688258045.533,-33.203,-31.250,-28.320,-26.855,22.461
1688258045.537,-21.484,-28.320,-18.066,-63.965,-108.398
1688258045.541,-28.320,-19.043,-15.625,-53.711,-31.738
1688258045.545,-21.484,2.441,2.930,1.953,-116.699
1688258045.532,-27.344,-15.137,-12.207,5.371,-33.691
1688258045.536,-34.180,-47.852,-44.922,-46.875,52.734
1688258045.540,-30.762,-56.152,-38.574,-87.402,-24.414
1688258045.544,-41.992,-54.199,-37.109,-91.797,-249.023
1688258045.548,-53.223,-31.738,-35.645,-43.945,-248.047
1688258045.552,-46.875,-13.672,-25.391,12.695,172.363
1688258045.556,-23.438,-18.555,-14.160,14.160,406.250
1688258045.559,-30.273,-34.668,-22.949,-52.734,32.227
1688258045.563,-44.922,-34.668,-36.133,-88.867,-303.711
1688258045.567,-42.480,-29.785,-28.320,-42.480,-161.621
1688258045.571,-46.387,-30.762,-32.715,9.766,302.246
1688258045.575,-43.457,-28.320,-45.898,-3.906,118.164
1688258045.592,-20.020,-15.137,-38.574,-34.180,-190.430
1688258045.596,13.672,-5.371,-16.113,-23.926,-170.898
1688258045.600,-1.953,-19.043,-7.812,-9.766,-189.941
1688258045.604,-37.598,-26.367,-13.672,1.953,-111.816
1688258045.608,-49.805,-38.574,-25.391,-13.672,73.242
1688258045.612,-39.062,-37.598,-23.926,-62.988,49.316
1688258045.616,-23.926,-32.227,-22.949,-81.543,-189.453
1688258045.619,-30.273,-36.133,-21.484,-45.898,-332.520
1688258045.623,-36.133,-32.715,-7.812,17.090,-123.047
1688258045.627,-17.090,-26.855,3.906,47.363,315.918
1688258045.631,0.977,-28.809,1.953,-10.254,165.039
1688258045.635,-12.207,-40.039,-9.766,-71.289,-267.090
1688258045.637,-34.668,-46.875,-15.625,-62.012,-276.367
1688258045.641,-56.641,-44.922,-17.578,-7.324,-54.199
1688258045.645,-63.477,-45.898,-16.602,19.043,123.047
1688258045.649,-47.852,-45.410,-20.508,-26.367,63.965
1688258045.653,-28.809,-40.527,-22.461,-56.152,-94.727
1688258045.657,-27.832,-29.785,-10.742,-26.855,111.816
1688258045.661,-28.809,-17.578,0.977,33.203,107.910
1688258045.664,-28.320,-26.855,-14.160,40.039,102.051
1688258045.668,-27.344,-43.945,-41.016,-32.715,96.191
1688258045.672,-23.438,-27.832,-42.480,-81.055,124.512
1688258045.676,-26.855,-12.695,-28.809,-71.289,-161.621
1688258045.680,-44.434,-39.062,-23.926,-29.297,-246.094
1688258045.683,-41.992,-46.387,-16.113,15.625,116.211
1688258045.687,-14.160,-25.879,-3.906,12.695,94.727
1688258045.691,-3.418,-0.488,1.953,-22.461,-273.438
1688258045.695,-29.785,-8.301,-23.438,-42.480,-408.691
1688258045.699,-60.547,-24.414,-55.176,-25.391,-197.266
1688258045.703,-66.406,-28.809,-57.129,2.930,154.297
1688258045.707,-40.039,-33.691,-39.062,-8.789,176.758
1688258045.710,-29.785,-47.852,-34.668,-74.219,-190.430
1688258045.714,-39.551,-58.594,-43.457,-104.492,-58.594
1688258045.718,-25.391,-29.785,-15.137,-31.250,216.309
1688258045.722,1.953,17.090,17.578,55.176,81.055
1688258045.726,-23.438,-17.090,-23.926,10.254,12.207
1688258045.742,-54.688,-55.176,-55.176,-68.848,-144.531
1688258045.746,-49.316,-35.645,-37.598,-68.848,-338.379
1688258045.750,-49.316,-32.715,-26.855,-21.484,-262.695
1688258045.754,-42.969,-34.180,-27.832,34.668,5.371
1688258045.758,-11.230,-16.602,-9.277,42.969,55.176
1688258045.762,5.371,-24.414,1.953,-7.812,-114.746
1688258045.766,-25.391,-41.992,-26.855,-62.988,-274.902
1688258045.769,-51.758,-32.227,-40.039,-56.152,-161.133
1688258045.773,-49.805,-24.414,-25.391,4.883,470.703
1688258045.777,-19.043,-18.066,-7.324,31.250,503.418
1688258045.781,-6.836,-12.695,-10.742,-18.066,-112.793
1688258045.785,-26.855,-20.996,-22.949,-64.453,-334.961
1688258045.773,-38.574,-21.973,-18.066,-45.898,-349.609
1688258045.777,-38.574,-16.602,-7.324,7.324,-198.242
1688258045.781,-31.738,-31.250,-19.043,-3.418,13.672
1688258045.785,-34.668,-45.410,-45.410,-65.430,-32.227
1688258045.789,-61.035,-49.805,-57.617,-110.840,-285.645
1688258045.793,-76.172,-46.875,-54.199,-111.816,-305.176
1688258045.797,-58.594,-41.992,-44.922,-56.641,22.949
1688258045.800,-10.254,-27.344,-13.672,2.930,244.629
1688258045.804,16.113,-9.766,4.883,-29.297,25.879
1688258045.808,-3.906,-12.207,-17.578,-95.703,-310.059
1688258045.812,-41.016,-30.273,-53.223,-111.816,-281.738
1688258045.816,-63.477,-39.551,-62.988,-59.082,297.363
1688258045.817,-50.293,-30.762,-35.156,3.906,460.449
1688258045.821,-26.367,-28.809,-15.625,-4.883,20.508
1688258045.825,-37.598,-34.180,-26.855,-62.988,-259.277
1688258045.829,-34.180,-14.648,-12.207,-68.359,-314.453
1688258045.833,-33.691,-24.902,-5.371,-18.555,-139.160
1688258045.837,-62.012,-59.082,-38.574,0.488,129.883
1688258045.841,-62.988,-61.523,-57.617,-45.410,187.988
1688258045.844,-49.805,-39.551,-47.852,-91.309,287.598
1688258045.848,-39.062,-20.996,-30.273,-77.637,-79.590
1688258045.852,-25.391,-13.184,-8.789,-9.277,-322.266
1688258045.856,-19.043,-12.695,-2.930,43.457,45.898
1688258045.860,-35.645,-40.039,-36.621,-7.812,152.344
1688258045.865,-46.875,-52.734,-47.852,-79.590,-215.820
1688258045.869,-34.180,-44.434,-28.320,-83.496,-364.746
1688258045.873,-40.039,-38.574,-29.297,-46.387,-111.328
1688258045.877,-50.293,-28.809,-42.480,-1.953,109.375
1688258045.881,-29.785,-24.902,-35.156,0.488,64.453
1688258045.885,-24.902,-38.086,-28.809,-61.523,-103.027
1688258045.889,-34.668,-48.340,-32.715,-85.449,36.621
1688258045.892,-20.996,-22.461,-10.742,-22.949,89.355
1688258045.896,-31.738,-18.066,-4.883,34.668,-29.785
1688258045.900,-25.391,-32.227,-22.461,33.203,29.297
1688258045.904,-22.949,-30.762,-39.551,-41.016,-80.078
1688258045.908,-55.176,-29.785,-55.664,-117.676,-307.129
1688258045.907,-53.223,-20.020,-49.316,-84.961,-280.762
1688258045.911,-31.250,-4.395,-25.391,4.395,1.953
1688258045.915,-16.602,-10.742,-27.344,3.418,154.785
1688258045.919,6.348,-11.230,-29.297,-25.391,-12.695
1688258045.923,5.859,0.488,-27.344,-31.250,-290.527
1688258045.927,-11.719,-2.441,-32.715,-20.996,-190.430
1688258045.931,-23.438,-6.836,-35.156,27.832,538.574
1688258045.934,-3.906,-0.488,-25.879,38.086,632.324
1688258045.938,21.484,-8.301,-23.438,-41.016,-41.992
1688258045.942,-9.766,-35.156,-40.039,-99.609,-270.020
1688258045.946,-32.715,-31.738,-39.551,-72.754,-216.797
1688258045.950,-27.344,-12.207,-23.438,2.441,-183.594
1688258045.969,-29.297,-18.555,-25.879,10.254,-27.344
1688258045.973,-20.996,-21.484,-36.621,-40.039,-53.223
1688258045.977,-10.254,-7.324,-30.762,-47.363,-265.137
1688258045.981,-18.066,-11.719,-23.926,-46.387,-380.859
1688258045.985,-23.438,-21.484,-17.090,-7.812,-168.457
1688258045.989,-23.926,-29.297,-28.320,17.578,177.734
1688258045.993,-34.180,-41.992,-54.688,-47.852,102.051
1688258045.996,-48.340,-45.898,-57.129,-104.980,-174.805
1688258046.000,-44.434,-35.645,-39.551,-82.031,-278.809
1688258046.004,-42.969,-26.367,-33.691,-25.391,102.539
1688258046.008,-50.781,-29.785,-40.527,9.766,349.609
1688258046.012,-30.273,-23.438,-28.320,-7.812,19.043
1688258046.012,-18.066,-12.695,-16.113,-50.781,-280.762
1688258046.016,-31.250,-25.391,-26.855,-76.172,-329.102
1688258046.020,-35.156,-30.762,-29.785,-25.879,-198.730
1688258046.024,-15.137,-21.484,-11.230,40.527,-26.367
1688258046.028,-9.766,-38.574,-23.926,14.160,106.445
1688258046.032,-20.996,-40.527,-40.527,-44.922,66.406
1688258046.036,-13.672,-16.113,-22.461,-50.293,-220.215
1688258046.039,-30.273,-20.020,-17.090,-28.320,-209.473
1688258046.043,-46.875,-31.250,-26.367,1.953,193.848
1688258046.047,-38.086,-36.133,-34.668,-18.066,548.828
1688258046.051,-39.062,-34.180,-36.621,-79.590,256.348
1688258046.055,-50.781,-31.250,-41.992,-97.656,-318.359
1688258046.058,-32.227,-15.137,-27.832,-37.109,-269.043
1688258046.062,-33.203,-24.902,-19.043,23.438,-17.090
1688258046.066,-40.039,-46.387,-32.715,-12.207,29.785
1688258046.070,-15.625,-35.156,-38.574,-71.777,-71.289
1688258046.074,-33.203,-42.480,-42.969,-89.355,-141.602
1688258046.078,-63.965,-44.922,-43.457,-54.688,-69.824
1688258046.082,-66.895,-41.992,-39.062,-5.371,108.398
1688258046.085,-20.996,-25.391,-19.043,21.973,164.551
1688258046.089,11.719,-2.441,-3.418,-11.230,225.098
1688258046.093,0.977,-13.672,-20.996,-53.223,30.762
1688258046.097,-36.133,-44.434,-49.316,-55.176,-247.070
1688258046.101,-95.703,-62.012,-55.176,-49.316,39.551
1688258046.102,-94.727,-50.293,-57.129,-45.898,327.637
1688258046.106,-52.734,-29.785,-48.340,-69.824,51.758
1688258046.110,-36.621,-21.484,-20.508,-83.984,-275.391
1688258046.114,-28.320,-13.184,3.906,-49.316,-264.160
1688258046.118,-29.297,-2.441,-7.812,0.977,41.016
1688258046.122,-26.855,0.000,-13.672,32.227,293.457
1688258046.126,-40.039,-39.062,-30.762,-39.062,98.633
1688258046.129,-49.316,-58.594,-44.434,-92.773,-55.664
1688258046.133,-58.105,-67.383,-47.852,-62.500,184.082
1688258046.137,-64.453,-58.105,-37.598,-21.484,113.770
1688258046.141,-50.781,-37.598,-23.926,-4.395,-34.180
1688258046.145,-7.812,-20.020,-3.906,-27.832,-40.527
1688258046.150,17.578,-3.906,1.953,-44.434,-265.137
1688258046.154,-20.020,-27.344,-28.320,-59.082,-344.238
1688258046.158,-60.059,-38.574,-52.246,-41.992,-121.582
1688258046.162,-54.199,-21.484,-46.875,12.207,199.219
1688258046.166,-38.574,-19.531,-33.203,-34.180,114.258
1688258046.170,-29.297,-25.391,-30.273,-82.031,-197.266
1688258046.174,-24.902,-31.738,-18.555,-49.805,-227.051
1688258046.177,-43.945,-34.668,-8.301,-20.020,140.625
1688258046.181,-61.035,-34.180,-7.324,0.000,281.738
1688258046.185,-42.480,-31.738,-36.133,-30.762,-21.973
1688258046.189,-3.906,-18.066,-41.016,-62.012,-207.031
1688258046.193,-7.324,-10.254,5.371,-41.016,-245.605
1688258046.192,-48.340,-27.344,-15.137,-23.926,-204.102
1688258046.196,-63.965,-37.109,-34.668,-12.207,-32.227
1688258046.200,-35.645,-46.875,-31.250,3.418,30.273
1688258046.204,-1.953,-39.062,-25.391,-41.016,-114.258
1688258046.208,-6.836,-19.043,-18.066,-68.359,-194.336
1688258046.212,-29.785,-28.809,-38.574,-40.039,-130.371
1688258046.216,-26.855,-20.508,-26.367,15.625,146.973
1688258046.219,-18.066,-5.859,1.953,-8.301,708.008
1688258046.223,-31.738,-17.090,-10.742,-73.242,415.527
1688258046.227,-32.715,-25.391,-5.371,-65.918,-309.570
1688258046.231,-38.086,-32.715,-14.160,-47.363,-290.039
1688258046.235,-34.180,-34.668,-15.625,35.645,0.977
1688258046.239,-8.301,-25.391,-6.348,46.387,26.855
1688258046.243,-5.859,-22.949,-20.996,-53.711,-146.973
1688258046.247,-22.461,-30.273,-24.902,-104.004,-261.719
1688258046.251,-44.434,-35.156,-25.391,-90.820,-252.441
1688258046.255,-52.246,-31.738,-39.062,-25.879,-53.711
1688258046.259,-40.039,-18.066,-1.465,-14.160,145.508
1688258046.263,-13.672,-14.160,-13.672,-47.852,255.371
1688258046.266,-4.395,-38.574,45.898,-66.406,83.496
1688258046.270,-8.301,-35.645,25.391,-36.621,-260.742
1688258046.274,-41.504,-27.344,-37.109,0.000,-110.352
1688258046.278,-31.738,-19.043,-63.965,39.062,307.617
1688258046.282,-20.996,-21.973,-53.711,-5.371,74.219
1688258046.282,-37.598,-36.133,-27.832,-100.098,-316.895
1688258046.286,-52.246,-44.434,-36.621,-81.543,-275.391
1688258046.290,-86.914,-60.059,60.547,-21.973,-64.453
1688258046.294,-52.734,-42.480,-8.789,15.625,85.449
1688258046.298,-24.902,-30.762,-52.246,-24.902,-4.883
1688258046.302,-12.207,-26.855,-5.371,-41.992,-71.777
1688258046.306,-8.301,-25.391,-33.691,-14.160,152.832
1688258046.309,-41.992,-55.664,-30.273,-28.809,133.301
1688258046.313,-36.133,-59.082,-11.230,39.551,43.945
1688258046.317,-13.672,-32.715,-33.691,28.320,68.359
1688258046.321,-21.484,-28.320,-69.824,-36.133,183.594
1688258046.325,-60.059,-39.062,-27.344,-77.637,-99.609
1688258046.343,-92.285,-43.457,18.555,-92.285,-235.352
1688258046.347,-63.477,-24.414,-22.949,-16.113,59.570
1688258046.351,-15.625,-6.836,-17.578,18.066,75.684
1688258046.355,0.977,-16.602,-47.852,-11.230,-192.383
1688258046.359,-17.090,-25.879,-85.938,-11.230,-312.500
1688258046.363,-54.199,-39.062,-49.805,-15.137,-36.133
1688258046.367,-53.711,-26.855,-19.043,-11.230,173.828
1688258046.370,-28.809,-12.695,15.137,-39.551,59.570
1688258046.374,-43.945,-36.133,13.184,-104.004,-164.062
1688258046.378,-46.875,-35.156,-31.738,-118.652,-40.527
1688258046.382,-62.988,-32.227,-23.926,-77.148,0.488
1688258046.386,-81.055,-46.875,-4.395,3.906,-5.859
1688258046.387,-25.879,-28.809,-59.570,48.340,125.000
1688258046.391,-4.883,-22.949,-88.867,4.883,71.289
1688258046.395,-38.086,-34.668,-58.594,-82.031,-233.398
1688258046.399,-35.645,-21.973,-26.367,-60.547,-327.637
1688258046.403,-22.949,-8.301,0.488,41.992,-17.090
1688258046.407,-29.785,-20.996,-53.711,35.645,150.879
1688258046.411,-57.129,-37.598,-63.965,-85.938,-22.461
1688258046.414,-53.711,-36.621,-14.648,-109.375,-266.113
1688258046.418,-33.691,-34.668,-27.344,-47.363,-172.852
1688258046.422,-36.133,-15.137,-21.484,33.203,394.531
1688258046.426,0.000,13.672,-40.527,105.957,290.527
1688258046.430,0.000,-7.324,-48.340,31.250,-89.844
1688258046.462,-58.594,-49.316,-32.715,-140.625,-166.992
1688258046.466,-34.668,-33.203,-24.414,-77.148,-214.355
1688258046.470,-25.879,-12.695,-69.824,-4.395,-99.121
1688258046.474,-70.312,-47.852,-42.969,-7.812,29.785
1688258046.478,-56.641,-50.781,-24.414,-16.602,92.773
1688258046.482,-4.395,-14.160,-47.363,-73.242,-76.172
1688258046.486,-33.691,-22.461,8.789,-107.910,-208.496
1688258046.489,-23.926,-18.555,-36.621,-28.320,-114.746
1688258046.493,1.465,-5.859,-55.664,66.406,293.457
1688258046.497,-17.578,-16.113,-23.926,3.418,280.762
1688258046.501,-29.297,-17.578,-14.648,-91.309,-219.238
1688258046.505,-20.020,-20.020,-64.453,-49.805,-297.852
1688258046.477,-43.457,-41.504,-47.363,-4.395,-70.801
1688258046.481,-44.434,-22.461,-16.113,-14.160,85.449
1688258046.485,-6.348,-9.766,-18.066,-15.137,-48.828
1688258046.489,-12.207,-18.555,-26.367,-51.270,-218.262
1688258046.493,-45.410,-25.879,-56.641,-92.773,-215.332
1688258046.497,-46.387,-35.645,-21.973,-32.715,-38.574
1688258046.501,-24.902,-25.391,-16.602,22.949,116.211
1688258046.504,-5.371,-17.578,-35.156,2.930,244.141
1688258046.508,-6.348,-22.461,-12.207,-0.488,105.957
1688258046.512,-6.836,-16.602,-25.879,-2.441,-332.031
1688258046.516,-62.012,-45.410,6.348,-62.500,-297.363
1688258046.520,-67.871,-38.574,-52.246,-14.160,64.941
1688258046.523,-24.902,-17.578,-102.539,44.434,120.117
1688258046.527,-17.578,-15.137,-86.426,-22.461,-183.105
1688258046.531,-26.367,-13.184,-56.152,-69.824,-376.953
1688258046.535,-28.809,-38.086,-15.137,-46.387,4.395
1688258046.539,-38.574,-44.922,-7.324,-16.602,437.988
1688258046.543,-36.133,-17.090,-4.395,-21.973,263.672
1688258046.547,-6.836,-14.160,4.395,-29.297,-30.762
1688258046.550,-44.434,-48.340,-4.395,-63.965,62.500
1688258046.554,-67.383,-51.270,-71.777,-17.090,205.078
1688258046.558,-41.016,-14.160,-80.566,53.711,-19.043
1688258046.562,-9.277,1.953,-97.168,52.734,-32.715
1688258046.566,-12.695,-15.625,-51.758,-33.203,-123.535
1688258046.567,4.395,-9.277,-24.902,-49.805,-353.516
1688258046.571,16.602,-4.395,-15.137,0.488,-295.898
1688258046.575,-16.113,-22.949,14.648,-13.672,-59.082
1688258046.579,25.879,-10.254,-57.129,55.176,115.723
1688258046.583,22.461,-11.230,-24.414,-37.598,-68.359
1688258046.587,-15.137,-20.508,-61.523,-124.512,-205.566
1688258046.591,-50.781,-35.645,-75.195,-139.648,-87.402
1688258046.594,-69.336,-43.945,-37.598,-104.004,470.703
1688258046.598,-29.297,-24.902,-30.762,32.715,472.656
1688258046.602,9.277,-13.184,-1.465,60.547,-83.984
1688258046.606,-1.953,-18.555,-39.551,-3.906,-279.297
1688258046.610,-16.113,-24.902,-40.039,-14.160,-269.043
1688258046.627,-44.922,-41.504,-60.547,22.949,-159.180
1688258046.631,-43.945,-39.551,-112.305,60.059,19.531
1688258046.635,-45.410,-36.133,-36.621,-26.367,67.871
1688258046.639,-31.738,-16.602,-8.789,-77.637,-194.336
1688258046.643,-12.695,5.859,0.000,-26.855,-377.441
1688258046.647,-33.203,-21.484,7.324,-1.953,-71.777
1688258046.651,-47.363,-48.340,-28.320,5.859,474.609
1688258046.654,-23.926,-33.203,-62.500,3.418,338.379
1688258046.658,-28.809,-35.645,-19.043,-34.668,-289.062
1688258046.662,-33.203,-35.645,-28.320,-43.945,-372.070
1688258046.666,-33.203,-41.016,-52.246,-12.207,-103.516
1688258046.670,-47.852,-33.203,-8.301,20.508,102.051
1688258046.658,0.977,4.883,17.090,49.805,49.805
1688258046.662,7.812,-5.859,-20.996,5.859,-203.613
1688258046.666,-33.203,-34.180,-57.129,-34.668,-205.078
1688258046.670,-54.199,-29.297,-46.387,-49.316,-154.297
1688258046.674,-55.664,-30.762,-40.039,0.488,-1.953
1688258046.678,-38.574,-37.109,-56.641,10.254,234.863
1688258046.682,-10.742,-20.508,-55.176,-19.043,243.652
1688258046.685,-7.812,-4.395,-44.434,-26.367,-103.516
1688258046.689,-33.203,-21.484,-36.133,-18.555,-248.047
1688258046.693,-41.016,-36.133,-12.207,26.367,56.152
1688258046.697,-7.812,-18.555,6.836,42.480,398.926
1688258046.701,-3.906,-23.926,-31.250,1.465,-77.637
1688258046.718,-47.363,-37.598,-61.523,-46.875,-395.996
1688258046.722,-81.055,-38.086,-76.172,-62.012,-179.199
1688258046.726,-91.797,-47.363,-75.684,-49.805,57.129
1688258046.730,-62.500,-43.457,-58.105,-29.785,104.492
1688258046.734,-23.926,-27.344,-48.340,-55.664,-109.375
1688258046.738,-9.766,-15.625,-32.227,-70.801,-22.461
1688258046.742,1.953,1.465,-6.836,-11.230,170.410
1688258046.745,4.883,12.207,2.930,55.176,12.207
1688258046.749,-20.996,-24.414,-47.852,22.461,-11.719
1688258046.753,-30.762,-56.641,-70.312,-59.082,-8.301
1688258046.757,-25.391,-44.922,-40.039,-82.031,-285.156
1688258046.761,-49.316,-46.875,-44.922,-70.801,-386.230
1688258046.763,-53.711,-35.645,-42.969,-18.066,-98.633
1688258046.767,-16.113,-12.207,-7.324,38.086,175.293
1688258046.771,-0.977,-21.973,-6.348,-0.977,-40.039
1688258046.775,-5.859,-37.109,-17.090,-52.734,-310.059
1688258046.779,-11.719,-35.645,-3.418,-20.020,-157.227
1688258046.783,-40.039,-49.316,-20.996,25.391,308.105
1688258046.787,-45.898,-54.688,-40.527,31.250,367.676
1688258046.790,-27.832,-34.668,-47.363,-42.480,56.152
1688258046.794,-5.859,-12.207,-22.949,-79.590,-103.027
1688258046.798,-9.277,1.953,10.254,-43.457,-40.527
1688258046.802,-61.523,-30.762,-24.414,-37.109,-125.488
1688258046.806,-66.895,-43.945,-31.250,-10.742,-99.121
1688258046.809,-30.273,-32.227,-10.742,-19.531,87.402
1688258046.813,-30.273,-41.992,-26.855,-91.797,10.742
1688258046.817,-56.152,-36.133,-40.527,-109.375,-307.129
1688258046.821,-37.598,-6.348,-9.766,-23.926,-198.242
1688258046.825,-25.391,-7.324,-4.395,25.879,133.789
1688258046.829,-55.176,-42.480,-44.922,-42.969,85.938
1688258046.833,-62.988,-44.922,-47.852,-108.887,-106.934
1688258046.836,-64.941,-40.527,-34.668,-105.957,-149.414
1688258046.840,-72.266,-30.762,-25.879,-49.805,164.551
1688258046.844,-61.523,-19.531,-12.695,3.906,466.797
1688258046.848,-23.438,-14.648,5.859,13.672,103.516
1688258046.852,3.906,-11.230,13.672,-16.602,-229.492
1688258046.852,-10.742,-14.160,8.301,-44.434,-278.320
1688258046.856,-42.480,-26.855,-5.859,-29.297,-245.117
1688258046.860,-78.613,-62.012,-42.969,-12.695,-4.883
1688258046.864,-64.941,-56.641,-49.316,-24.902,113.281
1688258046.868,-40.039,-25.391,-24.414,-53.223,-52.246
1688258046.872,-53.711,-30.762,-29.785,-93.750,-165.527
1688258046.876,-63.965,-30.273,-30.273,-86.426,-192.871
1688258046.879,-43.457,0.000,0.000,-8.301,55.664
1688258046.883,-8.789,15.137,18.555,19.043,485.352
1688258046.887,-12.207,-20.020,-4.883,-48.828,201.660
1688258046.891,-41.992,-58.594,-32.227,-94.238,-323.730
1688258046.895,-55.664,-46.387,-36.621,-77.637,-246.582
1688258046.898,-80.566,-34.180,-47.363,-49.805,0.488
1688258046.902,-68.359,-37.598,-49.316,-30.273,8.301
1688258046.906,-28.809,-36.133,-33.691,-57.617,-145.020
1688258046.910,-18.555,-29.785,-27.344,-86.426,-275.879
1688258046.914,-12.207,-18.066,-20.508,-44.434,-266.602
1688258046.918,-10.742,-20.508,-12.695,33.691,16.113
1688258046.922,-6.836,-24.414,-14.160,42.969,218.750
1688258046.925,17.090,-17.578,-11.230,4.395,242.676
1688258046.929,7.812,-15.625,-11.230,-30.273,0.977
1688258046.933,-17.090,-22.949,-12.695,-31.738,-343.750
1688258046.937,-32.227,-23.438,-15.137,4.395,-169.922
1688258046.941,-20.020,-17.578,-13.184,35.156,111.816
1688258046.942,19.531,-1.465,2.441,19.043,41.992
1688258046.946,15.625,-3.418,0.000,-29.297,-268.555
1688258046.950,-21.973,-27.344,-34.668,-53.223,-327.637
1688258046.954,-57.617,-40.527,-61.523,-34.180,-42.480
1688258046.958,-53.223,-48.340,-52.246,-3.906,129.395
1688258046.962,-9.277,-41.016,-28.320,-20.020,45.898
1688258046.966,11.230,-22.949,-16.602,-43.457,-18.555
1688258046.969,-15.137,-14.160,-24.902,-45.898,331.055
1688258046.973,-44.434,-14.160,-36.133,-31.250,254.395
1688258046.977,-33.203,-20.996,-20.508,4.395,10.254
1688258046.981,-14.648,-27.832,-13.184,-17.578,-6.348
1688258046.985,-27.344,-37.109,-35.645,-83.984,-199.707
1688258047.002,-35.645,-30.273,-36.133,-89.355,-398.926
1688258047.006,-41.504,-27.832,-22.949,-42.969,-268.555
1688258047.010,-34.668,-28.320,-14.648,10.742,170.898
1688258047.014,-4.883,-19.043,-11.230,8.789,147.461
1688258047.018,-23.926,-30.273,-37.598,-69.824,-212.402
1688258047.022,-51.270,-30.273,-49.316,-97.168,-273.926
1688258047.026,-58.105,-33.203,-41.992,-60.059,153.320
1688258047.029,-44.434,-23.926,-19.531,3.906,479.980
1688258047.033,-25.391,-16.602,-6.836,8.789,146.973
1688258047.037,-25.879,-29.297,-15.625,-36.621,-209.961
1688258047.041,-40.039,-43.457,-23.926,-59.570,-274.902
1688258047.045,-52.246,-27.832,-17.578,-27.832,-227.539
1688258047.047,-58.105,-27.832,-18.555,18.066,-38.574
1688258047.051,-64.941,-46.875,-36.133,-12.207,115.723
1688258047.055,-47.852,-41.016,-37.109,-63.965,-12.207
1688258047.059,-21.973,-11.719,-27.832,-64.941,-259.277
1688258047.063,-27.832,-1.465,-20.508,-32.715,-251.953
1688258047.067,-55.664,-29.785,-30.762,-17.578,180.664
1688258047.071,-69.336,-40.527,-51.758,-57.617,585.938
1688258047.074,-50.781,-33.691,-48.340,-115.234,223.633
1688258047.078,-42.480,-29.297,-29.785,-135.742,-271.484
1688258047.082,-53.711,-34.180,-36.133,-107.910,-183.594
1688258047.086,-63.477,-30.273,-39.062,-46.387,351.074
1688258047.090,-42.480,-18.555,-26.855,-6.836,223.145
1688258047.093,7.324,-14.160,-0.488,-7.324,-181.641
1688258047.097,16.113,-10.254,12.695,-35.156,-319.336
1688258047.101,-14.648,0.977,-11.719,-44.922,-319.336
1688258047.105,-43.457,-3.906,-24.902,-6.348,-152.832
1688258047.109,-63.965,-39.062,-46.875,6.836,34.180
1688258047.113,-61.035,-44.434,-55.176,-37.598,204.590
1688258047.117,-42.480,-24.902,-28.809,-52.246,-17.578
1688258047.120,-26.855,-20.020,-11.230,-14.160,-286.133
1688258047.124,-25.879,-18.066,-11.719,10.742,-178.223
1688258047.128,-28.320,-8.789,-14.160,12.207,313.965
1688258047.132,-17.090,-27.344,-27.832,-60.059,401.367
1688258047.136,-9.766,-46.875,-31.250,-105.957,-198.242
1688258047.137,-19.043,-28.320,-18.066,-81.543,-410.645
1688258047.141,-59.082,-26.367,-30.762,-60.059,-119.629
1688258047.145,-61.035,-25.391,-41.016,-17.090,79.102
1688258047.149,-30.762,-15.625,-21.973,-10.742,-14.648
1688258047.153,-35.156,-17.090,-13.184,-52.734,-182.617
1688258047.157,-32.715,-22.949,-16.113,-47.852,-200.195
1688258047.161,-31.738,-32.715,-13.672,-0.488,-62.012
1688258047.164,-42.480,-31.250,-15.625,14.160,62.988
1688258047.168,-31.250,-34.180,-26.855,-13.672,84.473
1688258047.172,-29.297,-34.668,-31.738,-67.383,264.160
1688258047.176,-52.246,-36.621,-37.598,-102.051,0.000
1688258047.180,-62.012,-31.738,-39.062,-56.641,-262.695
1688258047.184,-26.367,-15.625,-32.715,20.508,34.668
1688258047.188,-1.465,-17.090,-17.578,14.648,83.984
1688258047.192,-35.645,-27.344,-11.230,-71.777,-202.148
1688258047.196,-60.059,-33.203,-25.879,-110.352,-342.773
1688258047.200,-57.129,-34.668,-33.691,-65.430,-195.312
1688258047.204,-46.387,-17.090,-12.695,20.020,104.980
1688258047.208,-42.480,-17.090,-4.883,4.883,189.941
1688258047.211,-46.875,-43.945,-30.273,-91.797,-126.465
1688258047.215,-49.805,-46.875,-26.367,-101.074,-132.324
1688258047.219,-75.195,-40.527,-16.113,-63.477,-68.848
1688258047.223,-100.098,-52.734,-23.438,-22.949,-127.441
1688258047.227,-84.473,-60.547,-20.508,-12.695,16.113
1688258047.227,-61.035,-59.082,-22.461,-68.359,39.551
1688258047.231,-45.898,-30.762,-7.812,-98.145,-216.797
1688258047.235,-46.875,-13.672,3.418,-77.148,-349.609
1688258047.239,-72.266,-33.203,-18.066,-40.039,-68.359
1688258047.243,-74.707,-47.363,-30.273,-16.113,269.043
1688258047.247,-46.387,-33.203,-29.297,-43.457,122.070
1688258047.251,-30.762,-19.531,-17.578,-70.312,-188.477
1688258047.254,-41.992,-25.879,-12.207,-55.176,-79.590
1688258047.258,-76.660,-45.410,-40.527,-39.551,449.707
1688258047.262,-75.684,-47.852,-52.246,-36.621,394.531
1688258047.266,-38.086,-34.668,-39.551,-53.223,-55.176
1688258047.270,-4.395,-14.648,-3.906,-52.246,-255.371
1688258047.274,-1.953,-5.859,15.625,-28.809,-334.473
1688258047.278,-34.180,-27.344,-14.648,-9.766,-246.094
1688258047.282,-54.688,-44.922,-42.969,-1.953,21.973
1688258047.286,-41.992,-41.016,-37.598,-33.691,142.578
1688258047.290,-33.691,-34.668,-20.508,-77.148,-111.816
1688258047.294,-40.039,-43.457,-24.414,-79.590,-225.586
1688258047.298,-50.293,-40.039,-21.973,-31.738,8.789
1688258047.301,-48.828,-41.504,-12.207,0.488,360.840
1688258047.305,-46.875,-54.688,-29.297,-35.156,266.602
1688258047.309,-33.203,-35.645,-27.832,-62.012,-236.816
1688258047.313,-29.785,-24.902,-19.043,-60.547,-355.469
1688258047.317,-42.480,-29.785,-23.438,-25.879,-145.508
1688258047.317,-35.645,-25.879,-26.855,16.602,41.016
1688258047.321,4.395,0.000,-6.348,19.043,23.438
1688258047.325,-3.906,-10.742,-13.184,-38.086,-159.180
1688258047.329,-49.805,-49.805,-49.316,-90.332,-261.230
1688258047.333,-45.898,-50.781,-40.527,-47.852,-128.418
1688258047.337,-34.668,-31.250,-27.832,9.277,109.863
1688258047.341,-21.973,-16.113,-28.809,0.488,252.441
1688258047.344,-12.695,-11.230,-23.926,-42.969,457.520
1688258047.348,-27.832,-20.020,-27.832,-67.871,141.602
1688258047.352,-42.969,-31.738,-33.691,-43.457,-239.258
1688258047.356,-51.270,-21.973,-32.227,2.930,11.719
1688258047.360,-50.781,-23.438,-41.504,-8.301,138.184
1688258047.378,-22.949,-20.020,-33.691,-57.129,-192.383
1688258047.382,-21.973,-18.555,-20.020,-71.289,-414.062
1688258047.386,-53.223,-36.133,-33.691,-58.105,-273.438
1688258047.390,-62.012,-38.574,-38.574,-13.672,-41.992
1688258047.394,-33.691,-21.973,-27.832,20.020,94.727
1688258047.398,7.812,-4.395,-15.625,-13.184,42.480
1688258047.402,10.254,-5.371,-8.301,-39.062,45.410
1688258047.405,-18.555,-6.348,-3.906,-12.695,63.965
1688258047.409,-48.828,-23.926,-32.227,-3.906,-18.555
1688258047.413,-52.246,-44.922,-50.781,-33.203,65.430
1688258047.417,-28.320,-40.527,-39.551,-77.148,80.566
1688258047.421,-7.812,-28.809,-25.879,-103.516,-242.676
1688258047.407,-1.465,-20.996,-20.508,-76.660,-356.445
1688258047.411,-4.395,-11.230,-9.277,-2.441,-61.523
1688258047.415,-2.441,-10.254,-1.953,33.203,206.055
1688258047.419,-5.859,-20.996,-13.672,-10.254,41.504
1688258047.423,-39.062,-34.668,-32.227,-71.289,-245.605
1688258047.427,-58.594,-36.621,-33.203,-79.590,-116.211
1688258047.431,-49.316,-23.438,-20.996,-17.090,268.066
1688258047.434,-31.738,-16.602,-8.789,35.645,319.336
1688258047.438,-36.133,-30.762,-27.344,-6.836,47.363
1688258047.442,-33.691,-35.645,-30.273,-49.316,-173.828
1688258047.446,-42.480,-32.715,-24.414,-44.434,-5.371
1688258047.450,-81.055,-45.410,-42.480,-35.156,-75.195
1688258047.468,-82.520,-45.898,-41.504,-10.742,-64.941
1688258047.472,-46.875,-41.016,-26.367,-12.207,88.379
1688258047.476,-30.273,-26.855,-13.672,-42.480,-29.297
1688258047.480,-39.551,-14.160,-15.137,-62.012,-340.332
1688258047.484,-30.273,-3.906,-4.395,-16.602,-249.512
1688258047.488,-41.016,-24.902,-26.367,6.348,215.332
1688258047.492,-57.129,-66.406,-59.570,-49.316,261.230
1688258047.495,-47.852,-63.965,-48.828,-93.750,-202.148
1688258047.499,-49.316,-38.086,-34.180,-92.285,-400.391
1688258047.503,-58.594,-35.645,-29.785,-48.828,18.066
1688258047.507,-50.781,-41.016,-21.484,10.254,316.406
1688258047.511,-33.691,-29.785,-16.602,11.719,92.773
1688258047.513,-28.809,-21.973,-22.461,-27.344,-127.441
1688258047.517,-36.621,-19.043,-26.855,-41.504,-240.723
1688258047.521,-51.758,-25.391,-28.320,-26.855,-258.301
1688258047.525,-45.898,-25.391,-18.066,10.742,-74.219
1688258047.529,-23.926,-17.090,-16.602,0.488,98.145
1688258047.533,-28.320,-26.367,-32.715,-62.012,48.828
1688258047.537,-30.273,-33.691,-23.926,-80.078,-180.664
1688258047.540,-37.109,-33.203,-18.066,-46.875,-125.488
1688258047.544,-56.152,-34.668,-25.879,-0.977,149.414
1688258047.548,-38.086,-31.250,-21.484,13.672,521.484
1688258047.552,-20.996,-25.879,-22.461,-35.645,208.008
1688258047.556,-25.879,-23.926,-27.832,-68.359,-401.855
1688258047.558,-25.879,-19.531,-19.043,-35.156,-346.191
1688258047.562,-19.531,-11.230,-2.441,33.691,-97.656
1688258047.566,-6.836,-6.836,-1.465,48.340,27.344
1688258047.570,-33.691,-33.691,-35.645,-42.969,-49.316
1688258047.574,-74.219,-58.105,-63.965,-124.512,-208.496
1688258047.578,-63.477,-41.504,-48.340,-104.004,-173.828
1688258047.582,-56.152,-33.203,-39.551,-37.598,28.809
1688258047.585,-46.875,-31.738,-41.504,-2.441,69.824
1688258047.589,-11.719,-21.973,-24.414,-16.602,206.055
1688258047.593,-3.418,-13.184,-8.789,-45.410,172.852
1688258047.597,-23.926,-22.461,-21.973,-57.617,-276.855
1688258047.601,-35.645,-28.320,-28.809,-20.020,-228.027
1688258047.602,-36.621,-40.527,-34.180,2.930,79.590
1688258047.606,-28.320,-48.828,-40.527,-40.527,-27.832
1688258047.610,-7.324,-24.414,-19.043,-62.500,-280.762
1688258047.614,-11.719,-18.066,-14.160,-41.016,-273.926
1688258047.618,-27.832,-25.391,-21.484,0.488,-22.461
1688258047.622,-35.156,-20.020,-21.973,41.504,243.652
1688258047.626,-36.621,-41.992,-40.039,-15.137,193.359
1688258047.629,-29.785,-49.805,-44.922,-73.242,-14.648
1688258047.633,-33.691,-41.504,-36.621,-53.223,285.645
1688258047.637,-40.527,-36.621,-31.738,-14.160,353.516
1688258047.641,-26.367,-24.902,-20.020,0.977,34.180
1688258047.645,-12.207,-29.297,-28.809,-36.621,-27.344
1688258047.648,-24.902,-41.504,-41.016,-82.031,-232.910
1688258047.652,-27.344,-29.785,-29.785,-70.801,-464.355
1688258047.656,-32.715,-6.348,-20.020,-26.855,-331.055
1688258047.660,-41.992,-10.742,-23.926,4.395,11.230
1688258047.664,-14.648,-14.648,-12.695,3.418,11.719
1688258047.668,-11.230,-23.438,-15.137,-53.223,-165.527
1688258047.672,-46.875,-47.363,-40.039,-94.238,-242.188
1688258047.675,-51.270,-41.992,-32.227,-43.457,73.730
1688258047.679,-48.340,-32.715,-30.273,12.695,465.820
1688258047.683,-24.902,-26.367,-29.785,11.719,150.879
1688258047.687,0.977,-17.578,-18.555,-22.949,-186.523
1688258047.691,-26.855,-31.738,-24.902,-61.523,-245.605
1688258047.692,-47.363,-32.227,-32.715,-51.270,-249.512
1688258047.696,-50.781,-36.133,-37.598,-0.977,-116.211
1688258047.700,-28.320,-30.762,-24.902,18.555,78.613
1688258047.704,-18.066,-28.809,-31.738,-40.527,63.477
1688258047.708,-48.828,-39.551,-49.316,-98.145,-174.316
1688258047.712,-55.664,-31.738,-39.062,-62.988,-185.547
1688258047.716,-54.688,-26.367,-34.180,-5.859,42.480
1688258047.719,-29.297,-21.484,-20.020,14.648,578.125
1688258047.723,-2.930,-9.277,-5.859,-19.043,280.762
1688258047.727,-4.883,-1.465,-2.441,-46.875,-366.211
1688258047.731,-20.020,-8.789,-4.883,-18.555,-196.289
1688258047.735,-45.898,-35.645,-28.320,13.672,127.441
1688258047.753,-66.406,-50.781,-48.828,-1.953,55.176
1688258047.757,-51.758,-43.945,-46.387,-73.242,-129.883
1688258047.761,-43.945,-36.133,-41.016,-110.352,-270.996
1688258047.765,-46.875,-34.180,-27.344,-70.312,-301.270
1688258047.769,-42.480,-31.250,-11.230,-8.301,-157.227
1688258047.773,-32.227,-32.227,-16.602,27.832,84.961
1688258047.777,-11.719,-16.602,-20.020,-7.812,341.309
1688258047.780,-20.020,-12.207,-23.926,-80.566,104.980
1688258047.784,-46.387,-33.203,-32.715,-93.262,-347.656
1688258047.788,-60.547,-52.734,-39.062,-46.875,-178.711
1688258047.792,-57.617,-46.387,-46.387,-12.695,106.445
1688258047.796,-9.277,-13.184,-29.785,-8.301,-26.855
1688258047.783,15.625,0.977,-12.695,-31.738,-325.684
1688258047.787,-24.414,-16.113,-28.320,-62.500,-282.715
1688258047.791,-60.547,-24.414,-39.551,-37.598,59.570
1688258047.795,-63.965,-30.273,-35.156,-0.488,120.605
1688258047.799,-55.176,-39.551,-35.645,-17.090,-36.621
1688258047.803,-42.969,-34.668,-33.203,-54.199,-107.910
1688258047.807,-31.250,-23.438,-19.043,-65.918,-80.078
1688258047.810,-38.086,-24.902,-16.113,-26.367,48.340
1688258047.814,-45.898,-33.203,-21.973,12.207,107.422
1688258047.818,-12.695,-27.344,-15.625,-3.906,33.203
1688258047.822,0.000,-30.273,-19.531,-55.664,170.410
1688258047.826,-10.742,-25.879,-17.090,-70.312,-91.797
1688258047.843,-27.344,-22.461,-7.324,-21.973,-277.832
1688258047.847,-51.758,-38.574,-19.043,17.090,79.102
1688258047.851,-44.922,-39.062,-37.598,-14.648,115.234
1688258047.855,-24.902,-23.438,-35.156,-57.617,-113.281
1688258047.859,-19.043,-16.602,-12.695,-55.176,-321.777
1688258047.863,-32.715,-33.203,-18.066,-25.391,0.488
1688258047.867,-41.992,-41.504,-23.926,22.949,387.207
1688258047.870,-37.109,-42.480,-28.320,4.883,92.285
1688258047.874,-44.434,-44.434,-43.457,-75.195,-176.270
1688258047.878,-49.316,-26.855,-37.598,-91.309,-174.805
1688258047.882,-49.316,-20.020,-37.109,-50.293,-228.516
1688258047.886,-40.039,-21.973,-25.391,7.812,-124.023
1688258047.886,-14.648,-14.160,-6.836,21.973,94.727
1688258047.890,5.371,-5.859,1.465,-20.508,20.020
1688258047.894,-1.953,-14.160,-8.789,-54.688,-239.258
1688258047.898,-31.250,-34.668,-36.133,-46.875,-331.055
1688258047.902,-56.641,-44.434,-40.039,-11.719,-62.012
1688258047.906,-61.523,-42.969,-46.875,-10.254,229.492
1688258047.910,-37.598,-34.180,-51.758,-58.105,101.562
1688258047.913,-22.949,-27.344,-27.832,-84.473,-124.512
1688258047.917,-21.484,-24.902,-6.836,-46.387,-102.539
1688258047.921,-38.574,-31.250,-17.090,5.859,357.910
1688258047.925,-49.805,-39.062,-33.203,10.254,585.449
1688258047.929,-29.297,-34.180,-30.762,-34.180,101.562
1688258047.933,-23.438,-17.578,-22.461,-73.242,-247.070
1688258047.937,-34.668,-14.160,-26.855,-62.500,-339.844
1688258047.941,-41.504,-24.902,-31.250,-14.160,-203.125
1688258047.945,-34.668,-25.879,-27.344,10.254,59.082
1688258047.949,-6.348,-18.066,-20.508,-21.484,78.613
1688258047.953,-5.371,-20.996,-28.320,-71.777,-77.637
1688258047.957,-41.504,-33.691,-48.340,-91.309,-272.949
1688258047.960,-74.219,-40.527,-48.828,-52.734,-205.566
1688258047.964,-65.918,-30.762,-38.086,4.883,422.852
1688258047.968,-20.996,-15.625,-22.461,10.742,555.664
1688258047.972,-7.324,-15.137,-9.766,-40.039,-132.324
1688258047.976,-29.785,-31.250,-24.902,-69.336,-372.559
1688258047.977,-57.617,-43.945,-42.480,-56.641,-171.875
1688258047.981,-63.965,-35.645,-43.945,-17.090,12.207
1688258047.985,-45.410,-29.297,-40.527,-19.043,14.160
1688258047.989,-30.762,-32.227,-31.250,-68.848,-214.844
1688258047.993,-18.555,-31.738,-22.949,-59.082,-318.848
1688258047.997,-19.531,-20.996,-23.438,10.742,-129.395
1688258048.001,-18.066,-2.441,-15.137,43.945,102.539
1688258048.004,-27.344,-19.043,-29.785,-7.324,231.445
1688258048.008,-52.734,-53.711,-58.594,-92.773,342.773
1688258048.012,-61.523,-56.641,-55.176,-121.094,-32.227
1688258048.016,-61.035,-39.551,-38.086,-72.754,-291.504
1688258048.020,-58.105,-36.133,-30.273,-13.672,68.359
1688258048.023,-44.434,-31.250,-22.461,4.395,190.430
1688258048.027,-7.324,-4.883,0.000,-19.043,-167.480
1688258048.031,2.930,7.812,4.395,-45.898,-379.395
1688258048.035,-33.691,-20.508,-32.227,-52.246,-207.031
1688258048.039,-56.641,-37.109,-43.457,-6.836,-3.906
1688258048.043,-47.852,-43.945,-30.273,11.230,69.824
1688258048.047,-33.691,-44.922,-36.621,-56.641,-11.719
1688258048.050,-32.227,-39.062,-39.062,-92.773,-8.789
1688258048.054,-39.062,-28.809,-30.762,-68.359,-42.480
1688258048.058,-30.762,-9.766,-12.207,-2.930,-79.590
1688258048.062,-9.766,-2.930,-1.465,34.668,117.676
1688258048.066,-8.301,-13.672,-20.996,-33.203,156.250
1688258048.068,-23.926,-15.625,-35.645,-93.750,-204.102
1688258048.072,-42.969,-17.090,-42.480,-77.637,-325.684
1688258048.076,-60.547,-38.086,-55.176,-23.438,-35.156
1688258048.080,-39.062,-48.340,-34.180,30.273,201.660
1688258048.084,-12.207,-39.551,-11.719,-2.441,38.574
1688258048.088,-31.250,-35.156,-28.320,-66.406,-195.312
1688258048.092,-43.457,-22.461,-24.902,-56.641,-164.551
1688258048.095,-53.711,-18.555,-20.020,-18.066,393.066
1688258048.099,-61.523,-24.414,-31.738,4.883,453.125
1688258048.103,-36.133,-30.273,-27.832,-15.137,24.414
1688258048.107,-33.203,-36.133,-28.320,-56.641,-208.984
1688258048.111,-44.922,-36.133,-28.320,-57.129,-343.262
1688258048.113,-47.363,-41.504,-29.785,-30.762,-261.719
1688258048.117,-53.711,-47.363,-35.156,-9.766,-13.672
1688258048.121,-36.621,-51.758,-35.645,-31.250,26.367
1688258048.125,-9.766,-38.086,-28.320,-61.523,-233.887
1688258048.129,-19.043,-14.160,-27.344,-65.918,-303.711
1688258048.133,-43.457,-8.789,-32.227,-33.691,-125.000
1688258048.137,-52.734,-16.602,-34.180,-1.465,353.516
1688258048.140,-22.461,-13.672,-23.438,-12.695,597.168
1688258048.144,1.953,-8.789,-16.113,-59.082,-37.598
1688258048.148,-9.277,-24.414,-23.438,-73.242,-397.461
1688258048.152,-24.414,-42.969,-39.062,-38.574,-201.172
1688258048.156,-24.902,-32.715,-37.598,-2.441,6.348
1688258048.157,-0.977,-16.113,-23.438,-16.602,28.320
1688258048.161,-1.953,-37.598,-35.156,-74.219,-131.348
1688258048.165,-24.902,-52.734,-46.875,-104.004,-245.117
1688258048.169,-20.508,-25.879,-22.949,-48.340,-174.805
1688258048.173,-30.273,-16.602,-6.836,25.879,-4.395
1688258048.177,-38.086,-34.668,-17.578,14.160,196.289
1688258048.181,-20.508,-25.879,-12.695,-25.879,402.344
1688258048.184,-50.781,-37.598,-19.043,-62.500,31.738
1688258048.188,-77.637,-52.734,-35.156,-61.523,-313.477
1688258048.192,-82.031,-42.969,-40.527,-10.254,-15.625
1688258048.196,-68.848,-44.434,-43.457,-1.953,394.531
1688258048.200,-44.434,-39.062,-41.992,-62.012,-13.672
1688258048.218,-37.598,-26.367,-30.762,-82.520,-420.898
1688258048.222,-32.715,-23.926,-11.230,-41.016,-288.574
1688258048.226,-40.527,-21.484,-16.602,13.184,-28.320
1688258048.230,-51.758,-21.973,-33.691,14.160,81.543
1688258048.234,-39.551,-29.297,-41.016,-59.082,-51.270
1688258048.238,-23.438,-25.391,-34.180,-111.328,-69.336
1688258048.242,-25.391,-18.066,-23.926,-82.031,-63.477
1688258048.245,-41.016,-29.297,-28.320,-18.066,-63.965
1688258048.249,-50.293,-49.316,-39.062,12.207,59.082
1688258048.253,-38.574,-46.875,-46.875,-29.297,252.441
1688258048.257,-37.598,-25.391,-35.156,-64.453,62.500
1688258048.261,-38.574,-36.621,-21.973,-50.781,-326.172
1688258048.262,-49.316,-45.898,-35.156,-21.973,-168.457
1688258048.266,-82.031,-37.109,-59.570,-23.438,126.953
1688258048.270,-59.570,-23.438,-49.316,-63.477,9.277
1688258048.274,-45.410,-26.855,-37.109,-96.680,-284.180
1688258048.278,-54.199,-23.438,-38.086,-79.102,-302.734
1688258048.282,-53.711,-14.160,-32.227,-35.645,-5.371
1688258048.286,-43.945,-18.555,-25.879,-16.602,259.766
1688258048.289,-12.207,-14.648,-22.461,-30.762,196.289
1688258048.293,0.977,-5.371,-21.973,-67.383,-87.402
1688258048.297,-13.184,-3.906,-19.043,-67.383,71.777
1688258048.301,-37.109,-9.766,-31.250,-33.203,26.855
1688258048.305,-37.598,-16.602,-28.320,16.602,-33.203
1688258048.308,-12.207,-21.973,-26.367,6.348,114.746
1688258048.312,-20.020,-41.016,-56.152,-78.613,-76.172
1688258048.316,-29.297,-41.016,-59.570,-92.773,-381.348
1688258048.320,-27.344,-30.273,-30.762,-29.785,-279.785
1688258048.324,-30.762,-30.762,-12.207,24.902,89.844
1688258048.328,-14.648,-22.461,-14.648,11.230,187.988
1688258048.332,-2.441,-6.348,-13.672,-30.762,-76.172
1688258048.335,-18.555,-15.625,-17.578,-62.500,-330.078
1688258048.339,-37.109,-29.785,-36.133,-47.852,-20.996
1688258048.343,-41.992,-31.250,-43.945,4.883,270.020
1688258048.347,-20.508,-28.320,-31.250,8.301,75.195
1688258048.351,-7.324,-24.902,-23.438,-44.434,-145.996
1688258048.353,-27.832,-22.461,-35.645,-76.172,-299.316
1688258048.357,-49.805,-20.996,-43.457,-57.129,-250.977
1688258048.361,-62.500,-23.438,-41.016,-19.043,-10.742
1688258048.365,-31.250,-23.926,-32.715,4.883,151.367
1688258048.369,10.742,-20.996,-20.020,-27.832,107.910
1688258048.373,7.812,-18.555,-18.555,-62.988,-100.098
1688258048.377,-1.953,-12.207,-16.113,-26.855,-215.332
1688258048.380,0.000,0.000,-2.441,40.527,98.145
1688258048.384,-5.859,-21.973,-17.090,27.832,576.172
1688258048.388,-28.809,-44.922,-51.270,-48.828,246.582
1688258048.392,-31.738,-30.762,-44.922,-66.895,-344.727
1688258048.396,-19.043,-19.043,-11.230,-16.113,-345.703
1688258048.399,-41.504,-22.949,-20.020,22.949,-82.031
1688258048.403,-50.781,-31.250,-59.570,8.789,54.688
1688258048.407,-39.551,-27.344,-64.453,-43.457,-62.988
1688258048.411,-43.457,-31.250,-44.434,-92.285,-226.074
1688258048.415,-57.129,-41.016,-29.297,-83.496,-208.496
1688258048.419,-58.105,-41.504,-16.113,-25.879,41.504
1688258048.423,-37.598,-34.668,-10.742,19.531,239.258
1688258048.426,-28.809,-37.109,-21.973,-16.113,271.973
1688258048.430,-24.902,-38.086,-14.160,-56.641,165.039
1688258048.434,-36.621,-40.527,-18.555,-59.570,-288.086
1688258048.438,-54.688,-37.109,-37.598,-44.434,-259.277
1688258048.442,-41.016,-14.160,-33.691,-0.977,103.027
1688258048.457,-22.949,-9.766,-24.414,-9.766,7.324
1688258048.461,-47.852,-32.715,-35.156,-76.172,-297.363
1688258048.465,-53.223,-25.879,-36.133,-86.914,-339.844
1688258048.469,-60.059,-35.645,-44.434,-46.387,-161.621
1688258048.473,-72.266,-57.129,-49.805,-10.254,64.453
1688258048.477,-42.969,-38.574,-39.062,-20.020,79.590
1688258048.481,-20.508,-24.414,-27.344,-60.059,-115.723
1688258048.484,-17.578,-15.625,-12.207,-54.199,201.172
1688258048.488,-31.738,-13.672,-21.973,-23.438,293.945
1688258048.492,-53.711,-40.039,-50.781,-11.230,-19.043
1688258048.496,-42.969,-44.922,-45.898,-22.949,86.914
1688258048.500,-41.016,-41.992,-34.668,-67.383,1.465
1688258048.487,-39.062,-46.387,-26.855,-85.449,-341.797
1688258048.491,-21.484,-34.180,-6.348,-18.066,-299.805
1688258048.495,-32.227,-19.043,-3.418,42.480,7.812
1688258048.499,-54.688,-19.043,-42.969,-5.371,80.078
1688258048.503,-62.988,-30.762,-66.895,-89.355,-185.547
1688258048.507,-62.012,-37.109,-55.176,-106.445,-240.234
1688258048.511,-57.617,-35.156,-40.039,-65.430,42.969
1688258048.514,-42.480,-27.832,-22.949,12.207,93.750
1688258048.518,-6.348,-12.207,-2.441,45.898,67.383
1688258048.522,1.953,-17.090,-7.812,-17.578,-14.648
1688258048.526,-20.996,-34.180,-27.344,-69.824,24.414
1688258048.530,-32.715,-32.715,-25.879,-51.758,113.770
1688258048.532,-51.758,-43.457,-32.227,-24.902,-56.152
1688258048.536,-45.898,-45.898,-42.480,-26.367,52.734
1688258048.540,-20.996,-30.762,-43.457,-70.312,12.207
1688258048.544,-16.113,-20.508,-28.809,-83.496,-323.242
1688258048.548,-31.250,-23.438,-30.273,-53.223,-390.137
1688258048.552,-34.668,-21.973,-35.156,8.789,32.227
1688258048.556,-13.184,-18.066,-20.020,46.875,564.453
1688258048.559,-13.184,-34.180,-20.020,-28.320,224.609
1688258048.563,-30.273,-44.434,-21.973,-90.332,-358.887
1688258048.567,-51.758,-39.551,-28.320,-81.055,-279.785
1688258048.571,-64.453,-37.598,-26.855,-25.879,187.500
1688258048.575,-61.035,-40.039,-20.996,16.602,201.172
1688258048.592,-36.133,-42.480,-27.832,-20.996,-35.156
1688258048.596,-24.414,-32.227,-33.691,-88.867,-188.965
1688258048.600,-37.598,-20.996,-34.180,-98.633,-231.934
1688258048.604,-60.059,-34.668,-36.621,-56.641,-140.137
1688258048.608,-43.945,-26.855,-25.391,-1.953,62.500
1688258048.612,-1.953,-5.371,-2.930,4.395,236.328
1688258048.616,-1.465,-12.695,-0.488,-39.062,28.809
1688258048.619,-28.320,-21.484,-20.020,-58.594,-313.477
1688258048.623,-47.363,-39.062,-40.527,-25.391,-235.840
1688258048.627,-52.734,-44.434,-36.621,8.301,270.996
1688258048.631,-27.832,-21.973,-25.879,-17.090,260.254
1688258048.635,-20.020,-20.996,-29.785,-76.172,-226.562
1688258048.638,-42.969,-26.855,-37.109,-101.562,-386.719
1688258048.642,-46.387,-17.090,-36.621,-55.176,-205.078
1688258048.646,-45.410,-21.484,-32.715,2.930,87.402
