timestamps,TP9,AF7,AF8,TP10,Right AUX
1690122252.452,-50.293,-27.832,-31.250,-24.414,224.609
1690122252.456,-35.156,-1.953,-37.598,17.090,11.719
1690122252.460,14.648,-6.348,-37.109,-2.930,-0.488
1690122252.464,-14.648,-13.672,-43.457,-78.125,-97.656
1690122252.468,-52.734,-18.066,-45.898,-98.633,-246.582
1690122252.472,-50.293,-25.391,-42.969,-44.922,-147.461
1690122252.476,-23.438,-20.508,-44.922,20.020,153.320
1690122252.479,31.250,-17.578,-49.805,3.418,591.797
1690122252.483,-2.441,-2.930,-56.641,-86.914,193.359
1690122252.487,-45.898,6.836,-48.340,-111.328,-382.324
1690122252.491,-44.922,-11.719,-43.457,-51.270,-135.742
1690122252.495,-27.832,-16.113,-52.246,2.441,60.547
1690122252.497,27.832,0.000,-59.082,-18.555,5.371
1690122252.501,4.883,5.859,-55.664,-83.984,-119.141
1690122252.505,-50.781,0.000,-48.340,-113.770,-138.184
1690122252.509,-38.574,-5.371,-49.805,-72.266,-85.449
1690122252.513,-11.230,-8.301,-49.316,-0.488,-57.129
1690122252.517,43.457,-9.766,-55.664,4.395,97.656
1690122252.521,30.273,-18.555,-51.758,-62.012,325.684
1690122252.524,-34.668,-0.488,-40.527,-100.586,132.812
1690122252.528,-41.016,25.879,-47.852,-83.984,-270.508
1690122252.532,-37.109,4.395,-49.316,-14.160,-82.520
1690122252.536,12.207,-3.418,-36.621,14.648,169.922
1690122252.540,15.625,3.906,-41.992,-57.129,-39.062
1690122252.542,-48.828,0.000,-44.922,-112.793,-350.098
1690122252.546,-45.410,-5.371,-35.645,-80.078,-271.484
1690122252.550,-25.391,-11.230,-35.156,-0.977,-40.039
1690122252.554,11.719,-17.578,-30.762,30.273,7.812
1690122252.558,18.555,-21.484,-32.227,-23.926,-100.098
1690122252.562,-33.691,-27.832,-34.668,-79.590,-88.867
1690122252.566,-43.457,-31.250,-36.133,-77.148,23.438
1690122252.569,-36.621,-20.020,-39.062,-15.137,-11.230
1690122252.573,-7.324,-16.602,-33.691,29.297,37.598
1690122252.577,9.277,-27.344,-26.855,-20.996,123.535
1690122252.581,-38.574,-20.020,-27.832,-83.496,31.738
1690122252.585,-47.363,-14.160,-31.738,-78.613,-104.492
1690122252.588,-38.086,-31.738,-32.715,-22.461,-112.793
1690122252.592,-7.324,-40.527,-28.809,41.504,175.781
1690122252.596,22.461,-24.902,-27.832,-4.395,331.055
1690122252.600,-32.227,-13.672,-42.480,-106.445,-149.902
1690122252.604,-44.434,-24.902,-38.574,-99.121,-332.031
1690122252.608,-30.762,-27.344,-30.273,-21.484,-16.602
1690122252.612,-10.742,-22.461,-27.832,40.527,233.398
1690122252.615,34.668,-12.695,-25.391,10.742,96.680
1690122252.619,-9.766,-9.277,-23.438,-57.129,-213.379
1690122252.623,-47.363,-26.855,-13.184,-67.871,-133.789
1690122252.627,-40.527,-27.344,-12.207,-25.391,-13.184
1690122252.631,-22.949,-18.066,-15.625,40.039,-78.125
1690122252.648,32.227,-27.344,-22.949,16.602,-38.574
1690122252.652,3.418,-25.391,-31.738,-67.383,-114.258
1690122252.656,-43.945,-16.602,-28.809,-87.891,-187.500
1690122252.660,-43.457,-26.855,-32.715,-42.480,-224.609
1690122252.664,-34.668,-42.480,-36.621,27.344,46.875
1690122252.668,10.254,-33.691,-30.273,27.344,401.367
1690122252.672,-17.090,-16.602,-25.879,-60.547,123.047
1690122252.675,-64.453,-12.695,-27.832,-97.168,-303.711
1690122252.679,-43.945,-26.367,-28.809,-40.039,-153.809
1690122252.683,-28.320,-41.016,-19.043,24.902,205.078
1690122252.687,12.695,-22.461,-7.812,25.391,108.887
1690122252.691,-4.395,-13.184,-12.207,-53.223,-137.695
1690122252.692,-59.082,-22.949,-23.438,-104.004,-146.484
1690122252.696,-60.547,-24.414,-25.879,-65.430,-71.289
1690122252.700,-51.270,-22.949,-24.414,0.000,-60.059
1690122252.704,5.371,-30.273,-21.484,20.020,51.758
1690122252.708,4.883,-34.180,-27.344,-44.922,0.000
1690122252.712,-53.711,-28.320,-29.297,-96.680,-16.602
1690122252.716,-46.875,-25.879,-13.672,-62.988,-22.949
1690122252.719,-36.133,-33.691,-9.766,10.254,-50.293
1690122252.723,6.836,-36.133,-18.555,44.434,285.156
1690122252.727,16.113,-23.926,-22.461,-17.578,295.410
1690122252.731,-52.246,-8.789,-21.973,-86.426,-278.809
1690122252.735,-62.500,-20.996,-20.996,-71.777,-367.676
1690122252.737,-44.434,-35.156,-19.043,-0.488,-169.434
1690122252.741,-5.371,-37.109,-22.461,47.852,-36.133
1690122252.745,20.508,-27.832,-22.949,-6.348,-77.148
1690122252.749,-31.738,-21.484,-19.043,-73.242,-208.984
1690122252.753,-49.316,-22.949,-23.438,-69.824,-236.328
1690122252.757,-42.480,-30.762,-28.809,-10.254,-34.668
1690122252.761,-9.766,-36.133,-27.344,40.039,155.762
1690122252.764,32.227,-34.668,-24.902,-1.953,183.105
1690122252.768,-15.625,-40.527,-27.832,-73.730,307.129
1690122252.772,-52.246,-29.297,-27.344,-89.355,6.836
1690122252.776,-52.734,-29.297,-20.508,-30.273,-237.305
1690122252.780,-22.461,-42.480,-15.137,45.410,136.230
1690122252.782,22.461,-32.227,-19.531,12.695,167.480
1690122252.786,-26.367,-32.227,-27.832,-76.660,-217.773
1690122252.790,-54.199,-39.062,-21.484,-80.078,-363.281
1690122252.794,-55.664,-34.668,-19.531,-25.879,-208.496
1690122252.798,-45.898,-33.691,-24.902,31.738,-21.973
1690122252.802,5.859,-29.297,-33.203,12.695,93.750
1690122252.806,-25.879,-23.926,-32.715,-66.895,-26.855
1690122252.809,-68.359,-40.039,-24.902,-88.379,2.441
1690122252.813,-57.617,-45.898,-22.461,-35.156,156.738
1690122252.817,-35.645,-36.621,-23.438,33.691,44.434
1690122252.821,19.531,-45.410,-20.996,36.133,111.328
1690122252.825,4.395,-41.504,-18.555,-37.109,18.066
1690122252.827,-50.781,-15.137,-17.578,-83.984,-263.672
1690122252.831,-59.082,-4.883,-23.926,-53.711,-294.434
1690122252.835,-41.016,-15.137,-32.227,23.926,-7.324
1690122252.839,21.973,-13.184,-34.180,40.039,180.664
1690122252.843,8.789,-7.324,-31.250,-42.969,-55.664
1690122252.847,-43.945,-17.578,-24.414,-83.008,-234.863
1690122252.851,-40.039,-34.668,-24.414,-38.086,-54.199
1690122252.854,-32.227,-44.922,-29.785,36.133,277.344
1690122252.858,13.184,-19.531,-30.762,43.457,133.301
1690122252.862,14.160,-4.395,-27.832,-31.738,-187.988
1690122252.866,-42.969,-20.020,-24.902,-72.266,-57.617
1690122252.870,-42.480,-26.855,-17.578,-51.270,34.180
1690122252.873,-29.785,-32.715,-20.996,11.719,-17.578
1690122252.877,4.883,-29.785,-30.762,39.551,42.969
1690122252.881,20.508,-26.855,-26.367,-16.602,63.965
1690122252.885,-35.645,-23.438,-29.785,-75.195,-46.875
1690122252.889,-51.270,-16.602,-37.109,-65.430,-270.508
1690122252.893,-35.156,-26.367,-28.320,5.371,-96.680
1690122252.897,4.395,-37.109,-25.879,49.805,323.730
1690122252.900,23.926,-30.273,-29.785,-11.719,268.066
1690122252.904,-36.133,-19.531,-25.391,-84.961,-257.324
1690122252.908,-53.223,-27.832,-24.414,-76.172,-345.215
1690122252.912,-40.527,-28.809,-25.879,-12.695,-132.812
1690122252.916,-7.324,-15.137,-25.879,40.039,38.086
1690122252.932,24.902,-9.277,-29.785,-10.254,-31.250
1690122252.936,-17.090,-14.648,-26.855,-76.172,-134.766
1690122252.940,-39.551,-20.996,-20.996,-74.219,-141.113
1690122252.944,-48.340,-23.438,-16.113,-23.438,-66.895
1690122252.948,-20.508,-27.832,-20.996,36.133,-4.883
1690122252.952,33.691,-29.785,-27.344,13.672,94.238
1690122252.956,-8.789,-41.504,-26.367,-54.199,347.656
1690122252.959,-56.641,-40.527,-31.250,-73.730,32.227
1690122252.963,-52.246,-30.762,-28.809,-20.996,-301.758
1690122252.967,-21.973,-27.344,-24.902,51.758,-34.180
1690122252.971,21.484,-19.043,-27.832,31.738,123.535
1690122252.975,-16.602,-15.625,-26.855,-54.199,-86.426
1690122252.977,-55.176,-12.695,-26.367,-78.125,-326.172
1690122252.981,-47.852,-36.133,-25.391,-24.414,-69.336
1690122252.985,-24.414,-46.875,-23.926,37.109,224.121
1690122252.989,23.438,-36.133,-23.926,20.020,89.844
1690122252.993,-6.348,-34.180,-29.785,-59.570,-124.023
1690122252.997,-62.012,-27.832,-33.203,-89.844,-133.789
1690122253.001,-60.547,-26.855,-31.738,-49.316,-36.133
1690122253.004,-40.527,-30.273,-29.785,20.508,66.406
1690122253.008,6.348,-19.531,-21.484,28.809,89.844
1690122253.012,-8.789,-32.715,-21.973,-46.875,182.129
1690122253.016,-67.871,-45.410,-36.133,-101.562,107.422
1690122253.020,-61.035,-29.785,-37.598,-74.219,-260.254
1690122253.022,-36.621,-33.203,-24.414,5.371,-109.863
1690122253.026,6.836,-31.738,-21.973,27.344,60.059
1690122253.030,-6.836,-16.602,-24.902,-42.480,-71.289
1690122253.034,-55.176,-13.184,-17.578,-94.238,-266.602
1690122253.038,-45.410,-29.785,-10.742,-61.035,-208.008
1690122253.042,-43.945,-49.316,-30.762,5.859,45.410
1690122253.046,-15.625,-40.039,-37.598,28.320,210.449
1690122253.049,-0.977,-22.949,-19.531,-24.902,80.078
1690122253.053,-48.828,-29.785,-21.973,-79.590,-82.031
1690122253.057,-58.594,-43.457,-31.250,-63.477,170.898
1690122253.061,-45.410,-27.832,-31.738,0.488,213.867
1690122253.065,-6.836,-13.184,-32.227,39.551,49.316
1690122253.067,14.648,-21.484,-29.785,-14.160,45.410
1690122253.071,-35.645,-22.949,-27.344,-83.496,-117.188
1690122253.075,-43.945,-14.160,-17.090,-74.219,-311.523
1690122253.079,-19.043,-27.344,-20.508,-6.348,-230.957
1690122253.083,0.977,-53.711,-38.574,48.340,156.738
1690122253.087,10.254,-34.668,-29.785,4.883,222.656
1690122253.091,-46.875,-16.113,-18.555,-77.637,-97.168
1690122253.094,-73.242,-22.949,-25.391,-89.355,-293.945
1690122253.098,-52.246,-35.645,-25.879,-24.414,-44.922
1690122253.102,-29.785,-35.645,-25.879,35.645,222.656
1690122253.106,9.766,-20.996,-26.855,-0.977,-41.016
1690122253.110,-23.926,-32.227,-32.715,-78.613,-217.285
1690122253.112,-61.035,-41.992,-34.668,-85.938,-194.824
1690122253.116,-50.781,-36.133,-27.344,-26.367,-165.527
1690122253.120,-22.461,-30.273,-26.855,35.156,-88.867
1690122253.124,17.578,-30.762,-30.273,14.160,25.879
1690122253.128,-20.508,-37.109,-30.762,-63.477,4.395
1690122253.132,-57.129,-39.551,-23.438,-89.844,-4.395
1690122253.136,-43.945,-35.645,-21.484,-44.922,-8.789
1690122253.139,-14.648,-38.574,-18.066,33.203,160.156
1690122253.143,21.973,-34.668,-17.090,35.156,409.180
1690122253.147,-18.066,-21.484,-28.320,-54.199,2.930
1690122253.151,-46.387,-21.973,-25.879,-79.590,-370.117
1690122253.155,-44.434,-32.715,-20.996,-38.574,-107.422
1690122253.158,-56.152,-41.992,-30.273,7.324,196.777
1690122253.162,-14.160,-25.391,-37.109,3.418,46.875
1690122253.166,-26.367,-14.648,-29.785,-71.777,-190.918
1690122253.170,-84.473,-20.508,-35.645,-125.000,-189.453
1690122253.174,-87.891,-25.391,-38.574,-98.145,-165.039
1690122253.178,-65.918,-29.785,-27.344,-26.855,-34.180
1690122253.182,-15.137,-21.484,-31.738,-15.137,153.320
1690122253.185,-22.949,-32.715,-35.645,-84.961,235.840
1690122253.189,-86.914,-30.762,-36.133,-130.371,83.984
1690122253.193,-85.449,-7.812,-49.316,-104.492,-248.535
1690122253.197,-66.406,-20.020,-37.598,-29.785,-103.516
1690122253.201,-23.438,-8.789,-3.906,12.695,74.707
1690122253.202,-22.949,3.906,-15.625,-54.199,-72.754
1690122253.206,-83.496,-5.371,-35.645,-117.188,-264.648
1690122253.210,-74.219,-21.484,-28.320,-84.961,-195.312
1690122253.214,-56.152,-32.715,-26.855,-8.789,-1.465
1690122253.218,-11.230,-23.438,-29.297,30.762,63.965
1690122253.222,18.066,-16.602,-24.902,-24.414,-24.414
1690122253.226,-37.598,-25.391,-19.531,-85.938,-48.828
1690122253.229,-53.711,-40.039,-18.555,-75.195,206.055
1690122253.233,-38.574,-24.414,-29.785,-15.625,166.016
1690122253.237,-2.930,-7.324,-31.250,39.551,8.301
1690122253.241,28.320,-26.367,-29.297,7.324,214.355
1690122253.245,-30.762,-46.387,-26.855,-71.777,85.938
1690122253.247,-56.152,-36.621,-16.113,-78.613,-315.430
1690122253.251,-37.598,-30.762,-12.695,-11.719,-212.402
1690122253.255,-9.766,-36.133,-16.113,46.875,82.031
1690122253.259,27.832,-24.414,-25.391,8.789,50.781
1690122253.263,-15.625,-20.020,-32.227,-65.918,-154.297
1690122253.267,-47.363,-27.832,-28.809,-82.520,-198.242
1690122253.271,-36.621,-42.969,-23.438,-28.809,166.992
1690122253.274,-19.531,-41.016,-18.555,40.527,399.902
1690122253.278,19.531,-13.184,-20.020,19.043,9.277
1690122253.282,-8.789,-20.508,-23.438,-58.594,-267.090
1690122253.286,-53.223,-40.527,-36.133,-84.961,-227.539
1690122253.290,-46.387,-41.992,-48.340,-31.738,-218.750
1690122253.292,-19.043,-32.227,-35.156,49.805,-136.719
1690122253.296,29.297,-29.297,-22.461,36.133,47.363
1690122253.300,5.859,-26.367,-20.020,-48.828,-37.598
1690122253.304,-45.898,-25.391,-19.043,-85.449,-241.699
1690122253.308,-41.992,-32.227,-20.996,-50.293,-274.414
1690122253.312,-6.836,-36.133,-18.555,41.504,162.109
1690122253.316,39.551,-34.668,-18.555,58.594,430.176
1690122253.319,0.000,-22.461,-24.414,-31.250,-1.953
1690122253.323,-61.035,-16.602,-38.574,-93.750,-294.922
1690122253.327,-52.246,-23.926,-38.574,-55.176,-150.391
1690122253.331,-33.203,-37.109,-22.949,36.621,279.297
1690122253.335,9.766,-20.020,-17.090,39.551,185.059
1690122253.352,8.789,-8.301,-7.324,-32.715,-196.289
1690122253.356,-50.781,-20.020,-11.719,-73.730,-206.055
1690122253.360,-56.641,-22.949,-27.344,-61.523,-156.738
1690122253.364,-42.480,-20.996,-33.691,3.418,-144.531
1690122253.368,4.395,-21.973,-27.832,43.457,-7.812
1690122253.372,14.160,-25.879,-24.902,-20.020,54.688
1690122253.376,-43.457,-28.320,-28.809,-82.520,-39.062
1690122253.379,-51.270,-33.203,-29.297,-69.824,-132.324
1690122253.383,-41.992,-41.992,-32.227,-2.930,-88.379
1690122253.387,0.000,-41.992,-34.180,50.293,260.742
1690122253.391,14.160,-29.297,-23.438,-7.324,270.508
1690122253.395,-46.875,-19.043,-20.020,-90.332,-173.828
1690122253.397,-59.570,-23.438,-24.414,-79.102,-260.742
1690122253.401,-47.363,-28.809,-29.297,-6.348,5.371
1690122253.405,-19.043,-21.484,-34.180,39.551,133.301
1690122253.409,2.930,-19.043,-30.273,-10.742,-37.109
1690122253.413,-42.480,-30.762,-30.762,-75.684,-147.949
1690122253.417,-56.641,-41.016,-33.691,-65.918,-95.215
1690122253.421,-45.898,-47.852,-27.344,-21.484,-47.852
1690122253.424,-24.902,-42.480,-24.414,30.273,-15.137
1690122253.428,10.254,-32.227,-20.020,13.184,103.027
1690122253.432,-28.809,-36.133,-28.320,-67.871,121.582
1690122253.436,-63.477,-31.250,-35.645,-94.727,-122.070
1690122253.440,-58.105,-27.344,-35.156,-34.668,-190.918
1690122253.442,-22.949,-33.691,-28.809,40.039,145.508
1690122253.446,20.020,-32.227,-17.578,16.113,300.293
1690122253.450,-15.137,-18.555,-18.066,-73.242,-131.836
1690122253.454,-53.223,-19.531,-19.043,-93.750,-313.965
1690122253.458,-53.223,-30.273,-24.902,-43.457,-76.172
1690122253.462,-29.785,-42.480,-33.691,29.297,211.426
1690122253.466,28.320,-37.598,-28.809,25.879,210.938
1690122253.469,6.836,-28.809,-28.809,-60.059,-34.668
1690122253.473,-54.199,-49.316,-32.227,-91.797,-37.109
1690122253.477,-52.246,-52.246,-20.996,-45.410,20.996
1690122253.481,-32.715,-32.715,-19.043,24.414,-100.098
1690122253.485,12.695,-29.785,-24.414,36.621,-30.762
1690122253.487,-4.395,-22.949,-26.855,-44.434,-80.566
1690122253.491,-63.477,-13.672,-23.438,-90.820,-250.488
1690122253.495,-58.594,-18.066,-20.996,-51.758,-299.805
1690122253.499,-29.785,-30.273,-21.484,26.855,-10.742
1690122253.503,15.625,-27.344,-15.137,48.828,311.523
1690122253.507,4.883,-21.484,-12.207,-30.762,112.793
1690122253.511,-57.129,-26.855,-21.484,-98.633,-152.832
1690122253.514,-64.453,-40.527,-21.484,-73.242,-66.895
1690122253.518,-52.734,-51.758,-30.273,11.719,238.770
1690122253.522,-4.883,-28.809,-34.668,41.504,173.340
1690122253.526,7.324,-14.160,-22.461,-25.879,-112.793
1690122253.530,-42.969,-20.020,-16.113,-76.172,-69.824
1690122253.532,-53.711,-24.902,-15.625,-55.664,-59.570
1690122253.536,-50.293,-22.949,-25.879,-9.277,-156.738
1690122253.540,-3.906,-21.973,-25.391,25.879,-33.691
1690122253.544,19.531,-21.973,-17.090,-20.996,-39.062
1690122253.548,-44.434,-29.785,-20.996,-93.750,-195.801
1690122253.552,-54.199,-35.156,-20.508,-83.008,-232.910
1690122253.556,-52.734,-34.180,-19.531,-17.090,-87.402
1690122253.559,-31.250,-46.875,-15.625,32.227,385.742
1690122253.563,-0.488,-32.715,-20.020,-11.230,470.703
1690122253.567,-41.992,-8.789,-27.832,-92.285,-130.859
1690122253.571,-58.105,-19.043,-23.438,-91.309,-350.098
1690122253.575,-50.781,-20.508,-25.391,-29.785,-198.242
1690122253.577,-12.695,-10.254,-26.855,30.762,-22.949
1690122253.581,20.996,-11.719,-24.902,-2.441,-53.711
1690122253.585,-20.996,-23.926,-21.484,-75.684,-150.391
1690122253.589,-45.898,-30.273,-27.344,-90.332,-191.895
1690122253.593,-47.363,-30.762,-35.645,-45.898,-160.156
1690122253.597,-18.555,-34.668,-36.133,27.832,43.457
1690122253.601,23.926,-37.598,-35.156,20.020,161.133
1690122253.604,-13.672,-39.062,-29.297,-54.688,201.172
1690122253.608,-52.246,-26.367,-19.531,-87.402,26.855
1690122253.612,-59.082,-20.508,-16.113,-46.387,-191.406
1690122253.616,-38.086,-31.250,-11.719,33.203,104.980
1690122253.620,13.184,-28.320,-14.648,19.531,351.562
1690122253.622,-10.742,-13.672,-20.996,-68.359,-128.418
1690122253.626,-52.734,-23.926,-23.926,-92.285,-411.621
1690122253.630,-53.223,-28.809,-21.973,-51.758,-250.000
1690122253.634,-40.527,-22.949,-21.973,14.160,-21.973
1690122253.638,-1.465,-17.578,-32.715,16.113,46.387
1690122253.642,-15.625,-20.996,-29.785,-56.152,-74.219
1690122253.646,-58.594,-30.273,-19.043,-93.750,62.988
1690122253.649,-55.176,-21.484,-14.648,-68.848,99.609
1690122253.653,-35.645,-19.531,-14.160,-3.418,-98.145
1690122253.657,13.184,-20.996,-11.230,25.391,-54.199
1690122253.661,10.742,-21.973,-17.090,-40.527,103.516
1690122253.665,-36.621,-26.855,-30.762,-101.074,-32.227
1690122253.667,-44.922,-27.832,-35.645,-81.543,-270.996
1690122253.671,-27.832,-44.434,-40.039,-0.977,-117.188
1690122253.675,10.254,-45.898,-45.410,33.203,145.020
1690122253.679,4.883,-17.090,-32.227,-39.062,7.324
1690122253.683,-44.434,-5.371,-16.113,-91.797,-286.133
1690122253.687,-52.246,-22.461,-17.090,-66.895,-78.125
1690122253.691,-39.062,-35.645,-22.461,2.441,279.785
1690122253.694,0.977,-21.973,-17.578,44.434,130.371
1690122253.698,21.484,-13.184,-21.973,-7.324,-122.559
1690122253.702,-37.109,-39.062,-32.227,-70.312,-158.691
1690122253.706,-54.688,-54.199,-27.832,-64.941,-41.992
1690122253.710,-40.039,-37.598,-35.156,-6.348,-1.465
1690122253.713,-9.277,-24.414,-34.180,40.039,-34.668
1690122253.717,19.043,-31.250,-16.602,7.324,167.480
1690122253.721,-21.484,-36.133,-15.625,-58.105,215.820
1690122253.725,-40.039,-22.949,-19.043,-74.219,-241.699
1690122253.729,-32.227,-27.832,-20.020,-14.160,-277.832
1690122253.733,-9.277,-35.156,-23.926,40.527,39.551
1690122253.737,22.461,-22.949,-21.973,2.930,171.875
1690122253.740,-24.902,-26.367,-18.555,-67.383,-65.430
1690122253.744,-62.500,-35.645,-21.973,-83.008,-346.191
1690122253.748,-54.199,-38.086,-27.344,-29.785,-57.129
1690122253.752,-36.133,-31.738,-28.809,34.668,185.059
1690122253.756,1.953,-22.949,-30.273,9.766,-47.363
1690122253.772,-25.879,-30.762,-27.832,-64.941,-160.645
1690122253.776,-67.871,-45.898,-27.344,-86.426,-179.199
1690122253.780,-58.105,-47.852,-25.879,-37.109,-194.824
1690122253.784,-30.273,-40.039,-29.785,26.367,-39.551
1690122253.788,11.230,-31.738,-22.949,19.531,145.020
1690122253.792,-8.301,-31.250,-20.508,-48.828,155.273
1690122253.796,-55.176,-26.855,-31.738,-86.426,-53.223
1690122253.799,-65.918,-23.438,-21.973,-54.199,-188.477
1690122253.803,-50.293,-33.691,-14.160,17.578,53.223
1690122253.807,7.812,-28.809,-17.578,27.832,197.266
1690122253.811,7.324,-25.391,-23.438,-41.992,45.898
1690122253.815,-38.086,-32.715,-28.809,-83.496,-145.020
1690122253.832,-46.875,-44.922,-24.414,-45.898,-112.793
1690122253.836,-31.738,-50.781,-19.043,31.738,355.957
1690122253.840,14.648,-20.996,-32.227,42.969,218.750
1690122253.844,7.812,-12.207,-39.062,-27.832,-170.898
1690122253.848,-43.945,-21.484,-24.902,-82.520,-242.676
1690122253.852,-54.199,-27.832,-26.855,-55.664,-137.695
1690122253.856,-30.273,-33.203,-25.391,22.949,51.270
1690122253.859,11.719,-32.227,-21.484,48.340,140.137
1690122253.863,4.395,-20.996,-27.344,-25.879,0.000
1690122253.867,-42.480,-11.719,-28.809,-87.891,-234.863
1690122253.871,-49.805,-17.578,-29.297,-68.848,-232.910
1690122253.875,-39.551,-17.578,-18.555,5.371,-147.949
1690122253.862,6.836,-37.598,-14.160,63.477,250.977
1690122253.866,22.949,-35.645,-24.902,6.348,298.828
1690122253.870,-39.551,-14.648,-24.902,-78.125,-276.855
1690122253.874,-54.199,-26.855,-21.973,-70.312,-333.984
1690122253.878,-43.457,-35.156,-27.344,-2.930,-58.594
1690122253.882,-11.719,-26.367,-22.949,47.363,139.160
1690122253.886,17.090,-19.531,-23.438,1.953,116.211
1690122253.889,-23.438,-23.926,-30.762,-72.266,29.297
1690122253.893,-45.898,-24.902,-31.250,-80.078,-32.715
1690122253.897,-33.203,-24.902,-21.484,-19.043,-95.703
1690122253.901,1.953,-23.438,-13.184,47.363,20.020
1690122253.905,41.504,-27.344,-17.578,16.113,142.090
1690122253.907,-1.953,-39.551,-30.762,-57.617,244.141
1690122253.911,-56.152,-20.020,-37.598,-91.797,51.270
1690122253.915,-50.781,-6.348,-30.762,-45.898,-251.465
1690122253.919,-21.484,-12.695,-25.391,28.320,-42.480
1690122253.923,6.836,-22.461,-30.762,0.000,32.227
1690122253.927,-25.879,-43.457,-33.203,-69.824,-166.016
1690122253.931,-66.895,-35.645,-33.691,-94.238,-277.344
1690122253.934,-65.918,-41.016,-24.902,-45.898,18.066
1690122253.938,-34.180,-41.504,-24.414,30.273,233.887
1690122253.942,12.207,-7.812,-36.621,14.648,-75.195
1690122253.946,-10.742,-10.742,-36.133,-60.547,-231.934
1690122253.950,-55.664,-25.879,-26.855,-89.355,-176.270
1690122253.954,-57.617,-23.926,-24.902,-50.781,-141.113
1690122253.958,-34.180,-19.043,-25.391,24.414,-30.762
1690122253.962,19.043,-18.066,-22.461,37.598,134.277
1690122253.966,0.977,-29.297,-23.926,-38.574,4.395
1690122253.970,-57.129,-35.645,-21.973,-85.449,-208.984
1690122253.974,-63.965,-46.875,-23.926,-55.176,-152.344
1690122253.978,-46.875,-43.945,-22.461,20.996,113.770
1690122253.981,-2.930,-29.297,-15.625,44.922,392.578
1690122253.985,-15.625,-9.277,-17.578,-30.273,75.684
1690122253.989,-53.223,-15.625,-22.949,-80.566,-294.922
1690122253.993,-51.270,-47.852,-27.344,-59.570,-23.438
1690122253.997,-41.992,-41.016,-23.926,11.230,182.129
1690122253.998,-13.184,-16.113,-28.320,35.645,7.324
1690122254.002,-15.625,-22.949,-29.785,-35.156,-20.020
1690122254.006,-55.664,-36.133,-26.367,-95.703,-41.016
1690122254.010,-62.500,-21.484,-28.320,-77.637,-190.430
1690122254.014,-60.059,-17.090,-33.691,-11.230,-128.906
1690122254.018,-20.996,-25.391,-34.180,29.297,80.078
1690122254.022,12.695,-28.809,-23.926,-13.672,271.973
1690122254.025,-33.203,-31.250,-20.508,-75.684,335.449
1690122254.029,-57.617,-24.902,-25.879,-79.590,-125.977
1690122254.033,-47.852,-45.410,-30.273,-20.020,-242.676
1690122254.037,-17.090,-48.828,-25.391,35.156,0.000
1690122254.041,0.488,-16.602,-18.066,-9.277,-89.844
1690122254.042,-44.922,-6.348,-18.555,-80.566,-329.590
1690122254.046,-61.035,-25.879,-20.996,-77.148,-327.637
1690122254.050,-50.781,-39.551,-23.438,-18.066,-88.379
1690122254.054,-23.438,-29.297,-21.484,38.574,62.500
1690122254.058,13.672,-20.508,-15.137,6.348,81.543
1690122254.062,-21.973,-35.645,-20.508,-72.266,29.785
1690122254.066,-61.523,-59.082,-32.715,-91.309,205.078
1690122254.069,-63.477,-39.062,-30.762,-42.480,93.262
1690122254.073,-34.180,-20.508,-22.949,24.414,-115.234
1690122254.077,15.625,-27.344,-21.484,9.277,-3.906
1690122254.081,-9.766,-18.066,-28.809,-66.895,-63.477
1690122254.085,-33.691,-19.043,-36.133,-81.055,-151.367
1690122254.102,-30.273,-37.598,-26.367,-26.367,-217.285
1690122254.106,-18.066,-51.758,-19.531,41.016,93.262
1690122254.110,20.996,-42.969,-12.695,30.762,240.723
1690122254.114,-13.672,-25.391,-10.254,-50.293,-129.883
1690122254.118,-65.430,-37.598,-14.160,-86.426,-283.203
1690122254.122,-58.594,-58.105,-8.301,-31.738,-135.254
1690122254.126,-33.691,-55.664,-3.418,48.828,126.465
1690122254.129,5.859,-47.852,-10.742,37.109,98.633
1690122254.133,-6.348,-40.039,-13.184,-38.574,-161.133
1690122254.137,-46.875,-47.852,-7.812,-61.035,-79.590
1690122254.141,-47.363,-46.875,-15.625,-26.367,76.660
1690122254.145,-25.391,-35.645,-15.137,35.156,-88.867
1690122254.147,24.902,-46.387,-21.484,56.641,-18.066
1690122254.151,11.230,-36.133,-31.250,-15.137,0.977
1690122254.155,-49.805,-25.391,-20.508,-69.824,-176.270
1690122254.159,-56.152,-27.832,-15.137,-49.805,-216.797
1690122254.163,-43.457,-31.250,-17.578,18.555,-2.441
1690122254.167,5.371,-34.180,-27.832,50.293,200.684
1690122254.171,19.531,-29.785,-28.809,-6.836,87.891
1690122254.174,-42.480,-14.160,-20.508,-70.801,-220.215
1690122254.178,-62.988,-21.484,-16.602,-61.035,-206.055
1690122254.182,-41.504,-47.363,-16.113,13.184,363.770
1690122254.186,-2.930,-31.250,-24.902,52.734,450.195
1690122254.190,7.812,-15.137,-27.344,-7.324,-41.992
1690122254.192,-39.062,-31.738,-21.973,-77.637,-126.953
1690122254.196,-62.988,-29.785,-17.090,-74.219,-104.004
1690122254.200,-56.641,-18.555,-23.438,-11.230,-174.316
1690122254.204,-17.090,-25.391,-36.133,38.086,-18.555
1690122254.208,8.789,-21.484,-28.320,-8.789,-33.203
1690122254.212,-36.133,-25.391,-20.020,-77.637,-177.246
1690122254.216,-53.711,-30.762,-26.367,-79.590,-236.328
1690122254.219,-47.363,-26.855,-28.809,-24.902,-201.660
1690122254.223,-14.160,-42.480,-22.461,39.551,221.191
1690122254.227,20.508,-36.133,-22.949,9.277,338.379
1690122254.231,-28.320,-18.066,-31.250,-73.730,-187.500
1690122254.235,-57.129,-27.344,-33.203,-87.891,-268.555
1690122254.237,-46.387,-33.203,-25.879,-38.086,-2.930
1690122254.241,-29.785,-24.414,-19.043,17.578,95.703
1690122254.245,1.465,-9.766,-18.066,-5.859,-13.672
1690122254.249,-31.738,-9.766,-22.461,-76.660,-93.262
1690122254.253,-52.246,-10.254,-8.301,-84.961,-142.578
1690122254.257,-43.457,-13.672,-8.301,-36.621,-77.148
1690122254.261,-33.203,-32.227,-21.484,17.578,78.125
1690122254.264,13.672,-45.898,-17.090,7.324,137.207
1690122254.268,-15.137,-40.527,-20.020,-64.941,195.801
1690122254.272,-79.102,-14.160,-29.785,-106.934,-124.512
1690122254.276,-83.496,-8.301,-21.973,-70.312,-265.137
1690122254.280,-59.082,-32.227,-17.090,2.930,112.793
1690122254.283,-24.902,-27.832,-23.926,-3.906,212.402
1690122254.287,-61.035,-8.789,-21.973,-95.215,-125.488
1690122254.291,-111.816,-20.508,-16.113,-141.602,-166.016
1690122254.295,-120.117,-30.762,-15.137,-122.070,-8.301
1690122254.299,-113.281,-17.090,-22.461,-61.523,58.105
1690122254.303,-76.172,-7.812,-26.367,-56.152,91.309
1690122254.307,-101.562,-17.578,-19.531,-136.230,-23.926
1690122254.310,-162.598,-24.902,-8.789,-189.453,24.902
1690122254.314,-182.617,-18.555,-10.742,-187.988,68.359
1690122254.318,-166.504,-12.695,-18.066,-121.582,-129.395
1690122254.322,-122.559,-14.648,-2.930,-93.262,-33.691
1690122254.326,-120.117,-2.930,3.418,-164.062,-43.945
1690122254.327,-172.363,-0.977,-14.648,-219.238,-214.355
1690122254.331,-176.270,-19.043,-19.531,-198.730,-291.016
1690122254.335,-141.113,-31.738,-15.625,-110.352,-109.863
1690122254.339,-90.332,-26.855,-18.066,-54.199,88.867
1690122254.343,-55.664,-15.625,-18.066,-93.750,-26.367
1690122254.347,-88.379,-18.555,-9.277,-142.090,-137.695
1690122254.351,-96.191,-39.062,-18.555,-124.512,-114.258
1690122254.354,-69.824,-59.570,-21.484,-35.645,306.152
1690122254.358,-20.020,-36.133,-19.043,23.926,369.141
1690122254.362,13.672,-11.719,-30.273,-17.090,-132.812
1690122254.366,-25.879,-27.344,-40.527,-68.848,-112.305
1690122254.370,-44.434,-27.832,-32.227,-58.594,-41.504
1690122254.372,-24.902,-18.555,-28.809,-1.465,-193.359
1690122254.376,26.855,-18.555,-38.086,61.523,-80.566
1690122254.380,64.941,-20.996,-33.203,36.621,-21.484
1690122254.384,16.602,-28.809,-36.621,-38.574,-186.035
1690122254.388,-9.766,-35.156,-31.738,-44.434,-291.992
1690122254.392,6.348,-37.598,-21.973,26.855,-137.695
1690122254.396,41.504,-55.664,-26.367,105.957,374.023
1690122254.399,78.125,-55.664,-27.344,86.426,476.074
1690122254.403,32.715,-32.715,-31.738,-2.441,-96.680
1690122254.407,-11.719,-37.109,-28.320,-29.785,-272.949
1690122254.411,-4.395,-46.387,-22.461,17.578,-85.449
1690122254.415,25.391,-32.227,-20.996,91.797,32.227
1690122254.417,62.500,-24.414,-22.949,76.172,-11.230
1690122254.421,31.250,-32.715,-26.855,0.977,-104.980
1690122254.425,-7.812,-37.109,-21.973,-22.461,-187.012
1690122254.429,-3.418,-36.621,-18.555,13.184,-204.102
1690122254.433,14.648,-39.062,-22.461,85.938,-95.215
1690122254.437,56.641,-46.875,-24.414,79.102,122.559
1690122254.441,40.039,-46.387,-30.273,-5.859,176.758
1690122254.444,-6.348,-27.832,-38.086,-41.504,-111.328
1690122254.448,-8.301,-26.855,-35.156,-7.812,-253.906
1690122254.452,9.766,-50.293,-29.297,66.895,75.684
1690122254.456,48.340,-49.805,-29.785,87.402,508.789
1690122254.460,35.645,-17.090,-29.297,7.812,170.410
1690122254.477,-9.277,-8.789,-21.484,-44.922,-301.270
1690122254.481,-14.648,-29.785,-16.113,-9.766,-150.879
1690122254.485,-7.812,-34.668,-15.137,57.129,92.285
1690122254.489,32.227,-26.855,-18.066,77.148,-10.254
1690122254.493,44.434,-28.809,-15.625,11.230,-205.566
1690122254.497,-13.184,-35.645,-17.578,-45.898,-234.375
1690122254.501,-27.344,-34.668,-26.855,-25.879,-105.957
1690122254.504,-6.348,-28.809,-29.785,40.039,-40.527
1690122254.508,36.133,-28.320,-27.832,80.078,-11.719
1690122254.512,39.551,-35.156,-29.297,26.855,166.992
1690122254.516,-14.648,-30.273,-32.715,-43.945,40.039
1690122254.520,-22.949,-27.832,-35.156,-43.457,-250.488
1690122254.522,-24.902,-43.457,-31.738,19.531,-108.398
1690122254.526,3.906,-48.828,-25.879,63.965,106.934
1690122254.530,26.367,-35.156,-30.762,14.160,28.809
1690122254.534,-25.879,-25.391,-36.621,-61.523,-189.941
1690122254.538,-44.922,-24.902,-29.785,-70.312,-178.711
1690122254.542,-34.668,-33.203,-29.785,-11.230,79.590
1690122254.546,-5.371,-29.785,-30.762,40.527,257.812
1690122254.549,25.879,-6.836,-32.227,5.371,75.684
1690122254.553,-12.207,-16.113,-24.902,-56.152,-100.098
1690122254.557,-44.922,-38.086,-25.879,-78.125,20.508
1690122254.561,-49.316,-29.297,-34.668,-37.109,18.066
1690122254.565,-22.949,-23.438,-30.762,29.297,11.230
1690122254.568,14.648,-27.832,-18.555,13.672,175.781
1690122254.572,-19.531,-27.344,-10.254,-62.012,94.238
1690122254.576,-57.617,-22.949,-23.926,-88.867,-229.004
1690122254.580,-53.223,-30.762,-35.156,-41.016,-186.035
1690122254.584,-30.273,-38.086,-33.203,35.156,62.012
1690122254.588,12.207,-41.504,-32.715,23.926,191.406
1690122254.592,-13.672,-30.762,-36.621,-57.617,-37.109
1690122254.595,-57.617,-14.160,-25.879,-81.055,-277.832
1690122254.599,-63.477,-28.809,-13.672,-40.039,-109.375
1690122254.603,-38.086,-28.809,-13.184,30.273,66.895
1690122254.607,16.602,-7.812,-21.973,34.668,-45.410
1690122254.611,-8.789,-14.648,-20.508,-38.574,-132.324
1690122254.612,-62.988,-28.320,-22.949,-84.961,-170.898
1690122254.616,-55.176,-32.715,-33.203,-61.523,-181.641
1690122254.620,-36.621,-39.551,-30.273,3.906,-99.609
1690122254.624,14.648,-38.086,-20.996,23.438,31.250
1690122254.628,13.184,-24.902,-19.531,-39.551,-16.602
1690122254.632,-39.551,-33.203,-27.832,-90.332,-97.656
1690122254.636,-40.527,-37.598,-28.809,-64.453,-154.297
1690122254.639,-27.832,-34.668,-21.484,8.301,17.090
1690122254.643,9.277,-49.316,-19.043,38.086,479.492
1690122254.647,5.859,-33.203,-30.762,-39.062,264.648
1690122254.651,-45.410,-16.113,-37.109,-95.215,-224.609
1690122254.655,-55.664,-31.738,-30.273,-58.594,-107.422
1690122254.657,-47.852,-39.551,-31.250,6.348,87.402
1690122254.661,-9.277,-28.320,-26.367,36.621,47.852
1690122254.665,-0.488,-24.414,-18.555,-20.020,-61.035
1690122254.669,-45.410,-25.391,-19.531,-85.938,-211.914
1690122254.673,-50.293,-21.484,-20.996,-74.707,-253.418
1690122254.677,-44.434,-25.879,-13.672,-2.441,-132.324
1690122254.681,-5.859,-27.344,-7.324,47.852,39.551
1690122254.684,16.602,-35.156,-15.625,1.465,323.242
1690122254.688,-47.363,-37.598,-34.180,-77.637,307.129
1690122254.692,-67.871,-16.602,-36.621,-90.332,-217.773
1690122254.696,-53.223,-21.484,-32.227,-23.926,-226.074
1690122254.700,-22.461,-35.645,-26.367,31.738,44.434
1690122254.702,24.414,-28.809,-26.367,0.977,-4.395
1690122254.706,-12.695,-15.625,-32.227,-62.988,-234.375
1690122254.710,-47.363,-15.137,-33.691,-83.008,-274.902
1690122254.714,-45.898,-24.902,-32.715,-33.203,-90.332
1690122254.718,-21.973,-23.926,-31.738,24.414,11.230
1690122254.722,30.273,-11.719,-27.832,-0.488,-4.395
1690122254.726,-3.906,-6.836,-24.902,-70.312,42.480
1690122254.729,-45.898,-17.578,-24.414,-87.891,215.820
1690122254.733,-36.621,-16.602,-26.367,-37.598,32.715
1690122254.737,-17.090,-17.090,-27.832,38.574,-74.219
1690122254.741,20.020,-24.414,-26.855,31.250,204.590
1690122254.745,-4.395,-10.742,-25.391,-48.828,189.941
1690122254.747,-51.758,1.465,-34.180,-90.820,-236.328
1690122254.751,-48.828,-11.230,-41.504,-55.176,-319.824
1690122254.755,-28.320,-26.367,-38.574,25.391,20.020
1690122254.759,19.531,-8.301,-37.598,29.785,195.801
1690122254.763,13.672,-4.395,-30.762,-44.434,-100.586
1690122254.767,-39.062,-25.391,-26.855,-85.449,-312.988
1690122254.771,-43.457,-30.273,-26.855,-45.898,88.379
1690122254.774,-29.297,-24.414,-28.320,24.414,327.148
1690122254.778,12.695,-2.930,-26.367,29.785,12.695
1690122254.782,12.207,-13.672,-20.020,-24.902,-152.832
1690122254.786,-41.992,-23.926,-24.414,-75.195,-269.531
1690122254.790,-49.805,-16.602,-22.949,-63.965,-290.527
1690122254.793,-24.902,-23.926,-16.113,19.043,-63.477
1690122254.797,20.020,-23.438,-18.555,47.363,134.277
1690122254.801,12.695,-10.742,-20.020,-24.902,32.715
1690122254.805,-47.363,-4.883,-17.090,-85.938,-199.219
1690122254.809,-55.664,-24.902,-24.902,-72.266,-256.348
1690122254.813,-42.969,-49.805,-35.645,-3.906,40.039
1690122254.817,4.395,-33.203,-33.203,42.969,370.117
1690122254.820,22.949,-3.418,-29.297,-15.625,130.371
1690122254.824,-33.691,-6.836,-23.926,-82.520,-288.574
1690122254.828,-43.457,-29.785,-21.973,-62.500,-235.840
1690122254.832,-24.902,-41.016,-21.484,6.836,53.223
1690122254.836,10.742,-28.809,-26.367,41.504,113.770
1690122254.852,24.902,-13.672,-32.715,-8.301,-109.375
1690122254.856,-27.344,-17.090,-31.250,-73.242,-128.906
1690122254.860,-40.527,-22.949,-20.996,-70.801,-20.996
1690122254.864,-38.574,-22.461,-15.625,-17.090,-50.781
1690122254.868,-15.137,-23.926,-20.508,35.645,27.832
1690122254.872,25.879,-28.809,-22.461,1.953,260.254
1690122254.876,-16.602,-25.391,-23.438,-78.125,290.039
1690122254.879,-42.969,-16.602,-30.273,-97.168,-203.613
1690122254.883,-32.227,-29.297,-32.715,-41.992,-263.672
1690122254.887,-16.602,-36.133,-22.461,31.738,113.281
1690122254.891,22.461,-18.066,-20.996,7.812,71.289
1690122254.895,-9.766,4.395,-25.879,-67.383,-217.285
1690122254.897,-52.246,-2.930,-28.320,-81.055,-270.508
1690122254.901,-49.805,-19.043,-31.250,-33.203,-163.574
1690122254.905,-27.344,-24.414,-35.156,27.344,30.273
1690122254.909,16.113,-17.578,-36.621,15.625,24.414
1690122254.913,-7.812,-19.531,-25.391,-51.270,-115.723
1690122254.917,-51.270,-26.855,-18.066,-73.242,-106.934
1690122254.921,-55.664,-27.344,-26.855,-41.992,-85.938
1690122254.924,-44.434,-33.203,-31.738,12.207,22.461
1690122254.928,2.441,-28.320,-22.461,16.602,113.770
1690122254.932,-13.672,-33.691,-21.484,-48.340,243.652
1690122254.936,-62.988,-27.832,-26.855,-91.309,76.660
1690122254.940,-64.941,-28.809,-30.273,-62.988,-157.227
1690122254.942,-41.504,-44.434,-25.879,18.066,136.230
1690122254.946,7.812,-28.320,-31.738,29.785,269.043
1690122254.950,-8.301,-11.719,-34.180,-52.734,-128.906
1690122254.954,-58.105,-16.602,-24.414,-96.680,-343.262
1690122254.958,-48.828,-28.809,-23.438,-61.035,-171.875
1690122254.962,-33.691,-40.527,-16.113,18.555,109.863
1690122254.966,-3.418,-35.156,-13.184,40.039,137.207
1690122254.969,-12.207,-32.227,-17.090,-39.062,-55.176
1690122254.973,-64.941,-50.293,-8.301,-87.402,86.914
1690122254.977,-76.660,-51.758,-5.371,-62.988,168.945
1690122254.981,-79.102,-39.062,-3.906,-4.883,-122.559
1690122254.985,-39.062,-46.875,-5.859,30.762,-81.055
1690122254.987,-20.996,-49.805,-8.301,-19.531,-36.133
1690122254.991,-86.914,-53.223,-2.441,-88.379,-229.492
1690122254.995,-103.027,-62.012,-4.395,-81.543,-318.359
1690122254.999,-83.496,-68.848,-6.836,-17.578,-99.121
1690122255.003,-48.340,-63.477,-1.953,27.344,86.914
1690122255.007,-28.320,-54.688,2.441,-18.555,-35.645
1690122255.011,-78.613,-47.852,3.418,-84.961,-262.695
1690122255.014,-83.008,-52.246,-2.441,-74.219,-221.191
1690122255.018,-55.176,-64.453,-4.883,-1.953,148.926
1690122255.022,-29.297,-51.758,-7.324,37.598,141.602
1690122255.026,-2.441,-40.527,-12.695,-20.508,-68.848
1690122255.030,-42.969,-47.852,-11.230,-83.008,11.719
1690122255.032,-71.777,-48.340,-15.137,-84.961,65.918
1690122255.036,-64.941,-36.621,-21.484,-32.715,-131.348
1690122255.040,-40.039,-48.340,-27.344,37.598,-65.430
1690122255.044,-0.488,-54.199,-21.973,14.160,9.766
1690122255.048,-34.668,-41.504,-11.230,-65.918,-118.164
1690122255.052,-69.824,-45.410,-10.254,-82.031,-158.203
1690122255.056,-58.105,-48.828,-16.113,-20.508,-126.465
1690122255.059,-33.203,-53.711,-18.555,50.293,208.984
1690122255.063,5.859,-51.270,-25.391,28.809,323.730
1690122255.067,-19.043,-35.645,-31.250,-45.898,-162.109
1690122255.071,-54.199,-33.203,-23.926,-75.684,-369.141
1690122255.075,-48.340,-34.668,-19.531,-41.016,-245.605
1690122255.078,-29.297,-41.016,-18.066,35.156,-3.906
1690122255.082,18.555,-36.133,-20.508,38.574,92.773
1690122255.086,0.488,-31.738,-31.250,-37.598,-65.430
1690122255.090,-50.781,-32.715,-31.738,-71.777,-145.996
1690122255.094,-50.293,-20.996,-25.879,-31.738,-183.594
1690122255.098,-35.156,-24.902,-26.367,35.156,-100.586
1690122255.102,15.625,-34.180,-16.113,46.875,208.496
1690122255.105,10.742,-34.668,-5.371,-21.973,305.664
1690122255.109,-49.805,-29.297,-12.695,-77.148,-121.582
1690122255.113,-46.387,-31.250,-12.207,-43.945,-356.445
1690122255.117,-23.438,-37.109,-7.324,33.203,1.465
1690122255.121,14.648,-26.367,-19.531,54.688,192.383
1690122255.122,7.812,-5.371,-26.855,-22.949,-125.977
1690122255.126,-44.434,-12.695,-16.113,-83.008,-313.965
1690122255.130,-57.617,-42.480,-20.996,-66.895,-132.324
1690122255.134,-62.500,-47.363,-35.156,-10.254,67.871
1690122255.138,-9.277,-22.949,-33.203,38.086,70.312
1690122255.142,10.254,-17.578,-24.902,-14.160,-38.086
1690122255.146,-42.969,-34.668,-10.254,-73.730,8.789
1690122255.149,-56.152,-38.086,-15.137,-60.547,186.035
1690122255.153,-52.734,-27.344,-25.879,-13.184,-34.180
1690122255.157,-12.695,-28.809,-20.020,39.062,-51.270
1690122255.161,17.090,-31.250,-18.066,-10.742,-68.848
1690122255.165,-38.086,-28.809,-16.113,-86.426,-251.953
1690122255.167,-67.871,-22.461,-25.391,-87.891,-324.219
1690122255.171,-52.734,-25.879,-28.809,-16.602,-177.734
1690122255.175,-19.043,-24.902,-23.438,45.898,86.914
1690122255.179,9.277,-18.066,-32.227,1.465,53.711
1690122255.183,-24.414,-22.461,-25.879,-74.707,-142.578
1690122255.187,-47.852,-33.691,-20.508,-96.680,-100.098
1690122255.191,-44.434,-41.992,-21.973,-33.203,127.930
1690122255.194,-10.742,-21.973,-14.648,45.410,233.887
1690122255.198,22.461,-7.812,-21.484,6.348,11.230
1690122255.202,-22.949,-34.668,-34.668,-83.496,-150.879
1690122255.206,-47.363,-49.316,-39.062,-95.215,84.473
1690122255.210,-47.852,-13.672,-41.016,-53.223,-1.953
1690122255.227,-32.715,10.742,-41.016,5.859,-62.012
1690122255.231,16.602,0.488,-40.527,-1.465,180.664
1690122255.235,-18.555,3.906,-46.387,-77.637,22.461
1690122255.239,-62.988,11.230,-49.805,-118.652,-313.477
1690122255.243,-48.828,-0.977,-48.828,-70.312,-236.328
1690122255.247,-30.762,-15.137,-57.129,4.883,104.004
1690122255.251,24.414,-11.230,-57.617,-2.441,216.309
1690122255.254,0.977,11.230,-46.875,-74.707,-17.578
1690122255.258,-57.617,17.578,-45.410,-112.793,-219.238
1690122255.262,-51.270,-1.465,-42.969,-69.336,14.648
1690122255.266,-30.273,-11.719,-39.062,13.184,266.602
1690122255.270,26.367,11.230,-37.109,21.973,22.461
1690122255.272,21.484,5.371,-40.039,-54.199,-147.461
1690122255.276,-31.250,-18.066,-46.387,-96.680,-260.254
1690122255.280,-32.227,-12.695,-49.316,-61.035,-281.250
1690122255.284,-17.090,-5.371,-35.645,18.555,-89.355
1690122255.288,31.250,-28.320,-38.086,47.852,190.430
1690122255.292,20.996,-36.133,-44.922,-29.297,134.277
1690122255.296,-51.758,-13.672,-31.250,-92.773,-166.016
1690122255.299,-51.758,-12.695,-21.973,-68.359,-256.348
1690122255.303,-21.484,-34.180,-11.719,16.113,-7.324
1690122255.307,11.719,-34.668,-11.230,58.105,353.516
1690122255.311,8.301,-9.766,-15.625,-17.090,171.387
1690122255.315,-41.016,5.859,-17.578,-79.590,-151.855
1690122255.317,-42.969,-15.625,-20.508,-56.641,-53.711
1690122255.321,-40.527,-37.598,-34.668,2.930,191.406
1690122255.325,-10.254,-38.086,-45.410,34.180,69.824
1690122255.329,29.785,-59.570,-39.062,-3.418,-136.719
1690122255.333,-12.207,-58.594,-37.598,-71.289,-219.727
1690122255.337,-39.551,-33.691,-33.203,-78.613,-228.516
1690122255.341,-50.293,-1.465,-15.625,-10.254,-125.000
1690122255.344,-26.855,-3.418,-18.066,42.480,27.344
1690122255.348,14.648,-10.742,-28.320,3.418,222.168
1690122255.352,-28.320,-1.465,-24.414,-71.777,77.148
1690122255.356,-48.828,-10.254,-17.090,-83.008,-342.773
1690122255.360,-34.668,-39.062,-17.090,-18.066,-178.223
1690122255.378,-12.207,-39.062,-22.461,41.992,50.293
1690122255.382,28.809,-30.273,-18.555,12.207,1.465
1690122255.386,-15.137,-23.926,-15.137,-65.918,-164.062
1690122255.390,-58.105,-20.508,-17.090,-79.102,-256.836
1690122255.394,-42.969,-22.461,-19.043,-18.066,-52.734
1690122255.398,-20.508,-20.020,-18.555,29.785,219.238
1690122255.402,13.184,-27.344,-19.531,8.301,208.008
1690122255.405,-17.090,-46.875,-20.020,-58.105,34.180
1690122255.409,-63.965,-48.340,-24.414,-88.867,71.777
1690122255.413,-57.129,-33.691,-28.809,-46.387,-8.301
1690122255.417,-26.367,-38.086,-25.879,36.621,18.555
1690122255.421,9.277,-35.645,-27.832,35.156,312.012
1690122255.407,-18.555,-7.324,-33.203,-50.293,151.367
1690122255.411,-62.500,6.836,-28.320,-90.332,-238.281
1690122255.415,-68.359,-9.277,-18.555,-60.059,-242.676
1690122255.419,-56.641,-34.668,-23.438,7.812,82.520
1690122255.423,-2.441,-37.598,-34.180,22.461,185.059
1690122255.427,-9.766,-20.508,-32.715,-50.781,24.414
1690122255.431,-69.336,-17.578,-24.902,-103.516,-65.918
1690122255.434,-75.195,-34.180,-26.367,-83.984,-100.586
1690122255.438,-45.410,-39.551,-29.785,-10.254,-28.809
1690122255.442,15.625,-36.621,-24.414,29.785,23.926
1690122255.446,12.207,-53.711,-22.949,-29.297,-111.816
1690122255.450,-51.270,-46.387,-21.484,-86.426,-6.348
1690122255.452,-61.523,-15.137,-22.949,-66.406,153.809
1690122255.456,-42.480,-1.953,-28.809,-1.465,-17.578
1690122255.460,6.348,-20.020,-29.297,34.180,61.035
1690122255.464,11.230,-27.344,-20.508,-25.391,14.648
1690122255.468,-42.480,-20.508,-6.348,-83.496,-180.176
1690122255.472,-56.641,-36.621,-8.301,-68.848,-170.898
1690122255.476,-47.363,-43.945,-16.113,-0.488,77.148
1690122255.479,-10.742,-51.758,-20.996,49.316,614.258
1690122255.483,-4.883,-23.926,-27.832,-12.695,397.461
1690122255.487,-58.594,1.953,-24.902,-89.355,-287.598
1690122255.491,-60.059,-22.461,-28.320,-74.707,-185.547
1690122255.495,-36.133,-27.344,-26.855,-9.766,62.012
1690122255.497,2.441,-22.461,-19.531,40.039,28.809
1690122255.501,20.996,-27.344,-19.043,-1.465,-20.996
1690122255.505,-28.320,-29.297,-18.066,-78.125,-91.309
1690122255.509,-51.270,-25.879,-11.230,-81.543,-225.098
1690122255.513,-48.340,-25.391,-17.090,-22.949,-298.340
1690122255.517,-24.414,-20.508,-26.855,37.598,-92.773
1690122255.521,14.160,-15.625,-24.414,5.859,163.086
1690122255.524,-20.508,-15.625,-20.020,-70.801,-57.129
1690122255.528,-59.570,-19.043,-20.996,-86.426,-354.492
1690122255.532,-46.387,-23.438,-20.020,-36.133,-221.191
1690122255.536,-18.066,-26.855,-17.578,31.250,9.277
1690122255.540,16.113,-21.484,-22.461,3.906,10.254
1690122255.542,-17.578,-10.742,-21.973,-88.867,-253.418
1690122255.546,-61.035,-17.090,-19.531,-112.305,-368.652
1690122255.550,-58.105,-43.945,-30.762,-56.152,6.348
1690122255.554,-33.203,-30.762,-38.086,13.184,209.961
1690122255.558,18.066,-0.488,-32.715,2.930,-52.246
1690122255.562,-1.465,-12.207,-24.414,-70.801,-94.727
1690122255.566,-42.480,-34.180,-23.438,-95.703,24.414
1690122255.569,-41.504,-44.922,-20.996,-54.688,-97.656
1690122255.573,-26.855,-34.180,-10.742,21.484,-111.816
1690122255.577,8.789,-22.461,-11.230,32.227,144.043
1690122255.581,-21.484,-26.367,-20.508,-50.293,186.523
1690122255.585,-66.895,-29.297,-28.320,-95.703,-41.992
1690122255.603,-69.824,-20.020,-24.414,-61.523,-187.012
1690122255.607,-55.664,-31.250,-21.973,17.090,73.242
1690122255.611,1.953,-45.898,-20.508,41.016,402.832
1690122255.615,12.207,-21.484,-14.648,-32.715,8.789
1690122255.619,-54.199,-15.625,-20.508,-90.332,-314.453
1690122255.623,-74.707,-30.762,-30.762,-65.918,-117.676
1690122255.627,-59.082,-35.156,-31.250,1.953,135.254
1690122255.630,-13.184,-29.297,-32.227,26.855,91.797
1690122255.634,4.883,-23.438,-33.691,-32.715,-108.398
1690122255.638,-48.828,-39.062,-33.691,-86.914,-18.066
1690122255.642,-70.312,-42.969,-36.621,-78.125,8.789
1690122255.646,-49.805,-42.480,-35.156,-12.207,-111.328
1690122255.635,-2.441,-45.898,-25.879,42.969,34.668
1690122255.639,8.301,-36.621,-24.902,-3.906,39.551
1690122255.643,-50.293,-30.273,-33.203,-76.660,-91.797
1690122255.647,-61.523,-26.367,-36.621,-74.707,-246.582
1690122255.651,-43.945,-46.387,-30.762,-2.930,-90.820
1690122255.655,-14.160,-56.152,-29.297,49.316,222.656
1690122255.659,14.648,-33.203,-30.762,6.348,131.836
1690122255.662,-29.785,-22.461,-21.973,-70.312,-176.270
1690122255.666,-60.059,-33.691,-17.090,-80.566,-239.746
1690122255.670,-43.457,-58.105,-20.020,-11.719,248.047
1690122255.674,-11.719,-44.434,-29.785,52.734,390.137
1690122255.678,17.090,-4.883,-33.203,12.207,3.906
1690122255.692,-18.066,-3.418,-16.113,-57.617,-99.121
1690122255.696,-49.805,-13.184,-17.578,-70.801,-179.199
1690122255.700,-39.551,-14.160,-27.832,-23.438,-258.301
1690122255.704,-8.301,-27.832,-19.043,43.457,-141.113
1690122255.708,33.203,-42.969,-25.391,27.344,205.566
1690122255.712,0.000,-41.992,-27.832,-40.527,417.480
1690122255.716,-48.340,-27.832,-24.414,-70.312,-68.848
1690122255.719,-40.039,-25.391,-30.762,-39.062,-323.242
1690122255.723,-20.508,-34.668,-27.344,32.715,50.293
1690122255.727,9.766,-20.020,-23.438,39.551,181.641
1690122255.731,-11.230,-7.324,-22.461,-43.945,-103.027
1690122255.735,-52.246,-23.926,-18.066,-91.309,-242.188
1690122255.737,-44.434,-38.574,-19.531,-44.922,-193.359
1690122255.741,-21.484,-34.180,-20.020,32.715,-29.297
1690122255.745,15.625,-25.879,-20.508,36.621,8.789
1690122255.749,-7.324,-22.949,-22.949,-38.574,-79.102
1690122255.753,-52.246,-25.879,-19.531,-80.566,-137.207
1690122255.757,-52.734,-35.156,-17.578,-50.781,-45.410
1690122255.761,-37.109,-28.809,-18.555,18.066,72.754
1690122255.764,14.160,-23.926,-18.066,32.227,101.074
1690122255.768,5.859,-40.039,-20.508,-31.250,285.645
1690122255.772,-48.340,-24.414,-28.320,-84.961,72.754
1690122255.776,-43.457,-5.371,-25.391,-62.988,-236.816
1690122255.780,-32.715,-20.996,-22.461,10.254,77.148
1690122255.782,6.836,-18.555,-23.926,37.109,191.406
1690122255.786,14.648,-13.672,-26.855,-23.926,-101.562
1690122255.790,-38.086,-18.555,-27.832,-82.520,-332.520
1690122255.794,-43.457,-33.691,-19.531,-67.383,-146.973
1690122255.798,-34.180,-45.898,-24.902,-3.418,114.258
1690122255.802,5.371,-42.969,-31.738,37.598,117.188
1690122255.806,12.695,-30.273,-33.203,-16.602,20.020
1690122255.809,-56.641,-26.855,-32.715,-87.402,-7.324
1690122255.813,-64.941,-26.855,-23.926,-85.938,-5.859
1690122255.817,-40.039,-14.648,-24.414,-28.320,-84.961
1690122255.821,-15.625,-21.973,-33.203,22.949,14.160
1690122255.825,3.418,-27.344,-29.785,-6.348,49.316
1690122255.827,-40.039,-29.785,-27.832,-74.219,-160.156
1690122255.831,-56.641,-31.738,-32.227,-86.426,-321.777
1690122255.835,-44.922,-32.227,-29.297,-25.879,-153.809
1690122255.839,-21.484,-32.227,-27.832,44.434,59.082
1690122255.843,11.719,-30.273,-23.926,5.859,12.695
1690122255.847,-28.809,-36.133,-16.602,-74.219,-140.137
1690122255.851,-62.500,-40.527,-20.020,-82.031,-107.422
1690122255.854,-50.293,-38.086,-21.973,-24.414,196.777
1690122255.858,-19.043,-26.855,-20.996,38.086,192.383
1690122255.862,15.625,-12.207,-16.602,16.602,-87.891
1690122255.866,-20.020,-29.785,-16.602,-53.711,-92.285
1690122255.870,-52.734,-43.457,-23.438,-77.148,9.277
1690122255.887,-57.129,-25.391,-25.879,-38.086,-82.520
1690122255.891,-40.039,-29.785,-21.484,26.367,-97.656
1690122255.895,5.859,-36.621,-12.695,26.855,127.441
1690122255.899,-25.391,-29.785,-17.578,-46.387,83.496
1690122255.903,-71.289,-24.414,-28.809,-77.148,-292.480
1690122255.907,-67.383,-28.809,-26.855,-37.109,-288.574
1690122255.911,-38.086,-32.227,-11.230,43.457,244.141
1690122255.914,3.906,-23.438,-10.742,45.410,406.250
1690122255.918,-18.066,-11.230,-20.020,-49.316,-124.512
1690122255.922,-63.965,-24.414,-19.531,-87.891,-329.102
1690122255.926,-60.059,-39.551,-21.484,-40.527,-268.066
1690122255.930,-25.391,-46.875,-27.344,14.648,-63.965
1690122255.918,23.438,-47.852,-26.367,12.207,29.785
1690122255.922,0.000,-32.715,-20.996,-44.922,-61.035
1690122255.926,-63.477,-17.578,-21.973,-92.285,-71.777
1690122255.930,-58.105,-21.484,-25.879,-67.383,-177.246
1690122255.934,-35.156,-29.785,-31.250,0.977,-107.910
1690122255.938,0.977,-41.016,-28.809,29.785,167.480
1690122255.942,3.906,-40.527,-31.738,-35.156,197.266
1690122255.945,-49.805,-26.367,-36.133,-103.027,-71.777
1690122255.949,-55.664,-26.855,-31.738,-81.543,-233.887
1690122255.953,-35.156,-43.457,-28.320,-6.836,-55.664
1690122255.957,8.789,-53.223,-18.555,43.457,518.555
1690122255.961,22.949,-26.367,-15.137,-3.418,375.488
1690122255.993,-39.551,-14.160,-12.207,-82.520,-275.391
1690122255.997,-51.758,-29.785,-10.254,-84.473,-293.945
1690122256.001,-38.574,-26.367,-20.508,-20.508,-101.562
1690122256.005,-10.254,-20.996,-23.926,32.227,44.922
1690122256.009,8.789,-20.996,-25.879,-10.742,-5.371
1690122256.013,-46.875,-31.738,-26.367,-73.730,173.828
1690122256.017,-61.035,-40.527,-22.461,-68.359,178.223
1690122256.020,-46.387,-24.902,-24.414,-19.043,-89.355
1690122256.024,-8.789,-21.484,-20.508,41.504,-7.812
1690122256.028,31.738,-32.227,-23.438,21.973,144.043
1690122256.032,-25.879,-24.902,-33.691,-58.594,-40.039
1690122256.036,-58.105,-17.090,-24.414,-86.914,-307.617
1690122256.022,-46.387,-30.762,-26.855,-35.156,-176.270
1690122256.026,-19.043,-41.016,-34.180,36.621,13.184
1690122256.030,22.461,-28.320,-21.973,16.602,7.812
1690122256.034,-21.973,-16.113,-15.625,-73.730,-184.082
1690122256.038,-53.223,-18.066,-13.672,-97.656,-245.117
1690122256.042,-45.410,-30.762,-13.184,-44.922,-49.316
1690122256.046,-32.227,-38.574,-18.066,24.414,139.648
1690122256.049,12.695,-34.180,-18.066,21.484,87.402
1690122256.053,-15.137,-31.738,-16.113,-52.246,-26.855
1690122256.057,-60.059,-37.598,-17.090,-85.938,-121.582
1690122256.061,-54.199,-33.203,-20.508,-45.898,-141.602
1690122256.065,-36.621,-32.227,-22.949,22.461,3.906
1690122256.067,11.230,-30.273,-18.555,33.691,126.465
1690122256.071,-10.742,-28.320,-12.695,-32.715,312.500
1690122256.075,-62.500,-10.742,-23.438,-89.355,152.344
1690122256.079,-58.594,-5.859,-27.344,-68.848,-195.312
1690122256.083,-50.781,-27.832,-21.973,5.371,-100.586
1690122256.087,5.859,-35.645,-26.367,26.855,119.141
1690122256.091,1.953,-27.344,-27.832,-40.527,13.184
1690122256.094,-64.453,-18.555,-30.273,-93.262,-309.570
1690122256.098,-57.617,-36.621,-29.785,-62.988,-61.523
1690122256.102,-39.062,-41.504,-24.414,11.230,267.578
1690122256.106,-1.465,-18.066,-27.344,38.086,42.969
1690122256.110,12.695,-17.578,-22.949,-20.020,-130.859
1690122256.112,-43.457,-37.109,-28.320,-80.078,-134.277
1690122256.116,-56.152,-31.250,-38.086,-64.941,-153.320
1690122256.120,-37.598,-21.973,-32.715,3.418,-142.090
1690122256.124,12.207,-26.855,-28.809,45.410,0.977
1690122256.128,26.855,-20.508,-29.297,-10.254,-25.879
1690122256.132,-39.062,-14.648,-29.785,-84.961,-124.512
1690122256.136,-45.410,-14.648,-24.414,-73.242,-160.645
1690122256.139,-24.414,-28.320,-20.020,2.441,-51.270
1690122256.143,-1.465,-38.086,-20.996,46.387,345.703
1690122256.147,11.230,-15.137,-26.367,-14.160,153.320
1690122256.151,-41.016,-7.324,-27.832,-78.125,-169.922
1690122256.155,-54.199,-25.391,-28.809,-73.242,49.805
1690122256.157,-34.668,-35.156,-24.902,-14.160,198.730
1690122256.161,-3.418,-31.738,-30.273,41.992,80.078
1690122256.165,25.391,-24.902,-34.180,12.207,-78.613
1690122256.169,-32.227,-24.414,-24.902,-62.012,-64.453
1690122256.173,-58.594,-35.645,-26.855,-80.566,-50.781
1690122256.177,-52.734,-40.039,-27.832,-23.438,-42.480
1690122256.181,-31.250,-33.203,-24.902,40.039,63.477
1690122256.184,10.742,-29.785,-20.508,12.695,201.660
1690122256.188,-26.367,-22.949,-12.207,-62.500,130.371
1690122256.192,-64.941,-18.066,-14.160,-91.309,-314.453
1690122256.196,-54.199,-30.762,-16.113,-36.621,-295.898
1690122256.200,-25.879,-33.691,-19.043,40.039,-17.090
1690122256.203,19.043,-29.785,-21.484,27.832,37.109
1690122256.207,-13.184,-34.180,-14.648,-56.641,-199.707
1690122256.211,-62.012,-52.734,-21.484,-96.191,-202.148
1690122256.215,-47.363,-52.246,-37.598,-57.129,-40.527
1690122256.219,-26.367,-28.320,-33.691,21.484,-35.645
1690122256.223,6.836,-18.066,-26.367,32.715,60.547
1690122256.227,-21.484,-16.602,-27.832,-46.387,110.352
1690122256.230,-73.730,-18.555,-22.949,-80.566,116.699
1690122256.234,-64.453,-13.184,-25.879,-48.340,-90.820
1690122256.238,-36.621,-20.020,-27.832,19.531,-145.996
1690122256.242,10.742,-38.086,-23.438,32.715,234.375
1690122256.246,-9.766,-31.250,-26.855,-49.316,150.879
1690122256.247,-65.430,-22.461,-26.855,-108.398,-318.359
1690122256.251,-43.945,-46.387,-24.902,-71.777,-371.582
1690122256.255,-25.391,-65.430,-26.855,0.977,-42.969
1690122256.259,-1.465,-44.922,-29.297,10.254,128.906
1690122256.263,-10.254,-28.809,-26.367,-54.199,-97.656
1690122256.267,-67.871,-27.344,-23.438,-100.586,-264.648
1690122256.271,-62.988,-31.250,-29.785,-74.219,53.223
1690122256.274,-29.297,-37.109,-28.809,-0.977,383.789
1690122256.278,4.395,-16.113,-23.438,32.715,148.438
1690122256.282,4.395,-13.184,-20.996,-26.367,-77.637
1690122256.286,-61.523,-31.738,-24.902,-99.121,-193.359
1690122256.290,-67.871,-33.691,-33.691,-88.867,-278.809
1690122256.292,-30.273,-27.832,-24.414,-5.371,-178.711
1690122256.296,4.883,-29.785,-15.137,47.852,62.500
1690122256.300,15.625,-40.527,-15.625,-18.066,40.039
1690122256.304,-52.734,-38.086,-21.973,-102.051,-173.340
1690122256.308,-75.684,-32.715,-24.414,-95.215,-362.793
1690122256.312,-42.480,-35.156,-13.672,-16.602,-100.098
1690122256.316,-11.719,-34.180,-15.625,48.340,414.062
1690122256.319,-5.859,-24.414,-28.320,-2.930,183.594
1690122256.323,-57.617,-11.230,-21.973,-91.309,-263.672
1690122256.327,-62.012,-25.879,-5.371,-91.309,-280.762
1690122256.331,-28.809,-47.852,-8.789,-20.508,51.270
1690122256.335,-6.348,-36.133,-18.555,39.551,92.773
1690122256.337,17.090,-21.973,-16.113,11.719,-117.676
1690122256.341,-37.109,-30.762,-12.695,-62.988,-91.797
1690122256.345,-74.707,-35.156,-17.090,-89.844,-83.496
1690122256.349,-41.992,-28.320,-19.531,-41.016,-225.586
1690122256.353,-9.766,-35.645,-21.973,42.969,-63.965
1690122256.357,20.020,-25.391,-29.297,32.227,114.746
1690122256.361,-38.574,-20.508,-25.879,-61.523,7.812
1690122256.364,-83.984,-23.926,-24.902,-100.098,-222.656
1690122256.368,-48.340,-20.996,-19.531,-46.875,-281.250
1690122256.372,-15.137,-37.109,-15.137,37.109,227.051
1690122256.376,13.184,-35.645,-24.414,25.391,429.688
1690122256.380,-25.879,-22.461,-30.273,-64.941,-120.605
1690122256.397,-69.824,-39.062,-29.785,-103.516,-335.938
1690122256.401,-51.270,-44.922,-22.949,-59.082,-77.637
1690122256.405,-18.066,-30.273,-14.160,24.414,117.676
1690122256.409,30.273,-19.043,-11.719,33.691,38.574
1690122256.413,10.742,-23.438,-13.184,-45.410,-52.246
1690122256.417,-57.617,-33.691,-21.484,-90.820,-94.238
1690122256.421,-47.852,-36.133,-30.273,-67.871,-84.473
1690122256.424,-13.672,-33.203,-25.391,-2.441,15.137
1690122256.428,20.020,-32.227,-13.672,34.668,134.766
1690122256.432,4.883,-32.227,-12.207,-28.809,147.949
1690122256.436,-70.801,-20.508,-21.973,-95.215,-93.262
1690122256.440,-66.406,-20.996,-24.414,-74.707,-288.574
1690122256.442,-38.086,-34.180,-27.344,7.812,13.672
1690122256.446,-14.160,-33.203,-32.715,47.363,386.719
1690122256.450,-15.137,-12.695,-32.715,-29.297,39.551
1690122256.454,-67.871,-18.066,-25.391,-91.797,-281.250
1690122256.458,-64.453,-27.344,-24.902,-72.754,-245.605
1690122256.462,-35.156,-20.508,-30.273,-5.859,-48.828
1690122256.466,-8.301,-16.602,-28.320,42.969,145.508
1690122256.469,-0.977,-14.160,-21.973,-10.742,16.113
1690122256.473,-51.270,-31.250,-20.020,-81.543,-40.527
1690122256.477,-64.941,-28.809,-20.996,-80.078,-43.945
1690122256.481,-38.574,-9.766,-24.902,-23.926,-230.469
1690122256.485,-7.812,-22.461,-25.391,34.180,-67.871
1690122256.487,1.953,-20.996,-23.438,-4.395,7.812
1690122256.491,-44.434,-10.742,-20.996,-81.055,-193.359
1690122256.495,-59.570,-15.625,-19.043,-82.520,-352.539
1690122256.499,-39.062,-29.297,-29.785,-28.809,-167.969
1690122256.503,-19.043,-33.203,-27.344,34.180,136.719
1690122256.507,1.465,-18.555,-23.438,6.836,114.258
1690122256.511,-39.551,-20.508,-30.762,-79.102,-121.094
1690122256.514,-63.477,-31.738,-24.902,-92.285,-155.762
1690122256.518,-40.527,-32.227,-22.461,-32.227,163.086
1690122256.522,-20.996,-20.020,-23.438,27.344,246.582
1690122256.526,10.254,-11.719,-19.043,13.184,83.496
1690122256.530,-15.137,-21.973,-16.113,-54.688,104.492
1690122256.547,-48.828,-32.227,-18.555,-83.008,-13.672
1690122256.551,-40.039,-25.391,-23.926,-40.527,-241.211
1690122256.555,-20.508,-20.996,-22.949,32.227,-86.914
1690122256.559,11.719,-16.113,-26.367,34.180,49.316
1690122256.563,-13.672,-14.648,-28.320,-37.598,-107.422
1690122256.567,-59.082,-20.996,-30.762,-85.449,-169.434
1690122256.571,-53.711,-16.113,-31.738,-57.617,-48.340
1690122256.574,-23.926,-26.855,-20.996,27.344,369.629
1690122256.578,20.020,-32.227,-20.020,42.969,580.078
1690122256.582,-9.277,-5.859,-25.391,-43.945,28.809
1690122256.586,-62.988,-19.531,-17.578,-90.820,-312.012
1690122256.590,-51.270,-39.062,-14.160,-58.594,-234.863
1690122256.577,-26.367,-38.574,-17.578,10.254,-58.105
1690122256.581,8.789,-29.785,-22.461,35.645,65.430
1690122256.585,-1.953,-19.531,-24.414,-33.203,-5.859
1690122256.589,-59.570,-18.555,-20.020,-86.914,-179.688
1690122256.593,-51.758,-25.879,-24.414,-65.918,-236.328
1690122256.597,-24.902,-30.273,-29.297,9.766,-31.250
1690122256.601,-4.883,-27.832,-35.645,45.410,293.457
1690122256.604,-0.977,-27.832,-22.949,-17.578,279.785
1690122256.608,-47.852,-20.508,-8.301,-83.984,-96.191
1690122256.612,-47.363,-14.648,-17.578,-76.172,-314.453
1690122256.616,-27.344,-37.109,-20.996,-7.324,-83.008
1690122256.620,-4.395,-60.547,-21.484,45.898,551.758
1690122256.622,0.977,-44.434,-31.250,-12.207,436.035
1690122256.626,-61.035,-25.879,-35.645,-92.285,-199.219
1690122256.630,-67.383,-33.203,-31.738,-88.379,-307.129
1690122256.634,-29.785,-39.062,-25.879,-19.531,-172.363
1690122256.638,6.348,-38.086,-20.508,44.922,8.789
1690122256.642,15.625,-28.809,-25.391,4.883,-25.879
1690122256.646,-42.480,-32.227,-28.320,-71.777,114.746
1690122256.649,-62.012,-35.645,-28.320,-75.684,147.461
1690122256.653,-41.992,-25.879,-31.250,-29.297,-171.387
1690122256.657,-13.184,-31.738,-28.320,22.949,-78.125
1690122256.661,7.324,-27.344,-28.809,-4.883,85.938
1690122256.665,-31.738,-14.160,-24.902,-76.172,-81.543
1690122256.670,-42.480,-15.625,-12.695,-87.891,-312.012
1690122256.674,-30.762,-30.762,-15.137,-34.668,-209.961
1690122256.678,-22.949,-36.133,-28.809,36.133,65.430
1690122256.682,2.930,-21.484,-27.344,15.137,83.496
1690122256.686,-33.203,-12.695,-28.809,-59.570,-169.922
1690122256.690,-65.430,-25.391,-27.344,-80.078,-187.500
1690122256.694,-51.270,-38.086,-26.855,-43.457,167.480
1690122256.697,-27.344,-34.668,-32.715,19.043,204.590
1690122256.701,5.859,-22.461,-35.156,19.531,19.043
1690122256.705,-10.742,-20.508,-31.738,-42.969,-55.664
1690122256.709,-53.711,-21.484,-22.461,-72.754,-65.430
1690122256.713,-50.781,-11.719,-16.113,-41.504,-157.715
1690122256.713,-22.949,-19.531,-10.254,20.508,-99.609
1690122256.717,13.184,-30.762,-8.301,27.832,193.848
1690122256.721,-6.836,-29.297,-12.695,-39.551,64.453
1690122256.725,-57.129,-23.438,-17.090,-83.984,-269.531
1690122256.729,-54.199,-28.320,-20.996,-60.059,-274.902
1690122256.733,-26.855,-39.551,-21.484,18.555,136.230
1690122256.737,18.555,-48.340,-20.996,54.688,729.492
1690122256.740,1.953,-26.855,-25.879,-25.879,405.273
1690122256.744,-61.035,-7.812,-26.367,-87.402,-270.020
1690122256.748,-52.734,-25.879,-28.809,-67.871,-315.918
1690122256.752,-33.691,-34.668,-30.273,-3.906,-131.348
1690122256.756,-6.348,-26.367,-27.344,40.527,-9.766
1690122256.772,-0.488,-24.414,-23.926,-18.066,-74.707
1690122256.776,-56.152,-26.855,-25.879,-87.402,-225.098
1690122256.780,-69.824,-31.738,-31.250,-73.242,-284.668
1690122256.784,-46.387,-32.715,-28.809,-5.859,-165.527
1690122256.788,-2.930,-32.227,-29.297,40.527,31.738
1690122256.792,5.371,-32.715,-27.832,-0.977,232.910
1690122256.796,-53.711,-24.414,-23.438,-73.730,14.160
1690122256.799,-58.105,-24.902,-25.879,-77.148,-277.832
1690122256.803,-34.180,-40.039,-25.391,-13.184,-104.980
1690122256.807,-7.324,-45.898,-23.926,39.062,269.531
1690122256.811,7.812,-20.996,-25.391,0.000,234.863
1690122256.815,-45.898,-10.254,-24.414,-75.195,-78.613
1690122256.832,-57.617,-31.738,-25.391,-84.473,-102.051
1690122256.836,-37.598,-45.410,-25.391,-26.855,65.918
1690122256.840,-17.578,-36.621,-24.414,24.902,18.555
1690122256.844,16.602,-33.691,-25.879,5.371,-16.113
1690122256.848,-24.414,-29.785,-25.879,-55.664,-121.094
1690122256.852,-61.523,-34.180,-33.203,-70.801,-222.168
1690122256.856,-54.688,-35.645,-35.645,-32.227,-104.004
1690122256.859,-25.879,-23.438,-27.344,28.320,36.133
1690122256.863,28.809,-23.926,-19.043,29.785,211.426
1690122256.867,-16.113,-26.855,-13.184,-42.969,249.512
1690122256.871,-75.684,-16.113,-9.277,-82.520,-150.879
1690122256.875,-63.477,-28.809,-7.324,-46.875,-282.227
1690122256.862,-38.086,-40.039,-8.789,15.625,-32.715
1690122256.866,2.441,-35.156,-18.066,15.137,18.555
1690122256.870,-24.902,-33.691,-24.902,-54.199,-173.340
1690122256.874,-67.871,-35.156,-24.414,-87.402,-265.625
1690122256.878,-57.129,-41.992,-25.391,-54.199,-209.961
1690122256.882,-38.574,-41.504,-24.414,13.184,9.277
1690122256.886,1.953,-31.250,-30.273,29.297,118.164
1690122256.889,-5.859,-41.016,-28.809,-32.715,31.738
1690122256.893,-54.688,-43.457,-24.902,-72.266,-60.547
1690122256.897,-61.035,-25.879,-26.367,-52.734,-225.098
1690122256.901,-52.246,-29.297,-27.832,4.395,-34.180
1690122256.905,-15.137,-33.691,-27.344,16.113,252.441
1690122256.907,-20.020,-36.133,-19.043,-39.551,415.527
1690122256.911,-83.008,-27.344,-22.949,-98.633,224.609
1690122256.915,-77.148,-19.043,-27.344,-91.797,-223.633
1690122256.919,-50.293,-29.785,-21.973,-17.578,-160.645
1690122256.923,-22.949,-27.832,-23.926,18.555,-6.348
1690122256.927,-10.742,-22.949,-25.391,-32.227,-47.363
1690122256.931,-47.852,-22.949,-24.414,-88.379,-106.934
1690122256.934,-59.570,-44.434,-23.438,-73.730,41.504
1690122256.938,-47.852,-60.059,-21.484,-6.836,140.137
1690122256.942,-13.672,-33.203,-26.855,33.691,-26.367
1690122256.946,3.418,-12.207,-29.785,-10.254,-80.078
1690122256.950,-45.410,-8.301,-22.949,-71.777,-102.051
1690122256.952,-50.293,-8.789,-20.508,-72.754,-191.895
1690122256.956,-28.809,-19.043,-26.855,-17.578,-193.848
1690122256.960,-5.859,-30.273,-28.320,39.551,14.648
1690122256.964,20.020,-26.855,-27.344,10.742,84.473
1690122256.968,-35.645,-24.902,-31.738,-67.871,-86.914
1690122256.972,-62.500,-30.273,-30.273,-83.008,-131.836
1690122256.976,-39.062,-42.969,-24.414,-30.273,73.730
1690122256.979,-16.602,-56.152,-23.438,22.949,409.668
1690122256.983,13.184,-30.762,-25.391,-0.977,249.023
1690122256.987,-23.926,-13.184,-28.809,-67.383,-221.191
1690122256.991,-49.316,-30.273,-25.879,-77.637,-138.672
1690122256.995,-36.133,-35.645,-22.949,-28.320,4.395
1690122256.998,-30.273,-30.762,-22.949,28.320,-70.312
1690122257.002,9.277,-26.367,-18.555,25.391,-31.738
1690122257.006,-16.602,-25.879,-16.113,-31.738,-7.812
1690122257.010,-62.012,-29.785,-17.578,-69.336,-80.078
1690122257.014,-47.852,-31.250,-18.066,-41.504,-221.680
1690122257.018,-26.367,-40.039,-22.461,24.414,-97.656
1690122257.022,21.484,-40.039,-22.949,35.156,290.039
1690122257.025,-2.930,-30.273,-27.832,-27.344,262.695
1690122257.029,-62.012,-17.578,-39.062,-82.031,-277.344
1690122257.033,-45.898,-26.367,-25.391,-55.664,-327.148
1690122257.037,-26.367,-35.645,-14.648,11.719,-81.543
1690122257.041,17.090,-23.926,-23.926,27.344,57.617
1690122257.042,14.648,-14.160,-23.926,-28.809,-131.836
1690122257.046,-32.227,-23.438,-8.789,-67.871,-278.809
1690122257.050,-30.762,-38.086,-8.789,-44.434,-202.637
1690122257.054,-24.902,-49.316,-15.625,6.348,-43.945
1690122257.058,13.184,-44.434,-18.555,23.438,57.617
1690122257.062,9.277,-35.645,-20.508,-26.855,61.523
1690122257.066,-53.711,-46.387,-18.066,-70.801,261.719
1690122257.069,-55.176,-36.621,-24.902,-62.988,123.047
1690122257.073,-40.039,-27.832,-27.832,-12.695,-145.020
1690122257.077,-11.719,-40.527,-28.320,20.020,29.297
1690122257.081,-4.883,-32.227,-28.320,-27.344,92.285
1690122257.085,-56.152,-21.484,-28.320,-80.566,-87.402
1690122257.087,-55.664,-22.949,-24.902,-63.965,-255.859
1690122257.091,-31.738,-49.316,-17.578,-0.488,-9.766
1690122257.095,-5.859,-54.688,-22.949,31.738,257.812
1690122257.099,-2.441,-27.344,-28.320,-16.602,-5.859
1690122257.103,-51.758,-25.391,-26.367,-71.289,-231.445
1690122257.107,-57.617,-35.645,-22.461,-65.918,-23.438
1690122257.111,-47.363,-36.621,-23.438,-21.973,125.488
1690122257.114,-20.996,-28.320,-25.879,25.879,166.016
1690122257.118,9.766,-16.113,-29.297,-3.906,67.871
1690122257.122,-41.016,-21.484,-27.344,-73.242,35.645
1690122257.126,-63.965,-21.484,-19.531,-78.613,39.062
1690122257.130,-41.016,-14.160,-22.949,-35.645,-199.219
1690122257.147,-14.648,-26.367,-27.832,23.926,-64.941
1690122257.151,14.160,-25.879,-19.043,8.789,-11.230
1690122257.155,-30.273,-12.207,-14.160,-57.129,-183.105
1690122257.159,-53.711,-10.254,-15.625,-73.242,-302.734
1690122257.163,-35.645,-31.250,-16.602,-41.016,-190.430
1690122257.167,-23.438,-45.898,-18.555,15.137,146.484
1690122257.171,12.695,-19.043,-20.020,8.301,144.043
1690122257.174,-11.719,2.930,-20.508,-62.988,-197.754
1690122257.178,-46.387,-9.277,-18.066,-83.496,-195.801
1690122257.182,-36.621,-24.902,-20.020,-34.668,234.863
1690122257.186,-25.391,-19.043,-24.414,16.602,278.809
1690122257.190,21.973,-11.230,-28.809,10.742,35.156
1690122257.192,1.953,-23.438,-31.738,-42.480,-19.531
1690122257.196,-52.734,-27.344,-20.508,-74.707,-20.020
1690122257.200,-49.316,-12.207,-15.625,-54.199,-265.625
1690122257.204,-38.574,-22.949,-18.555,6.348,-211.426
1690122257.208,6.836,-32.227,-20.020,21.973,47.363
1690122257.212,-5.371,-23.926,-27.344,-32.715,56.152
1690122257.216,-58.105,-15.137,-28.809,-77.148,-103.027
1690122257.219,-49.805,-17.090,-19.043,-67.871,-249.512
1690122257.223,-34.668,-35.645,-17.578,-3.418,42.480
1690122257.227,12.695,-24.414,-13.184,31.250,281.738
1690122257.231,18.555,12.207,-9.277,-23.926,-64.453
1690122257.235,-45.898,-5.371,-14.160,-81.543,-142.578
1690122257.237,-43.457,-24.902,-20.020,-79.590,-39.551
1690122257.241,-34.668,-28.320,-28.320,-31.250,-9.277
1690122257.245,6.836,-25.879,-33.203,-3.418,18.555
1690122257.249,9.277,-12.207,-26.367,-52.734,-30.273
1690122257.253,-76.660,-11.230,-19.531,-117.188,-170.898
1690122257.257,-82.031,-14.160,-11.230,-106.445,-143.066
1690122257.261,-78.125,-26.367,-13.184,-56.641,-33.691
1690122257.264,-80.566,-35.156,-32.715,-43.457,95.215
1690122257.268,-88.867,-36.621,-42.969,-93.750,282.227
1690122257.272,-170.410,-15.625,-45.898,-179.688,-14.160
1690122257.276,-195.801,29.785,-15.625,-201.172,-283.691
1690122257.280,-183.594,30.762,13.672,-152.832,7.812
1690122257.284,-163.574,0.488,-2.441,-113.770,198.730
1690122257.288,-143.555,-7.324,-28.320,-151.367,27.344
1690122257.292,-174.805,-16.602,-25.879,-216.797,-190.430
1690122257.296,-189.941,-21.973,-13.184,-224.609,-151.855
1690122257.300,-188.477,-7.812,-18.555,-164.551,-12.207
1690122257.304,-147.949,-9.766,-19.531,-92.773,63.965
1690122257.308,-91.797,-5.859,-11.230,-101.074,61.523
1690122257.311,-123.535,-6.348,-14.160,-163.086,61.035
1690122257.315,-154.297,-11.719,-22.949,-175.781,14.648
1690122257.319,-124.512,-12.695,-23.926,-123.535,-210.449
1690122257.323,-74.219,-20.508,-14.160,-35.156,-90.332
1690122257.327,-26.367,-20.508,-23.438,-34.668,2.930
1690122257.327,-45.898,-9.766,-29.297,-88.379,-167.969
1690122257.331,-70.312,-8.789,-26.855,-89.355,-285.645
1690122257.335,-58.594,-29.785,-26.855,-44.922,-183.105
1690122257.339,-22.461,-44.922,-28.320,34.180,-0.977
1690122257.343,39.551,-39.062,-32.227,57.129,76.172
1690122257.347,7.324,-42.969,-33.203,-8.789,-26.367
1690122257.351,-42.969,-54.688,-32.715,-51.270,-168.457
1690122257.354,-23.926,-67.871,-29.785,-17.090,166.016
1690122257.358,-1.953,-62.500,-28.320,44.434,296.387
1690122257.362,54.199,-40.039,-27.832,65.918,-59.082
1690122257.366,51.758,-48.340,-24.414,24.902,-5.371
1690122257.370,-6.836,-54.199,-21.973,-12.207,1.465
1690122257.372,4.883,-52.246,-27.832,9.277,-200.195
1690122257.376,28.809,-53.711,-34.180,77.637,-96.680
1690122257.380,72.266,-47.852,-41.016,106.934,110.840
1690122257.384,67.871,-38.086,-38.574,43.945,-1.465
1690122257.388,13.672,-31.738,-20.508,-7.324,-231.445
1690122257.392,14.160,-40.039,-19.043,9.766,-198.730
1690122257.396,32.715,-57.129,-24.902,65.430,243.164
1690122257.399,68.848,-55.176,-20.508,99.609,535.645
1690122257.403,71.289,-35.645,-23.438,45.898,32.715
1690122257.407,12.207,-37.109,-25.879,-14.648,-346.680
1690122257.411,8.301,-52.246,-26.367,-5.859,-243.164
1690122257.415,24.902,-57.617,-25.879,48.828,-113.281
1690122257.417,50.293,-46.387,-27.344,87.402,-35.645
1690122257.421,66.895,-37.109,-23.438,54.199,-20.508
1690122257.425,7.324,-30.273,-21.973,-6.348,-170.898
1690122257.429,-13.672,-31.738,-29.785,-21.484,-263.184
1690122257.433,6.836,-45.410,-29.785,27.832,-213.379
1690122257.437,29.785,-60.059,-30.273,77.148,99.609
1690122257.441,46.387,-61.035,-34.668,40.039,377.930
1690122257.444,-1.465,-40.039,-31.250,-31.250,41.504
1690122257.448,-17.578,-35.645,-25.391,-41.016,-304.688
1690122257.452,-0.488,-50.781,-21.484,10.742,-33.691
1690122257.456,10.742,-57.617,-20.996,67.383,298.828
1690122257.460,36.621,-45.898,-28.809,37.109,149.414
1690122257.492,-1.465,-33.203,-27.344,-42.480,-179.199
1690122257.496,-25.879,-46.875,-22.461,-52.734,-189.453
1690122257.500,-12.695,-59.570,-27.832,-8.301,-9.766
1690122257.504,4.395,-46.875,-32.227,39.551,-11.230
1690122257.508,48.828,-36.133,-27.344,33.203,-13.184
1690122257.512,17.578,-38.086,-28.809,-28.809,-33.691
1690122257.516,-27.832,-39.551,-29.297,-57.617,-68.359
1690122257.519,-19.531,-38.086,-30.762,-27.832,-123.047
1690122257.523,-3.418,-36.133,-33.691,39.551,-62.988
1690122257.527,42.480,-46.875,-31.250,49.805,247.559
1690122257.531,18.555,-36.621,-28.809,-20.020,174.316
1690122257.535,-36.133,-22.461,-20.996,-58.594,-221.680
1690122257.538,-50.781,-31.250,-29.785,-73.242,-215.332
1690122257.542,-61.523,-42.480,-20.996,-58.594,-65.430
1690122257.546,-45.410,-37.109,-22.949,-0.488,24.414
1690122257.549,-4.883,-25.391,-26.855,18.555,14.160
1690122257.553,2.441,-28.320,-21.973,-24.902,31.250
1690122257.557,-46.875,-27.832,-19.043,-68.359,-61.523
1690122257.561,-46.387,-27.344,-22.949,-64.941,-149.414
1690122257.565,-29.297,-37.598,-23.438,-0.488,-43.457
1690122257.568,16.602,-35.156,-16.602,43.457,77.637
1690122257.572,25.391,-45.410,-15.625,5.859,356.445
1690122257.576,-47.852,-38.574,-27.832,-56.641,103.027
1690122257.580,-55.664,-21.973,-32.715,-66.406,-341.797
1690122257.584,-33.691,-34.668,-25.879,0.488,-89.844
1690122257.588,-3.906,-39.062,-28.809,41.504,197.754
1690122257.592,18.066,-23.438,-28.320,-6.836,100.098
1690122257.595,-20.996,-10.742,-25.391,-58.594,-170.898
1690122257.599,-40.039,-30.273,-27.344,-51.270,-77.148
1690122257.603,-28.809,-39.551,-20.508,-1.465,147.949
1690122257.607,-3.906,-23.926,-17.090,35.645,-24.902
1690122257.611,14.160,-25.879,-22.949,0.000,-96.680
1690122257.612,-30.762,-20.020,-20.020,-62.500,-221.191
1690122257.616,-45.410,-20.020,-14.648,-68.359,-309.082
1690122257.620,-35.156,-37.598,-18.555,-24.902,-240.723
1690122257.624,-15.137,-48.828,-20.996,28.809,-14.160
1690122257.628,38.086,-36.621,-24.414,20.996,81.543
1690122257.632,-12.695,-21.484,-32.227,-42.969,-12.207
1690122257.636,-62.012,-20.508,-29.785,-70.801,-74.219
1690122257.639,-43.457,-23.926,-22.461,-34.180,-54.688
1690122257.643,-23.438,-40.039,-17.578,24.414,355.957
1690122257.647,8.301,-29.785,-22.461,10.254,310.059
1690122257.651,-18.555,-15.625,-20.020,-56.152,-159.180
1690122257.655,-55.664,-33.203,-14.648,-74.219,-86.426
1690122257.657,-46.387,-42.969,-22.461,-39.062,-23.926
1690122257.661,-21.484,-41.016,-22.461,12.695,-101.074
1690122257.665,13.672,-30.762,-18.555,10.254,-85.938
1690122257.669,-16.113,-35.156,-23.926,-50.781,-45.898
1690122257.673,-68.359,-40.527,-30.273,-82.031,-139.160
1690122257.677,-58.105,-37.109,-28.320,-55.664,-226.562
1690122257.681,-31.738,-30.762,-20.508,2.930,-79.102
1690122257.684,18.555,-33.691,-17.090,26.855,373.047
1690122257.688,3.418,-35.645,-22.461,-34.668,434.082
1690122257.692,-60.059,-17.090,-27.344,-91.797,-180.176
1690122257.696,-56.641,-25.391,-25.391,-64.941,-331.055
1690122257.700,-39.551,-33.203,-29.785,2.930,-69.336
1690122257.702,-0.488,-24.414,-24.902,27.832,90.332
1690122257.706,1.465,-19.043,-20.020,-28.320,-47.852
1690122257.710,-55.176,-22.461,-22.461,-73.730,-231.445
1690122257.714,-60.059,-33.691,-19.043,-51.270,-234.375
1690122257.718,-36.621,-41.016,-25.879,-6.836,-157.715
1690122257.722,5.859,-28.809,-25.391,22.949,47.852
1690122257.726,10.254,-20.996,-20.996,-15.625,128.906
1690122257.729,-41.504,-31.738,-20.996,-66.895,145.996
1690122257.733,-54.199,-30.273,-28.809,-67.383,-54.688
1690122257.737,-38.574,-32.715,-31.738,-14.648,-157.227
1690122257.741,-2.441,-42.969,-19.043,36.133,199.707
1690122257.745,6.348,-39.062,-15.625,-4.883,392.578
1690122257.747,-42.480,-19.531,-19.043,-71.289,-14.160
1690122257.751,-62.012,-29.297,-24.414,-78.125,-310.547
1690122257.755,-48.828,-45.410,-23.438,-26.855,-145.020
1690122257.759,-19.531,-32.227,-24.414,31.250,9.766
1690122257.763,6.348,-27.832,-35.645,5.371,-46.387
1690122257.767,-32.715,-33.691,-30.762,-55.664,-179.688
1690122257.771,-47.363,-45.410,-20.996,-64.941,27.344
1690122257.774,-42.480,-45.410,-18.066,-23.438,185.547
1690122257.778,-29.785,-28.809,-20.996,16.113,-43.457
1690122257.782,11.230,-22.949,-25.391,-10.742,-115.234
1690122257.786,-33.691,-26.855,-29.297,-73.730,-119.141
1690122257.790,-66.895,-34.668,-24.902,-90.332,-173.340
1690122257.793,-47.852,-41.504,-21.484,-51.758,-144.531
1690122257.797,-26.367,-39.062,-20.508,11.230,-26.855
1690122257.801,18.555,-32.715,-16.602,12.207,115.234
1690122257.805,-14.160,-21.973,-18.066,-51.758,-8.789
1690122257.809,-53.223,-16.602,-11.230,-76.660,-263.672
1690122257.813,-42.480,-37.598,-16.113,-44.922,-109.375
1690122257.817,-30.762,-54.199,-30.273,18.555,375.488
1690122257.820,9.277,-37.109,-26.855,20.996,262.207
1690122257.824,-21.973,-20.020,-28.320,-46.387,-166.992
1690122257.828,-67.383,-18.555,-28.320,-74.219,-227.051
1690122257.832,-55.664,-28.809,-22.949,-45.410,-30.762
1690122257.836,-32.715,-34.180,-26.367,9.277,23.438
1690122257.852,13.184,-26.855,-25.391,24.414,-73.242
1690122257.856,1.465,-28.320,-21.484,-28.809,7.324
1690122257.860,-52.246,-34.180,-24.414,-68.848,32.227
1690122257.864,-59.082,-33.203,-20.996,-56.641,-149.902
1690122257.868,-27.832,-32.715,-16.602,3.418,-153.809
1690122257.872,16.113,-37.598,-22.949,35.645,262.207
1690122257.876,7.812,-38.574,-30.762,-14.648,389.648
1690122257.879,-48.340,-19.531,-29.297,-74.707,-109.863
1690122257.883,-62.988,-22.461,-28.809,-70.312,-238.770
1690122257.887,-41.992,-42.480,-26.367,-7.324,12.207
1690122257.891,-0.488,-42.969,-24.414,22.949,141.113
1690122257.895,0.000,-24.414,-24.902,-25.879,-46.387
1690122257.897,-64.941,-20.508,-22.461,-85.449,-250.488
1690122257.901,-73.242,-28.809,-23.926,-85.449,-262.207
1690122257.905,-51.758,-33.691,-25.391,-25.391,-146.484
1690122257.909,-13.184,-30.273,-23.438,16.602,-75.195
1690122257.913,16.602,-21.484,-19.043,-14.648,-43.457
1690122257.917,-29.785,-17.578,-17.090,-61.035,-14.160
1690122257.921,-47.363,-20.020,-26.367,-74.707,-101.074
1690122257.924,-25.391,-33.203,-32.227,-17.090,-66.895
1690122257.928,-6.836,-43.945,-31.250,42.480,88.379
1690122257.932,-2.930,-42.969,-23.926,0.000,339.844
1690122257.936,-58.105,-27.344,-10.742,-77.637,165.039
1690122257.940,-94.238,-22.461,-9.766,-101.562,-291.992
1690122257.942,-78.125,-36.621,-8.789,-48.828,-178.711
1690122257.946,-48.340,-45.898,-17.578,7.812,199.219
1690122257.950,-27.832,-40.527,-23.926,-21.973,37.109
1690122257.954,-78.613,-39.062,-10.742,-98.145,-262.695
1690122257.958,-116.699,-42.969,-10.742,-122.070,-238.281
1690122257.962,-102.051,-47.363,-19.043,-74.219,-49.805
1690122257.966,-76.172,-45.410,-28.320,-17.578,113.770
1690122257.969,-29.297,-34.668,-27.832,-25.879,14.160
1690122257.973,-38.086,-41.992,-20.020,-75.195,23.438
1690122257.977,-83.984,-46.875,-19.531,-97.168,151.855
1690122257.981,-77.637,-26.855,-14.648,-62.988,-94.238
1690122257.985,-38.086,-31.738,-12.695,9.277,-98.145
1690122257.987,3.418,-36.133,-16.113,11.719,48.828
1690122257.991,-21.484,-19.043,-12.695,-53.711,-107.422
1690122257.995,-68.359,-23.438,-16.113,-89.844,-244.629
1690122257.999,-67.383,-48.828,-26.367,-68.848,-179.688
1690122258.003,-51.270,-57.617,-28.320,-3.906,-36.133
1690122258.007,-3.418,-37.109,-26.367,15.625,105.469
1690122258.011,-9.766,-23.926,-25.879,-43.945,43.945
1690122258.014,-66.895,-36.133,-21.484,-84.961,-85.938
1690122258.018,-65.918,-53.711,-24.414,-55.176,104.004
1690122258.022,-47.363,-50.781,-32.715,4.395,145.020
1690122258.026,3.418,-40.527,-23.926,26.367,58.105
1690122258.030,4.395,-44.434,-15.625,-24.902,65.918
1690122258.047,-68.848,-53.223,-27.344,-86.426,44.434
1690122258.051,-64.941,-35.156,-27.344,-79.102,-162.109
1690122258.055,-23.926,-25.879,-15.625,0.488,-227.051
1690122258.059,7.324,-36.621,-35.156,37.598,-34.668
1690122258.063,-1.465,-32.227,-34.180,-24.902,-54.688
1690122258.067,-52.734,-28.809,-15.137,-81.055,-148.438
1690122258.071,-50.781,-35.156,-21.484,-70.312,-121.094
1690122258.074,-34.668,-44.922,-26.367,-10.254,174.805
1690122258.078,-8.301,-42.480,-22.949,36.133,383.301
1690122258.082,15.137,-19.531,-22.949,3.418,29.297
1690122258.086,-20.508,-21.484,-23.926,-45.898,-238.281
1690122258.090,-37.598,-31.738,-19.531,-53.711,-215.820
1690122258.078,-37.109,-33.691,-19.531,-20.020,-47.363
1690122258.082,-10.254,-24.902,-20.020,19.043,44.922
1690122258.086,8.301,-21.973,-27.344,-16.113,-21.484
1690122258.090,-38.086,-29.785,-27.344,-84.961,-47.852
1690122258.094,-62.012,-30.273,-23.926,-104.492,-161.621
1690122258.098,-54.199,-37.598,-31.738,-59.570,-141.602
1690122258.102,-18.555,-41.016,-34.668,5.859,252.930
1690122258.105,16.113,-37.109,-22.949,-17.578,333.008
1690122258.109,-28.809,-37.109,-26.367,-86.914,-116.699
1690122258.113,-60.059,-40.039,-43.457,-96.680,-328.125
1690122258.117,-47.852,-50.781,-32.227,-35.645,-121.094
1690122258.121,-30.273,-75.684,-17.578,33.203,454.102
1690122258.122,-1.953,-47.363,-22.461,5.371,394.043
1690122258.126,-31.250,-18.066,-22.461,-68.848,-150.391
1690122258.130,-62.500,-37.109,-15.625,-77.637,-187.012
1690122258.134,-51.758,-51.758,-22.461,-37.598,-126.465
1690122258.138,-28.320,-46.387,-33.203,20.020,-75.684
1690122258.142,17.090,-32.715,-36.621,20.996,-13.184
1690122258.146,3.418,-34.180,-25.879,-35.645,98.633
1690122258.149,-53.223,-42.480,-27.344,-75.684,188.965
1690122258.153,-57.129,-24.902,-39.551,-58.594,-108.398
1690122258.157,-26.367,-26.855,-24.902,20.020,-170.410
1690122258.161,14.160,-40.527,-20.508,31.738,-49.316
1690122258.165,-2.930,-38.574,-26.367,-34.668,-164.062
1690122258.167,-60.059,-35.645,-27.344,-90.820,-292.480
1690122258.171,-75.684,-41.992,-33.203,-72.754,-264.648
1690122258.175,-61.523,-48.340,-35.156,-5.371,-72.754
1690122258.179,-14.160,-37.109,-31.738,13.672,52.246
1690122258.183,-9.277,-23.926,-25.879,-40.039,-84.961
1690122258.187,-42.480,-20.996,-17.090,-70.801,-157.715
1690122258.191,-54.199,-35.645,-22.949,-60.059,83.008
1690122258.194,-47.852,-39.062,-39.551,-16.113,136.719
1690122258.198,-5.371,-23.926,-41.016,20.020,8.789
1690122258.202,-0.488,-33.691,-32.227,-25.391,-13.672
1690122258.206,-49.805,-48.340,-27.832,-73.730,87.891
1690122258.210,-59.570,-36.133,-31.250,-72.754,-94.727
1690122258.212,-43.457,-36.621,-24.414,-15.137,-210.938
1690122258.216,-5.859,-42.480,-24.902,37.109,113.770
1690122258.220,11.719,-22.949,-28.809,-13.672,117.676
1690122258.224,-29.297,-0.977,-31.738,-77.148,-210.938
1690122258.228,-39.551,-7.812,-31.738,-63.965,-304.688
1690122258.232,-35.156,-39.062,-24.902,-6.836,-21.484
1690122258.236,-14.160,-48.340,-31.250,31.250,181.152
1690122258.239,12.695,-22.461,-26.367,1.465,20.996
1690122258.243,-27.832,-13.672,-10.254,-54.199,-171.875
1690122258.247,-57.617,-40.039,-10.742,-66.895,-39.062
1690122258.251,-45.410,-46.875,-12.695,-14.648,151.855
1690122258.255,-8.301,-26.855,-19.043,41.504,23.926
1690122258.272,30.273,-25.879,-26.367,21.973,-10.254
1690122258.276,-10.742,-28.809,-16.602,-42.969,-150.391
1690122258.280,-50.781,-20.508,-16.113,-62.012,-265.137
1690122258.284,-47.852,-17.090,-29.785,-24.902,-213.379
1690122258.288,-19.043,-24.902,-25.879,32.715,-34.180
1690122258.292,16.113,-27.344,-20.508,23.438,166.992
1690122258.296,-17.578,-20.996,-26.855,-54.688,90.332
1690122258.299,-57.617,-15.625,-24.902,-79.590,-174.805
1690122258.303,-49.316,-28.809,-17.578,-30.273,-183.105
1690122258.307,-21.484,-34.668,-21.973,34.180,194.824
1690122258.311,17.578,-18.066,-31.738,20.020,220.215
1690122258.315,-7.324,-10.742,-28.809,-49.805,-47.363
1690122258.317,-45.898,-20.508,-25.879,-75.684,-61.523
1690122258.321,-42.480,-45.898,-31.250,-47.852,55.664
1690122258.325,-26.367,-37.598,-34.668,11.230,-5.859
1690122258.329,11.230,-17.578,-30.273,22.949,-66.895
1690122258.333,-15.625,-13.184,-32.715,-44.434,-108.398
1690122258.337,-57.129,-9.766,-38.086,-83.496,-120.605
1690122258.341,-47.852,-17.578,-29.785,-60.547,-96.191
1690122258.344,-32.715,-21.484,-29.297,0.488,-118.164
1690122258.348,20.508,-22.949,-24.902,38.086,199.707
1690122258.352,12.207,-19.043,-16.602,-20.996,258.789
1690122258.356,-49.316,0.000,-17.578,-89.355,-220.215
1690122258.360,-42.969,-6.836,-20.020,-67.871,-343.750
1690122258.362,-30.273,-30.273,-25.879,8.301,-74.707
1690122258.366,4.883,-25.879,-28.320,36.133,165.039
1690122258.370,15.137,-9.766,-28.809,-26.855,-30.273
1690122258.374,-36.621,-17.578,-38.574,-81.543,-227.539
1690122258.378,-38.574,-20.020,-42.969,-59.082,-129.883
1690122258.382,-23.926,-19.531,-34.668,1.465,96.680
1690122258.386,-4.883,-30.273,-28.809,26.855,150.879
1690122258.389,0.000,-28.809,-19.531,-21.484,62.988
1690122258.393,-45.898,-21.484,-12.207,-78.125,112.793
1690122258.397,-58.105,-15.625,-24.414,-79.102,-61.523
1690122258.401,-38.086,-29.297,-25.879,-13.184,-149.902
1690122258.405,-6.836,-40.527,-21.484,42.969,218.750
1690122258.407,11.230,-25.391,-19.043,-0.488,275.391
1690122258.411,-38.086,-5.859,-18.555,-82.031,-142.090
1690122258.415,-55.176,-9.277,-24.414,-86.426,-331.543
1690122258.419,-32.227,-26.855,-23.926,-17.090,4.883
1690122258.423,2.930,-22.949,-24.902,52.734,249.512
1690122258.427,26.367,-6.348,-22.461,21.484,56.152
1690122258.431,-20.020,-2.930,-20.020,-57.129,-173.340
1690122258.434,-45.410,-24.902,-19.531,-59.570,-100.586
1690122258.438,-39.551,-34.668,-25.879,-11.719,114.746
1690122258.442,-18.066,-12.207,-30.762,38.086,15.625
1690122258.446,23.438,-10.254,-25.391,24.902,-3.906
1690122258.450,-14.648,-11.230,-21.484,-42.969,-77.637
1690122258.452,-53.711,-7.812,-19.043,-69.336,-200.195
1690122258.456,-40.527,-21.973,-18.555,-30.762,-136.719
1690122258.460,-18.555,-36.133,-20.020,35.645,28.809
1690122258.464,22.461,-23.926,-25.391,29.785,102.539
1690122258.468,-9.766,-18.555,-35.156,-48.340,-61.035
1690122258.472,-54.199,-25.879,-28.809,-74.219,-237.793
1690122258.476,-43.945,-35.645,-17.090,-32.227,-127.441
1690122258.479,-21.484,-60.059,-24.414,43.945,476.562
1690122258.483,16.602,-41.504,-35.156,48.340,503.418
1690122258.487,-9.277,-14.160,-35.645,-34.668,-129.883
1690122258.491,-46.875,-23.438,-27.344,-72.266,-129.883
1690122258.495,-44.922,-20.508,-20.996,-43.945,11.719
1690122258.497,-40.527,-17.578,-31.738,10.742,-61.035
1690122258.501,0.000,-18.066,-38.086,19.531,-50.293
1690122258.505,-5.859,-23.926,-33.203,-37.109,-3.906
1690122258.509,-53.711,-19.531,-32.227,-78.125,-53.223
1690122258.513,-51.270,-14.160,-30.762,-60.547,-242.188
1690122258.517,-36.133,-27.344,-25.391,1.465,-116.699
1690122258.521,1.953,-45.410,-32.227,37.109,288.574
1690122258.524,14.648,-41.504,-28.809,-12.207,301.270
1690122258.528,-46.387,-19.531,-17.578,-80.078,-139.648
1690122258.532,-63.965,-32.227,-26.367,-78.125,-298.828
1690122258.536,-42.480,-46.875,-28.320,-9.277,-101.562
1690122258.540,0.000,-28.809,-22.461,36.133,86.914
1690122258.542,15.137,-9.277,-16.602,-8.789,-90.332
1690122258.546,-37.109,-18.066,-14.160,-65.918,-252.930
1690122258.550,-46.387,-19.531,-14.648,-60.547,-246.582
1690122258.554,-28.320,-19.043,-17.578,-0.977,-146.973
1690122258.558,3.418,-28.809,-19.043,44.922,8.301
1690122258.562,20.996,-34.668,-25.879,1.953,76.660
1690122258.566,-27.832,-40.039,-29.785,-56.641,110.840
1690122258.569,-47.363,-31.250,-22.949,-64.453,-67.871
1690122258.573,-29.785,-28.320,-23.438,-22.461,-200.195
1690122258.577,-3.418,-40.527,-31.250,34.180,36.621
1690122258.581,20.508,-35.156,-27.344,7.812,174.805
1690122258.585,-28.809,-15.137,-23.438,-63.965,-56.152
1690122258.588,-56.152,-13.672,-29.297,-84.473,-256.836
1690122258.592,-41.504,-29.785,-26.855,-34.180,-106.934
1690122258.596,-24.902,-42.480,-22.461,28.320,296.875
1690122258.600,9.766,-24.414,-20.508,4.395,110.352
1690122258.604,-15.137,-13.184,-23.438,-64.941,-272.461
1690122258.608,-47.852,-31.738,-27.344,-80.078,-118.164
1690122258.612,-51.270,-44.434,-22.949,-42.480,58.594
1690122258.615,-38.574,-31.250,-17.578,10.254,8.301
1690122258.619,12.207,-15.625,-14.648,10.254,-51.270
1690122258.623,-14.160,-21.973,-17.090,-54.199,-35.156
1690122258.627,-68.359,-26.367,-20.996,-89.355,-97.656
1690122258.631,-50.293,-22.949,-23.438,-52.734,-253.418
1690122258.647,-25.879,-26.367,-25.879,19.043,-88.379
1690122258.651,8.301,-27.344,-33.203,14.648,184.082
1690122258.655,-1.953,-18.066,-33.691,-54.199,12.207
1690122258.659,-56.152,-14.648,-25.879,-85.449,-233.398
1690122258.663,-54.688,-29.297,-25.879,-56.641,-138.184
1690122258.667,-26.855,-51.270,-29.785,17.090,151.855
1690122258.671,19.043,-42.969,-25.391,41.504,250.977
1690122258.674,12.695,-15.625,-24.902,-20.508,-28.809
1690122258.678,-43.457,-14.648,-22.461,-67.871,-217.285
1690122258.682,-46.875,-30.273,-15.137,-49.316,-0.977
1690122258.686,-42.969,-31.738,-22.461,10.254,91.309
1690122258.690,-6.836,-21.484,-33.203,40.527,40.039
1690122258.692,14.160,-21.484,-28.809,-1.465,34.668
1690122258.696,-56.641,-30.273,-20.996,-64.453,-77.148
1690122258.700,-82.520,-30.762,-16.113,-72.754,-270.996
1690122258.704,-59.570,-42.969,-16.113,-16.113,-130.859
1690122258.708,-28.320,-52.734,-20.996,23.438,298.340
1690122258.712,-22.461,-41.504,-17.090,-24.414,285.645
1690122258.716,-70.801,-34.668,-10.742,-84.961,-120.117
1690122258.719,-83.984,-38.574,-8.789,-83.496,-318.848
1690122258.723,-72.754,-55.664,-16.113,-24.902,-14.648
1690122258.727,-39.551,-51.270,-18.066,21.484,284.180
1690122258.731,-15.137,-22.461,-18.066,-16.602,-21.973
1690122258.735,-47.363,-20.508,-22.949,-69.824,-219.727
1690122258.739,-64.453,-28.320,-22.949,-77.637,-271.484
1690122258.743,-57.617,-42.969,-16.113,-26.367,-217.773
1690122258.747,-21.973,-41.992,-15.625,37.109,-63.477
1690122258.751,11.230,-31.250,-21.973,10.254,3.418
1690122258.755,-25.391,-29.297,-23.926,-64.453,-90.332
1690122258.759,-56.641,-41.016,-25.391,-78.613,-107.422
1690122258.763,-60.547,-52.734,-30.762,-31.250,-88.379
1690122258.766,-29.785,-44.434,-28.320,30.762,-1.465
1690122258.770,17.578,-43.945,-13.184,28.320,376.465
1690122258.774,-20.508,-30.762,-7.324,-43.457,243.652
1690122258.778,-61.035,-18.066,-15.625,-73.730,-226.074
1690122258.782,-41.504,-32.715,-17.090,-28.320,-80.566
1690122258.782,-15.625,-34.180,-21.973,30.273,146.484
1690122258.786,18.555,-15.137,-25.391,25.879,56.152
1690122258.790,-3.906,-13.672,-19.531,-34.180,-138.184
1690122258.794,-44.434,-31.250,-18.555,-64.453,-145.020
1690122258.798,-45.410,-40.527,-24.902,-41.016,-119.629
1690122258.802,-24.902,-43.945,-32.715,25.879,42.969
1690122258.806,18.555,-33.203,-30.273,39.551,225.098
1690122258.809,1.953,-31.738,-14.648,-20.508,124.023
1690122258.813,-45.410,-49.805,-16.113,-50.293,336.426
1690122258.817,-53.223,-38.574,-29.785,-38.574,125.000
1690122258.821,-29.297,-25.391,-23.438,26.855,-198.242
1690122258.825,22.461,-22.949,-17.090,57.129,-35.156
1690122258.842,15.625,-14.160,-18.066,-18.066,-121.582
1690122258.846,-38.086,-8.789,-18.066,-71.777,-309.082
1690122258.850,-41.016,-18.555,-19.531,-50.293,-272.949
1690122258.854,-26.367,-32.715,-22.949,15.137,-110.352
1690122258.858,9.277,-28.320,-21.484,42.480,-8.789
1690122258.862,12.695,-21.484,-17.578,-14.648,-21.973
1690122258.866,-40.527,-20.996,-16.602,-67.383,-86.914
1690122258.869,-47.363,-32.227,-24.414,-54.688,83.496
1690122258.873,-30.762,-30.762,-35.156,-5.859,105.957
1690122258.877,6.836,-25.879,-25.879,21.484,-38.086
1690122258.881,14.648,-31.738,-19.043,-20.996,35.645
1690122258.885,-49.316,-35.156,-20.996,-77.637,-49.316
1690122258.872,-75.684,-35.645,-25.879,-87.402,-217.773
1690122258.876,-53.711,-28.809,-25.879,-33.691,-176.270
1690122258.880,-14.160,-35.156,-22.461,28.809,118.652
1690122258.884,-0.488,-29.297,-22.461,-10.742,270.996
1690122258.888,-48.828,-16.113,-27.344,-85.449,-103.516
1690122258.892,-70.312,-35.156,-32.227,-91.309,-210.449
1690122258.896,-61.035,-49.316,-32.227,-45.410,76.660
1690122258.899,-33.203,-40.527,-31.738,6.348,191.895
1690122258.903,-4.883,-26.367,-36.621,-14.160,6.348
1690122258.907,-36.621,-18.066,-32.715,-77.148,-245.117
1690122258.911,-56.152,-32.715,-25.391,-79.590,-92.285
1690122258.915,-53.223,-48.340,-28.809,-36.133,121.582
1690122258.918,-33.203,-36.133,-23.438,17.090,-78.125
1690122258.922,5.371,-28.320,-28.320,4.395,19.043
1690122258.926,-29.297,-28.320,-43.457,-62.988,74.707
1690122258.930,-73.730,-27.832,-38.086,-89.355,-180.664
1690122258.934,-62.988,-27.344,-27.344,-50.293,-230.957
1690122258.938,-28.320,-42.969,-19.531,10.742,38.086
1690122258.942,14.160,-48.828,-9.277,5.859,333.984
1690122258.945,-19.043,-32.227,-15.137,-68.848,100.098
1690122258.949,-62.500,-23.438,-21.484,-104.980,-314.453
1690122258.953,-58.594,-36.621,-21.484,-66.895,-178.711
1690122258.957,-41.016,-46.387,-21.484,3.906,182.129
1690122258.961,-6.836,-28.320,-22.461,13.184,70.312
1690122258.977,-19.531,-13.184,-29.297,-53.711,-187.012
1690122258.981,-66.406,-29.785,-34.668,-86.914,-137.695
1690122258.985,-64.941,-44.434,-33.691,-57.617,11.230
1690122258.989,-42.969,-33.203,-27.832,12.695,-30.273
1690122258.993,-1.953,-32.227,-27.344,34.668,65.430
1690122258.997,-11.230,-39.551,-28.320,-31.738,203.125
1690122259.001,-58.594,-36.621,-23.926,-77.637,135.742
1690122259.004,-55.664,-17.090,-20.996,-65.430,-229.980
1690122259.008,-37.109,-20.508,-20.996,2.441,-238.281
1690122259.012,6.836,-22.461,-23.438,39.062,11.230
1690122259.016,13.672,-11.230,-21.484,-20.020,-47.852
1690122259.020,-40.527,-17.578,-25.391,-78.125,-222.656
1690122259.022,-42.969,-24.414,-20.996,-64.941,-247.559
1690122259.026,-27.832,-28.320,-20.996,-7.812,-66.895
1690122259.030,2.930,-31.738,-23.438,23.926,67.871
1690122259.034,19.043,-25.879,-18.066,-32.227,-74.219
1690122259.038,-38.086,-24.902,-23.438,-95.215,-212.891
1690122259.042,-59.082,-28.809,-25.879,-77.148,-106.445
1690122259.046,-45.898,-31.738,-23.438,-13.184,59.082
1690122259.049,-17.090,-30.273,-24.414,35.645,155.273
1690122259.053,5.859,-20.996,-18.555,3.418,87.891
1690122259.057,-42.969,-27.832,-13.672,-54.688,207.520
1690122259.061,-62.988,-24.414,-26.367,-67.383,165.527
1690122259.065,-48.828,-10.254,-30.273,-29.785,-188.965
1690122259.067,-20.020,-24.414,-29.785,37.598,1.953
1690122259.071,9.277,-27.344,-29.297,12.695,166.504
1690122259.075,-39.062,-15.137,-25.391,-70.312,-173.828
1690122259.079,-65.430,-22.949,-22.461,-78.613,-342.285
1690122259.083,-48.340,-26.855,-22.461,-20.996,-135.742
1690122259.087,-20.508,-23.926,-21.484,35.645,66.406
1690122259.091,19.531,-21.973,-20.508,18.555,129.883
1690122259.094,-17.578,-17.578,-24.414,-50.781,-111.328
1690122259.098,-60.059,-41.016,-20.020,-71.777,-58.105
1690122259.102,-52.734,-51.758,-17.090,-32.227,327.637
1690122259.106,-28.809,-26.855,-18.066,19.531,85.449
1690122259.110,26.855,-19.043,-7.812,19.531,-76.660
1690122259.112,-7.324,-24.902,-16.602,-47.852,-154.297
1690122259.116,-61.035,-22.949,-28.320,-84.473,-320.801
1690122259.120,-52.246,-16.602,-22.461,-45.410,-281.738
1690122259.124,-38.574,-26.367,-22.461,23.438,-46.387
1690122259.128,4.883,-30.273,-23.438,35.645,73.730
1690122259.132,-10.742,-25.879,-19.531,-32.715,-31.738
1690122259.136,-60.059,-25.391,-22.949,-79.590,-137.695
1690122259.139,-41.016,-36.621,-22.461,-40.039,-144.531
1690122259.143,-13.672,-49.316,-20.020,33.203,258.301
1690122259.147,3.906,-35.156,-28.809,24.414,275.879
1690122259.151,-17.090,-29.785,-28.320,-51.758,-77.148
1690122259.155,-67.383,-40.039,-18.555,-91.309,-13.672
1690122259.157,-70.312,-44.922,-18.555,-75.684,97.168
1690122259.161,-56.152,-29.297,-12.695,-16.113,-53.711
1690122259.165,-17.090,-19.531,-3.418,19.531,-69.336
1690122259.169,-16.602,-35.156,-14.160,-41.504,-61.523
1690122259.173,-75.684,-40.527,-21.484,-103.027,-197.754
1690122259.177,-83.984,-41.992,-13.672,-86.426,-187.988
1690122259.181,-62.988,-46.875,-14.648,-23.438,-101.074
1690122259.184,-25.879,-49.316,-24.414,16.602,212.891
1690122259.188,-14.648,-40.527,-28.809,-25.391,281.738
1690122259.192,-59.082,-23.926,-31.738,-83.496,-207.520
1690122259.196,-64.941,-37.109,-23.438,-76.172,-317.871
1690122259.200,-42.480,-48.340,-18.555,-12.695,-98.145
1690122259.203,-8.301,-37.109,-22.461,30.762,39.062
1690122259.207,17.090,-20.996,-12.695,-14.160,20.508
1690122259.211,-28.320,-24.902,-15.137,-73.242,-93.262
1690122259.215,-58.594,-32.227,-27.832,-80.078,-80.566
1690122259.219,-42.480,-25.879,-24.414,-28.809,-1.953
1690122259.223,-10.742,-29.297,-19.531,31.250,65.430
1690122259.227,20.508,-35.645,-18.555,4.883,182.617
1690122259.230,-19.043,-39.551,-17.090,-58.105,217.773
1690122259.234,-48.340,-23.438,-16.602,-66.895,-81.055
1690122259.238,-40.039,-18.555,-20.020,-20.508,-337.402
1690122259.242,-16.602,-40.039,-27.344,42.480,58.594
1690122259.246,23.926,-33.203,-23.926,32.715,288.574
1690122259.247,-16.602,-17.578,-20.020,-46.387,-126.465
1690122259.251,-55.176,-27.832,-16.602,-71.777,-350.586
1690122259.255,-39.551,-47.363,-17.578,-23.926,-182.617
1690122259.259,-20.020,-44.434,-26.367,32.715,13.672
1690122259.263,13.184,-30.762,-29.785,18.066,87.402
1690122259.267,-15.625,-28.809,-26.855,-50.293,20.020
1690122259.271,-57.129,-44.434,-26.855,-76.660,104.004
1690122259.274,-54.688,-54.199,-31.250,-39.062,318.848
1690122259.278,-32.227,-35.156,-30.762,23.926,114.258
1690122259.282,18.066,-30.762,-21.973,30.273,-49.316
1690122259.286,2.441,-33.203,-24.902,-39.551,-122.559
1690122259.290,-48.828,-38.086,-40.039,-90.820,-219.238
1690122259.292,-53.711,-44.922,-35.645,-67.383,-270.508
1690122259.296,-33.691,-42.969,-21.484,5.859,-140.625
1690122259.300,7.812,-34.180,-13.672,26.855,89.355
1690122259.304,-3.906,-20.508,-16.113,-36.133,5.371
1690122259.308,-58.105,-23.438,-22.949,-84.961,-226.074
1690122259.312,-59.082,-40.039,-26.367,-60.059,-187.012
1690122259.316,-40.039,-53.223,-23.926,8.789,214.844
1690122259.319,3.418,-38.574,-22.461,32.227,281.250
1690122259.323,7.812,-22.949,-17.090,-26.855,-73.242
1690122259.327,-52.734,-35.156,-13.672,-78.613,-213.867
1690122259.331,-64.941,-51.758,-19.043,-63.477,54.688
1690122259.335,-51.758,-41.504,-28.809,-6.348,84.473
1690122259.337,-11.719,-26.367,-32.715,30.273,-56.152
1690122259.341,2.930,-30.273,-20.020,-12.207,31.250
1690122259.345,-54.688,-40.039,-23.438,-76.172,-47.852
1690122259.349,-65.430,-38.086,-33.203,-78.613,-257.812
1690122259.353,-50.781,-34.668,-23.926,-17.578,-175.781
1690122259.357,-21.484,-33.691,-21.484,35.645,145.508
1690122259.361,6.348,-22.949,-19.043,1.465,172.363
1690122259.364,-46.875,-14.648,-14.648,-72.754,-53.223
1690122259.368,-66.895,-16.602,-18.066,-82.520,-221.191
1690122259.372,-45.410,-32.227,-18.066,-13.672,110.840
1690122259.376,-25.391,-45.410,-16.113,41.992,451.172
1690122259.380,12.207,-26.367,-12.695,17.090,54.688
1690122259.385,-22.949,-13.672,-12.695,-46.387,-247.559
1690122259.389,-56.152,-20.508,-22.949,-78.125,-287.109
1690122259.393,-45.898,-23.926,-30.762,-35.156,-180.664
1690122259.397,-21.484,-18.066,-28.809,27.832,-13.184
1690122259.401,23.926,-14.648,-25.879,15.137,49.805
1690122259.405,-4.883,-9.766,-27.832,-55.664,31.738
1690122259.409,-43.457,-8.301,-33.691,-86.426,-98.633
1690122259.412,-41.016,-10.742,-34.668,-49.805,-170.898
1690122259.416,-21.973,-12.207,-34.180,10.742,20.508
1690122259.420,26.367,-9.766,-36.133,12.695,287.109
1690122259.424,-3.418,0.977,-36.133,-59.082,86.914
1690122259.428,-43.457,-6.836,-32.715,-93.750,-135.742
1690122259.442,-34.668,-25.879,-29.297,-53.223,-32.227
1690122259.446,-25.879,-22.461,-30.762,12.695,61.523
1690122259.450,15.137,-2.930,-37.598,17.578,13.672
1690122259.454,1.953,0.977,-38.574,-48.340,-182.129
1690122259.458,-45.410,-12.207,-32.227,-80.566,-166.504
1690122259.462,-46.387,-26.855,-29.785,-44.922,265.625
1690122259.466,-28.320,-12.695,-31.250,7.324,253.906
1690122259.469,17.090,5.371,-26.367,19.531,6.348
1690122259.473,0.488,-9.277,-28.809,-37.109,26.367
1690122259.477,-59.570,-18.555,-40.039,-87.402,-100.098
1690122259.481,-54.688,-20.020,-37.109,-61.035,-329.102
1690122259.485,-34.668,-34.180,-24.902,8.301,-158.203
1690122259.503,8.301,-31.738,-21.973,33.691,21.484
1690122259.507,15.137,-18.066,-24.414,-20.996,-133.789
1690122259.511,-39.062,-15.137,-22.949,-69.824,-269.531
1690122259.515,-35.645,-25.879,-24.902,-50.781,-265.137
1690122259.519,-21.484,-31.738,-27.344,13.672,-53.711
1690122259.523,13.672,-16.113,-26.855,51.270,237.793
1690122259.527,21.973,-2.930,-26.367,-1.465,81.543
1690122259.530,-36.621,-7.812,-20.508,-65.430,-197.266
1690122259.534,-46.387,-32.715,-21.973,-61.523,26.855
1690122259.538,-33.203,-32.715,-23.926,-7.324,76.660
1690122259.542,3.906,-18.555,-24.902,45.410,38.574
1690122259.546,31.250,-20.508,-22.949,11.230,213.867
1690122259.532,-26.855,-16.113,-24.902,-66.406,8.789
1690122259.536,-50.781,-11.719,-30.762,-75.684,-266.602
1690122259.540,-34.180,-25.391,-23.438,-14.648,-220.703
1690122259.544,-2.441,-45.898,-19.531,49.316,151.855
1690122259.548,37.109,-36.621,-22.949,20.996,294.434
1690122259.552,-10.254,-7.324,-26.367,-60.059,-7.812
1690122259.556,-42.969,-16.113,-29.297,-73.730,-175.293
1690122259.559,-30.762,-35.156,-16.602,-20.996,-74.219
1690122259.563,-15.625,-32.715,-16.113,32.227,35.645
1690122259.567,13.184,-17.578,-21.484,6.348,-61.523
1690122259.571,-25.391,-9.277,-14.648,-61.035,-236.328
1690122259.575,-56.641,-32.715,-14.160,-74.219,-7.812
1690122259.577,-46.875,-45.410,-26.367,-33.691,271.973
1690122259.581,-33.691,-38.086,-34.668,21.484,41.016
1690122259.585,7.324,-38.086,-30.762,16.113,-9.277
1690122259.589,-16.113,-32.715,-29.297,-49.316,-91.797
1690122259.593,-51.270,-22.949,-29.297,-76.172,-263.672
1690122259.597,-50.293,-28.809,-31.738,-43.457,-208.984
1690122259.601,-36.133,-39.551,-34.668,18.066,-22.949
1690122259.604,16.113,-56.641,-23.926,33.203,457.031
1690122259.608,-6.348,-45.898,-18.066,-38.086,354.004
1690122259.612,-57.129,-20.020,-22.949,-88.379,-335.449
1690122259.616,-50.293,-33.203,-24.902,-52.734,-215.820
1690122259.620,-38.574,-41.992,-27.344,9.766,172.852
1690122259.622,10.254,-23.438,-29.297,20.508,9.766
1690122259.626,7.812,-20.508,-27.832,-36.621,-191.406
1690122259.630,-52.246,-36.621,-29.297,-82.031,-215.332
1690122259.634,-43.457,-33.691,-27.832,-63.477,-187.500
1690122259.638,-28.320,-26.855,-19.531,3.906,-70.801
1690122259.642,0.977,-32.227,-26.367,32.227,75.684
1690122259.646,4.883,-38.574,-27.832,-22.949,194.336
1690122259.649,-48.828,-31.250,-24.414,-74.219,106.445
1690122259.653,-51.758,-18.555,-33.203,-68.359,-226.074
1690122259.657,-35.156,-34.668,-27.344,-4.395,-183.594
1690122259.661,5.371,-43.945,-20.020,32.715,155.762
1690122259.665,17.090,-31.738,-18.066,-20.508,95.703
1690122259.667,-41.504,-24.414,-22.461,-75.684,-226.562
1690122259.671,-47.363,-28.320,-28.809,-66.406,-290.039
1690122259.675,-38.574,-31.738,-17.578,-8.789,-58.594
1690122259.679,-14.160,-25.879,-12.207,36.621,98.633
1690122259.683,15.137,-17.090,-20.508,0.000,-13.672
1690122259.687,-40.039,-21.484,-18.066,-66.406,-55.664
1690122259.691,-61.523,-34.668,-15.137,-69.824,112.305
1690122259.694,-49.316,-24.902,-20.020,-18.066,6.836
1690122259.698,-24.414,-19.043,-26.855,31.738,-125.488
1690122259.702,15.625,-30.273,-30.762,5.371,-45.898
1690122259.706,-29.785,-31.250,-28.320,-61.035,-56.152
1690122259.710,-58.594,-22.949,-17.578,-73.730,-209.473
1690122259.713,-43.457,-32.715,-10.742,-22.461,-181.152
1690122259.717,-19.531,-37.598,-7.324,42.480,123.047
1690122259.721,18.555,-17.578,-7.812,20.508,307.129
1690122259.725,-24.902,-5.859,-15.625,-61.035,-41.992
1690122259.729,-62.012,-16.113,-23.438,-77.637,-292.480
1690122259.733,-47.852,-28.809,-23.926,-22.461,-80.078
1690122259.737,-27.832,-29.297,-21.973,37.598,123.535
1690122259.740,14.160,-18.066,-22.461,22.461,53.223
1690122259.744,-6.348,-16.602,-17.578,-46.875,-204.102
1690122259.748,-38.086,-37.598,-13.672,-65.918,-50.781
1690122259.752,-41.016,-44.434,-22.949,-34.668,77.637
1690122259.756,-23.926,-31.250,-33.203,20.996,-50.781
1690122259.772,22.461,-27.832,-32.715,25.391,12.695
1690122259.776,-3.906,-24.414,-24.902,-39.551,-68.359
1690122259.780,-52.246,-22.461,-21.973,-72.754,-158.691
1690122259.784,-48.828,-22.461,-23.926,-43.457,-171.387
1690122259.788,-21.484,-25.879,-21.973,23.926,-72.754
1690122259.792,24.902,-30.762,-24.902,47.363,359.863
1690122259.796,5.859,-24.414,-29.785,-20.508,259.277
1690122259.799,-55.664,-11.230,-29.785,-74.707,-204.590
1690122259.803,-51.758,-19.043,-40.527,-51.758,-190.430
1690122259.807,-32.227,-38.086,-40.039,7.812,87.402
1690122259.811,4.883,-21.973,-25.879,28.809,172.363
1690122259.815,0.488,-14.648,-25.391,-33.203,-17.578
1690122259.817,-51.758,-26.855,-24.902,-79.102,-112.305
1690122259.821,-50.293,-34.180,-19.043,-63.965,-23.926
1690122259.825,-39.551,-26.855,-21.484,-13.184,-61.035
1690122259.829,1.953,-24.414,-25.391,29.297,-5.371
1690122259.833,11.230,-22.949,-27.344,-24.902,27.832
1690122259.837,-48.340,-10.742,-26.367,-86.426,-111.328
1690122259.841,-56.641,-12.695,-24.414,-80.566,-207.031
1690122259.844,-42.480,-23.438,-24.414,-20.020,-97.656
1690122259.848,-12.207,-41.504,-23.926,36.621,221.680
1690122259.852,11.719,-42.480,-27.832,-11.230,379.883
1690122259.856,-36.621,-21.973,-31.738,-79.590,-96.680
1690122259.860,-53.223,-31.250,-28.320,-74.707,-350.098
1690122259.863,-44.434,-37.598,-20.996,-24.414,-137.207
1690122259.867,-14.648,-29.785,-23.926,29.297,19.043
1690122259.871,18.066,-20.020,-22.461,2.441,-16.602
1690122259.875,-18.555,-21.484,-20.020,-63.477,-146.973
1690122259.879,-51.270,-29.785,-31.250,-78.125,-196.289
1690122259.883,-48.828,-27.832,-25.391,-29.297,-87.891
1690122259.887,-15.137,-25.879,-17.090,37.109,93.262
1690122259.890,19.043,-23.926,-15.625,15.137,104.980
1690122259.894,-20.508,-33.203,-19.043,-56.641,230.469
1690122259.898,-60.059,-30.273,-23.438,-84.961,105.469
1690122259.902,-48.828,-27.832,-22.461,-47.852,-165.039
1690122259.906,-20.020,-39.551,-19.043,31.738,112.305
1690122259.907,26.367,-27.832,-18.555,26.855,227.051
1690122259.911,-2.930,-15.137,-20.996,-53.711,-158.691
1690122259.915,-55.176,-24.902,-22.949,-81.543,-366.211
1690122259.919,-51.270,-32.715,-27.344,-44.434,-234.863
1690122259.923,-33.203,-33.691,-27.344,19.531,-85.449
1690122259.927,4.395,-29.297,-28.809,18.555,58.594
1690122259.931,-13.184,-24.902,-29.785,-52.246,-13.672
1690122259.934,-59.082,-41.016,-28.809,-78.125,-18.555
1690122259.938,-60.059,-44.922,-27.832,-43.945,88.379
1690122259.942,-43.457,-32.227,-23.438,5.859,-6.348
1690122259.946,4.395,-36.621,-21.484,16.602,69.824
1690122259.950,-4.883,-30.762,-25.879,-45.410,98.633
1690122259.952,-60.059,-32.227,-23.438,-89.844,-110.840
1690122259.956,-58.105,-36.133,-18.555,-69.824,-276.855
1690122259.960,-37.109,-34.668,-16.113,5.859,-99.121
1690122259.964,-1.953,-32.715,-19.043,31.250,105.957
1690122259.968,-1.465,-29.785,-25.391,-30.762,-31.738
1690122259.972,-43.945,-30.273,-26.367,-66.895,-168.457
1690122259.976,-57.617,-31.250,-26.855,-64.941,-145.508
1690122259.979,-45.410,-45.898,-26.855,-13.672,169.434
1690122259.983,-8.301,-35.645,-26.367,16.113,249.512
1690122259.987,2.441,-6.348,-26.367,-41.992,-135.254
1690122259.991,-34.668,-13.672,-23.926,-93.262,-162.109
1690122259.995,-44.922,-24.902,-27.832,-92.285,-25.879
1690122259.998,-32.715,-21.484,-35.156,-35.645,-59.570
1690122260.002,10.742,-11.719,-36.133,6.836,16.113
1690122260.006,27.832,-6.348,-32.227,-36.133,121.094
1690122260.010,-28.809,-10.254,-30.762,-85.938,0.488
1690122260.014,-48.828,-10.742,-29.785,-87.402,-270.508
1690122260.018,-42.969,-30.273,-30.273,-29.785,-162.598
1690122260.022,-14.648,-46.387,-24.414,41.504,323.730
1690122260.025,22.949,-30.273,-22.461,18.555,432.129
1690122260.029,-19.531,-10.742,-32.715,-64.941,-121.094
1690122260.033,-44.922,-23.926,-33.203,-73.242,-303.223
1690122260.037,-38.574,-31.250,-28.320,-13.184,-126.465
1690122260.041,-13.184,-26.367,-27.344,44.922,10.254
1690122260.042,9.766,-18.555,-25.391,20.020,-44.922
1690122260.046,-31.250,-14.160,-20.508,-53.223,-121.582
1690122260.050,-55.664,-18.066,-18.066,-74.219,-162.109
1690122260.054,-48.340,-17.090,-22.461,-32.715,-171.875
1690122260.058,-20.508,-26.367,-21.973,29.297,-41.504
1690122260.062,29.297,-44.922,-19.043,23.438,46.387
1690122260.066,-1.953,-39.551,-21.484,-38.086,273.438
1690122260.069,-52.246,-19.531,-26.367,-73.242,115.723
1690122260.073,-61.523,-7.812,-31.250,-54.199,-317.383
1690122260.077,-31.738,-24.902,-29.297,14.160,-105.469
1690122260.081,30.273,-34.668,-29.785,24.902,123.047
1690122260.085,0.488,-21.973,-31.738,-44.434,-2.441
1690122260.087,-57.617,-13.672,-26.367,-78.125,-250.488
1690122260.091,-58.594,-28.320,-23.926,-45.410,-126.953
1690122260.095,-45.898,-47.363,-24.414,10.254,191.895
1690122260.099,0.000,-29.785,-29.785,19.531,106.934
1690122260.103,-5.859,-18.555,-29.785,-40.039,-107.422
1690122260.107,-53.711,-38.574,-24.902,-75.195,22.461
1690122260.111,-58.594,-43.457,-24.902,-53.223,168.457
1690122260.114,-45.410,-33.691,-22.461,6.348,94.727
1690122260.118,3.906,-33.691,-20.508,35.645,0.000
1690122260.122,9.766,-43.457,-20.996,-14.160,72.266
1690122260.126,-51.758,-40.039,-18.555,-71.777,47.852
1690122260.130,-64.453,-31.250,-20.508,-73.242,-295.898
1690122260.147,-37.109,-41.016,-26.855,-8.301,-201.660
1690122260.151,4.883,-35.645,-30.273,35.645,70.312
1690122260.155,4.395,-29.297,-28.320,-20.020,-6.348
1690122260.159,-50.781,-20.020,-28.320,-84.961,-232.422
1690122260.163,-68.359,-23.438,-27.344,-78.613,-230.957
1690122260.167,-47.852,-46.875,-29.297,-14.648,4.883
1690122260.171,-9.766,-41.016,-29.785,25.879,131.348
1690122260.174,-2.441,-23.926,-30.273,-22.949,-32.715
1690122260.178,-46.387,-29.297,-31.250,-78.613,-169.922
1690122260.182,-59.570,-52.734,-25.879,-76.172,62.500
1690122260.186,-48.828,-47.852,-29.785,-22.949,166.504
1690122260.190,-11.230,-19.531,-23.438,24.902,29.785
1690122260.192,18.066,-20.508,-20.020,0.977,15.625
1690122260.196,-24.414,-23.438,-30.762,-63.477,-41.504
1690122260.200,-49.805,-16.113,-32.715,-85.449,-270.508
1690122260.204,-41.992,-26.855,-28.320,-33.203,-257.812
1690122260.208,-14.648,-35.645,-27.344,19.531,11.230
1690122260.212,17.578,-35.156,-28.320,-7.812,105.469
1690122260.216,-27.832,-33.203,-27.832,-68.359,-10.254
1690122260.219,-58.105,-30.762,-27.832,-85.938,-185.547
1690122260.223,-43.457,-40.527,-20.996,-26.855,-51.758
1690122260.227,-17.090,-41.504,-20.020,41.504,255.859
1690122260.231,22.949,-16.602,-30.762,8.789,71.289
1690122260.235,-1.953,-10.742,-35.156,-61.035,-171.387
1690122260.237,-48.340,-15.137,-37.109,-80.078,-174.316
1690122260.241,-53.711,-15.625,-33.691,-45.898,-140.625
1690122260.245,-37.598,-21.973,-29.297,13.672,-62.500
1690122260.249,7.812,-30.273,-28.809,12.207,46.387
1690122260.253,-6.348,-31.250,-29.785,-50.781,-37.598
1690122260.257,-51.270,-27.344,-29.297,-81.543,-132.324
1690122260.261,-51.758,-27.344,-29.297,-52.734,-107.910
1690122260.264,-33.203,-37.598,-33.203,17.578,76.172
1690122260.268,8.789,-40.039,-39.551,28.809,307.617
1690122260.272,-5.371,-20.020,-37.109,-42.969,78.125
1690122260.276,-50.781,-17.578,-21.484,-71.777,-191.406
1690122260.280,-46.387,-37.109,-18.555,-46.875,-104.980
1690122260.298,-31.250,-52.734,-20.996,9.277,226.074
1690122260.302,2.930,-38.574,-22.461,26.367,226.562
1690122260.306,2.441,-17.578,-23.438,-39.551,-163.574
1690122260.310,-48.828,-23.926,-23.438,-87.402,-179.688
1690122260.314,-59.570,-32.227,-26.367,-61.523,-71.289
1690122260.318,-46.387,-31.738,-26.855,5.371,-19.531
1690122260.322,-3.418,-30.762,-30.762,27.344,87.891
1690122260.325,11.230,-32.227,-24.902,-20.020,229.004
1690122260.329,-56.152,-32.227,-20.996,-80.566,168.945
1690122260.333,-67.383,-25.391,-24.414,-86.426,-229.980
1690122260.337,-48.828,-33.691,-26.855,-24.414,-217.773
1690122260.341,-11.230,-32.227,-29.297,27.344,22.949
1690122260.327,17.090,-19.043,-20.508,-9.277,-3.418
1690122260.331,-41.504,-18.066,-24.902,-81.055,-229.004
1690122260.335,-59.570,-28.320,-33.203,-80.078,-306.641
1690122260.339,-43.945,-39.551,-20.996,-7.812,-93.262
1690122260.343,-26.855,-41.504,-15.137,40.527,89.355
1690122260.347,-8.301,-41.504,-15.137,-1.953,73.730
1690122260.351,-58.105,-44.922,-14.160,-72.754,34.668
1690122260.354,-77.148,-45.898,-21.484,-78.125,-62.012
1690122260.358,-65.918,-47.852,-21.973,-35.156,-174.316
1690122260.362,-45.410,-47.363,-16.113,26.855,-53.711
1690122260.366,-3.906,-49.805,-14.160,5.859,160.645
1690122260.370,-48.340,-62.988,-12.207,-73.242,321.777
1690122260.372,-81.543,-49.805,-14.648,-88.867,229.004
1690122260.376,-64.453,-27.832,-17.578,-45.898,-109.375
1690122260.380,-44.434,-38.086,-12.207,22.461,17.090
1690122260.384,0.000,-32.715,-11.230,19.531,110.352
1690122260.388,-27.344,-25.879,-14.648,-41.992,-220.215
1690122260.392,-63.965,-36.621,-17.578,-61.035,-328.125
1690122260.396,-56.152,-48.340,-18.555,-25.391,54.688
1690122260.399,-44.922,-52.246,-21.973,30.273,458.984
1690122260.403,0.488,-24.902,-22.949,20.996,149.414
1690122260.407,-14.160,-19.531,-20.508,-54.199,-207.520
1690122260.411,-52.246,-41.016,-17.578,-86.426,-245.605
1690122260.415,-50.781,-43.457,-14.160,-47.852,-183.594
1690122260.417,-41.992,-34.668,-17.578,12.695,-85.449
1690122260.421,0.000,-35.156,-21.484,20.020,-0.977
1690122260.425,-7.324,-27.832,-21.973,-39.551,-85.938
1690122260.429,-57.617,-20.020,-24.414,-84.961,-206.543
1690122260.433,-57.617,-25.879,-26.367,-60.059,-237.793
1690122260.437,-31.250,-38.086,-27.832,9.766,-29.297
1690122260.441,10.742,-47.363,-30.762,46.875,439.453
1690122260.444,5.859,-27.344,-27.344,-17.578,231.445
1690122260.448,-46.875,-13.184,-25.391,-85.938,-268.066
1690122260.452,-55.664,-30.762,-27.344,-61.035,-181.641
1690122260.456,-37.109,-38.574,-21.973,0.488,91.309
1690122260.460,6.348,-26.367,-8.789,27.832,103.516
1690122260.462,10.254,-9.766,-0.488,-23.438,-170.410
1690122260.466,-47.363,-24.902,-14.160,-82.031,-218.750
1690122260.470,-56.152,-45.410,-33.691,-70.312,23.926
1690122260.474,-38.574,-33.691,-38.086,-13.672,-50.293
1690122260.478,-5.371,-27.832,-31.250,29.785,-125.000
1690122260.482,9.766,-34.668,-21.484,-10.254,86.914
1690122260.486,-37.598,-29.785,-16.113,-69.824,2.441
1690122260.489,-53.711,-19.531,-12.695,-70.312,-286.133
1690122260.493,-45.410,-29.297,-10.254,-14.160,-196.777
1690122260.497,-17.090,-40.039,-18.555,43.457,186.523
1690122260.501,10.742,-29.297,-32.715,2.441,213.379
1690122260.505,-24.414,-18.066,-34.180,-69.336,-144.531
1690122260.522,-44.434,-28.809,-22.949,-74.219,-296.387
1690122260.526,-48.828,-46.875,-14.648,-19.531,-107.422
1690122260.530,-37.598,-44.922,-9.766,39.062,91.797
1690122260.534,-3.418,-31.250,-9.766,-1.953,-26.367
1690122260.538,-33.691,-32.227,-12.695,-72.754,-142.090
1690122260.542,-71.289,-48.340,-20.508,-84.473,-162.598
1690122260.546,-67.383,-55.664,-27.344,-36.133,-111.816
1690122260.549,-32.227,-46.875,-23.438,24.414,1.465
1690122260.553,15.625,-37.109,-15.625,16.602,97.168
1690122260.557,-19.531,-40.527,-19.043,-51.270,116.699
1690122260.561,-65.918,-38.086,-19.043,-87.891,9.277
1690122260.565,-54.688,-36.621,-16.602,-49.805,-144.043
1690122260.568,-30.762,-46.875,-24.902,18.555,25.391
1690122260.572,15.137,-44.922,-24.414,19.531,292.480
1690122260.576,-4.395,-23.438,-24.902,-52.246,6.348
1690122260.580,-55.664,-21.484,-28.320,-79.102,-259.277
1690122260.584,-49.316,-37.598,-26.367,-40.527,-96.191
1690122260.588,-21.484,-42.969,-22.949,33.203,132.324
1690122260.592,33.203,-30.273,-26.367,42.480,161.621
1690122260.595,16.602,-16.113,-30.273,-35.645,-32.715
1690122260.599,-46.875,-33.691,-29.785,-75.195,-32.227
1690122260.603,-51.270,-46.875,-23.438,-45.410,103.516
1690122260.607,-46.875,-29.785,-22.949,7.812,-118.652
1690122260.611,0.000,-23.926,-19.043,34.180,-62.500
1690122260.612,7.324,-24.902,-19.531,-28.809,-95.215
1690122260.616,-51.758,-26.367,-20.996,-79.590,-274.902
1690122260.620,-51.758,-33.203,-15.137,-56.641,-280.762
1690122260.624,-37.109,-49.316,-20.020,2.441,-87.402
1690122260.628,-3.418,-43.945,-29.785,32.715,207.031
1690122260.632,4.395,-28.320,-29.785,-26.855,163.574
1690122260.636,-45.898,-30.762,-29.785,-88.379,-67.383
1690122260.639,-57.617,-33.691,-27.344,-78.613,-164.062
1690122260.643,-43.457,-46.875,-11.719,-4.395,193.359
1690122260.647,-14.160,-39.062,-16.113,28.320,376.953
1690122260.651,-2.930,-28.320,-25.879,-36.133,-2.441
1690122260.655,-58.594,-41.016,-22.461,-95.215,-104.004
1690122260.657,-65.918,-32.227,-17.578,-81.543,-85.449
1690122260.661,-48.340,-21.484,-21.484,-19.043,-155.273
1690122260.665,-22.949,-27.344,-22.949,31.738,-82.031
1690122260.669,19.043,-31.738,-14.648,7.324,-38.574
1690122260.673,-23.926,-26.367,-15.137,-60.547,-129.883
1690122260.677,-49.805,-21.484,-28.320,-78.125,-205.078
1690122260.681,-37.109,-34.668,-37.109,-38.574,-159.180
1690122260.684,-23.438,-43.457,-38.086,20.996,214.355
1690122260.688,10.254,-24.414,-41.504,-5.371,409.668
1690122260.692,-29.785,6.836,-41.504,-87.891,-62.012
1690122260.696,-61.035,-2.441,-37.109,-98.145,-352.051
1690122260.700,-46.387,-19.531,-31.250,-46.387,-195.312
1690122260.702,-23.438,-12.207,-31.250,10.254,-18.066
1690122260.706,14.648,-7.324,-34.668,-7.324,-89.844
1690122260.710,-20.020,-8.301,-32.715,-73.730,-227.539
1690122260.714,-56.152,-12.207,-28.320,-92.285,-255.371
1690122260.718,-47.363,-28.809,-37.598,-54.199,-203.613
1690122260.722,-25.879,-39.062,-47.852,9.766,35.645
1690122260.726,26.367,-25.391,-39.551,18.555,172.852
1690122260.729,1.953,-27.344,-28.320,-46.387,206.543
1690122260.733,-45.898,-25.879,-20.020,-84.961,24.902
1690122260.737,-44.922,-16.602,-21.484,-48.340,-188.477
1690122260.741,-33.203,-25.879,-23.926,25.391,85.938
1690122260.745,11.719,-34.668,-20.996,27.344,430.664
1690122260.747,-1.465,-16.602,-22.949,-55.664,58.594
1690122260.751,-54.688,-10.254,-21.484,-98.145,-334.961
1690122260.755,-51.758,-31.250,-27.832,-70.801,-223.633
1690122260.759,-32.227,-36.133,-29.297,-5.859,-42.480
1690122260.763,8.789,-33.691,-26.855,18.555,41.992
1690122260.767,6.836,-39.062,-33.203,-35.645,-68.359
1690122260.771,-48.828,-40.527,-32.227,-82.520,-7.324
1690122260.774,-54.688,-38.574,-23.438,-72.754,6.836
1690122260.778,-42.480,-35.156,-24.414,-6.836,-100.586
1690122260.782,-2.930,-25.879,-28.809,30.273,-27.344
1690122260.786,16.113,-27.832,-38.086,-22.461,41.016
1690122260.790,-46.875,-28.809,-43.457,-75.195,14.160
1690122260.792,-61.035,-19.043,-27.832,-63.965,-154.785
1690122260.796,-36.133,-30.273,-19.043,2.441,-83.008
1690122260.800,-1.953,-38.574,-8.301,41.992,149.414
1690122260.804,17.578,-23.926,-7.324,-7.812,47.852
1690122260.808,-28.320,-7.812,-19.043,-66.895,-250.000
1690122260.812,-53.711,-22.461,-21.484,-62.500,-287.109
1690122260.816,-52.246,-44.922,-22.461,-16.113,205.078
1690122260.819,-21.484,-37.598,-23.438,17.090,321.777
1690122260.823,9.766,-25.391,-25.879,-15.137,-85.938
1690122260.827,-36.133,-25.391,-26.855,-76.172,-211.426
1690122260.831,-46.387,-29.785,-24.902,-75.684,-110.352
1690122260.835,-35.645,-32.715,-23.926,-24.414,10.254
1690122260.839,-18.066,-23.438,-20.508,28.809,0.488
1690122260.843,22.949,-23.926,-13.672,8.789,96.191
1690122260.847,-16.113,-27.344,-31.738,-49.805,186.523
1690122260.851,-57.129,-11.719,-45.898,-80.566,-137.695
1690122260.855,-55.176,-23.438,-19.531,-48.828,-259.277
1690122260.859,-21.973,-28.809,-6.348,30.273,233.887
1690122260.863,15.137,-15.137,-17.578,19.531,439.453
1690122260.866,-36.621,-4.883,-26.367,-71.777,-72.266
1690122260.870,-81.543,-9.277,-20.508,-107.422,-366.699
1690122260.874,-82.031,-29.297,-20.020,-71.777,-181.641
1690122260.878,-83.496,-26.367,-29.785,-23.926,65.918
1690122260.882,-40.527,-15.625,-22.949,-28.809,-16.113
1690122260.897,-53.711,-9.277,-23.438,-100.586,-139.160
1690122260.901,-112.793,-10.742,-19.043,-144.043,-234.375
1690122260.905,-144.043,-15.137,-17.090,-141.113,-230.957
1690122260.909,-160.156,-7.324,-37.598,-114.258,-62.988
1690122260.913,-138.184,-2.930,-27.344,-118.164,60.547
1690122260.917,-167.969,-13.184,-24.414,-203.613,184.082
1690122260.921,-225.098,-32.715,-44.922,-263.184,28.809
1690122260.924,-226.562,-28.320,-13.672,-241.211,-231.445
1690122260.928,-221.680,-7.812,15.625,-176.270,-73.730
1690122260.932,-168.945,-7.324,21.973,-142.578,273.926
1690122260.936,-153.809,-13.184,-7.324,-182.617,104.492
1690122260.940,-202.637,-23.438,-15.137,-226.562,-250.488
1690122260.942,-181.641,-38.086,12.207,-199.707,-145.020
1690122260.946,-154.785,-44.922,7.324,-123.535,167.480
1690122260.950,-91.309,-26.855,7.812,-73.242,119.629
1690122260.954,-49.316,-20.020,3.418,-96.680,-85.449
