timestamps,TP9,AF7,AF8,TP10,Right AUX
1687269125.660,-38.574,-19.043,-29.297,-48.340,-94.238
1687269125.664,-29.297,-23.926,-29.785,-46.875,-221.191
1687269125.668,-30.762,-27.344,-27.832,-29.297,45.898
1687269125.672,-32.227,-23.438,-32.715,-23.438,373.047
1687269125.676,-26.367,-21.484,-38.086,-27.344,15.137
1687269125.680,-11.719,-20.020,-29.297,-28.809,-172.852
1687269125.684,-21.973,-19.531,-25.391,-25.879,203.125
1687269125.687,-44.922,-21.973,-30.762,-27.832,179.199
1687269125.691,-40.039,-26.367,-34.668,-37.109,-172.852
1687269125.695,-26.367,-28.320,-33.691,-23.438,-81.543
1687269125.699,-38.086,-21.484,-30.273,-19.043,162.109
1687269125.703,-42.969,-21.973,-25.391,-30.762,-0.488
1687269125.704,-32.715,-24.902,-23.438,-37.109,-154.297
1687269125.708,-38.086,-22.949,-24.902,-52.734,-138.184
1687269125.712,-32.715,-23.438,-28.320,-57.617,-152.344
1687269125.716,-12.695,-26.367,-26.855,-35.645,-119.629
1687269125.720,-21.484,-22.949,-24.902,-27.344,-109.375
1687269125.724,-22.461,-16.602,-18.555,-13.672,1.953
1687269125.728,-11.230,-16.602,-16.113,-2.441,208.008
1687269125.731,-29.785,-12.207,-25.879,-28.809,88.379
1687269125.735,-35.156,-18.066,-21.973,-33.691,-128.418
1687269125.739,-16.602,-26.855,-14.648,-19.531,-68.359
1687269125.743,-14.160,-24.902,-30.762,-14.160,118.164
1687269125.747,-31.738,-27.344,-36.621,-31.738,-108.398
1687269125.764,-33.691,-29.297,-21.484,-25.879,-247.070
1687269125.768,-21.973,-16.602,-32.715,0.488,-123.535
1687269125.772,30.762,2.441,-45.898,26.367,-18.066
1687269125.776,31.738,-5.859,-27.344,20.996,-94.238
1687269125.780,-28.320,-33.691,-5.371,-20.020,-135.742
1687269125.784,-35.645,-45.410,-6.836,-31.250,131.836
1687269125.788,-26.855,-43.945,-10.254,-34.180,101.562
1687269125.791,-22.461,-45.410,2.441,-30.762,-99.609
1687269125.795,-29.785,-51.758,9.277,-22.949,-51.270
1687269125.799,-28.809,-49.805,13.184,1.465,253.418
1687269125.803,-26.855,-48.828,17.090,17.090,397.949
1687269125.807,-29.785,-53.223,19.531,0.000,15.137
1687269125.809,-24.414,-51.758,25.879,14.160,-144.043
1687269125.813,-31.738,-56.641,30.762,19.043,-120.117
1687269125.817,-36.133,-57.129,27.344,-2.930,-208.008
1687269125.821,-27.832,-49.316,20.020,2.441,-210.938
1687269125.825,-21.484,-41.992,15.137,2.930,-190.430
1687269125.829,-29.297,-35.645,13.184,2.930,-80.566
1687269125.833,-27.344,-41.992,11.230,17.578,41.016
1687269125.836,-24.414,-46.875,0.488,5.859,-109.863
1687269125.840,-24.414,-46.875,-3.906,-10.254,-94.238
1687269125.844,-18.555,-48.340,-4.395,-2.441,233.398
1687269125.848,-36.621,-44.434,-6.836,-13.184,45.410
1687269125.852,-44.434,-40.039,-0.488,4.395,-143.066
1687269125.854,-28.320,-37.109,-4.395,6.836,-101.074
1687269125.858,-18.555,-37.109,-10.742,-13.672,-78.125
1687269125.862,-15.625,-37.598,-14.160,-18.555,-128.906
1687269125.866,-22.949,-34.180,-13.184,-20.508,-152.832
1687269125.870,-41.016,-34.668,-8.301,-8.301,-77.637
1687269125.874,-33.203,-34.668,-12.695,-5.371,4.395
1687269125.878,-32.227,-31.738,-16.113,-19.531,-32.227
1687269125.881,-26.367,-36.133,-18.066,-25.391,-157.715
1687269125.885,-24.414,-40.527,-20.996,-30.762,173.340
1687269125.889,-22.949,-32.227,-22.461,-17.090,470.703
1687269125.893,-21.973,-21.484,-24.902,-26.367,6.836
1687269125.897,-29.785,-26.367,-22.949,-54.688,-199.707
1687269125.899,-21.484,-23.438,-28.320,-33.691,-46.875
1687269125.903,-18.066,-21.484,-28.809,-25.879,-111.816
1687269125.907,-26.855,-21.484,-24.414,-22.461,-206.543
1687269125.911,-29.297,-20.996,-26.855,-16.113,-105.957
1687269125.915,-22.949,-25.879,-32.715,-20.508,27.832
1687269125.919,-18.555,-30.273,-26.855,-19.043,15.137
1687269125.923,-19.043,-31.738,-23.438,-12.695,-9.766
1687269125.926,-22.949,-29.297,-24.414,-14.648,52.246
1687269125.930,-25.879,-27.344,-24.902,-12.695,237.793
1687269125.934,-20.996,-26.855,-26.367,-22.461,7.812
1687269125.938,-24.414,-24.414,-22.461,-21.484,-196.777
1687269125.942,-33.203,-21.484,-25.391,-10.254,-63.477
1687269125.944,-41.992,-26.367,-27.344,-24.902,-40.527
1687269125.948,-35.645,-26.855,-27.344,-24.902,-123.535
1687269125.952,-18.066,-19.043,-25.391,-18.555,-110.840
1687269125.956,-18.555,-21.973,-23.438,-24.902,34.668
1687269125.960,-32.715,-20.508,-23.926,-39.551,-34.668
1687269125.964,-32.227,-14.648,-27.832,-36.621,-130.371
1687269125.968,-33.203,-20.508,-32.715,-38.086,-121.582
1687269125.971,-42.969,-23.438,-27.832,-33.203,89.844
1687269125.975,-40.527,-22.461,-22.949,-21.484,198.730
1687269125.979,-41.992,-22.949,-24.414,-40.527,-34.668
1687269125.983,-29.785,-21.484,-23.926,-54.199,-112.793
1687269125.987,-30.273,-21.484,-22.461,-50.781,53.223
1687269125.989,-44.922,-23.926,-31.738,-40.039,-83.496
1687269125.993,-47.852,-29.785,-35.645,-36.621,-241.211
1687269125.997,-32.715,-27.344,-25.879,-29.785,-156.738
1687269126.001,-30.762,-19.531,-19.043,-27.832,-125.977
1687269126.005,-37.598,-15.625,-22.949,-28.809,-168.945
1687269126.009,-23.926,-20.996,-25.391,-25.391,-168.945
1687269126.013,-17.090,-32.227,-14.648,-8.301,1.465
1687269126.016,-30.273,-22.461,-13.672,-5.859,381.836
1687269126.020,-45.410,-8.789,-25.879,-44.434,168.945
1687269126.024,-35.156,-9.766,-32.715,-49.316,-189.941
1687269126.028,-6.348,-7.324,-35.645,-20.508,-128.906
1687269126.032,5.371,-13.184,-30.273,-13.184,-146.484
1687269126.034,-18.555,-25.391,-32.715,-20.508,-172.852
1687269126.038,-22.461,-24.414,-31.250,-14.160,-120.117
1687269126.042,-19.531,-25.391,-25.391,-19.531,-36.133
1687269126.046,-44.922,-28.320,-25.879,-24.902,-40.039
1687269126.050,-42.480,-20.996,-23.926,-29.785,-102.051
1687269126.054,-29.297,-17.578,-24.414,-14.648,-20.996
1687269126.058,-41.016,-21.973,-27.344,16.113,293.457
1687269126.061,-39.062,-24.414,-32.227,-22.949,205.566
1687269126.065,-25.879,-17.578,-34.668,-63.965,-63.477
1687269126.069,-19.531,-17.090,-30.762,-42.480,35.156
1687269126.073,-20.996,-25.879,-26.855,-28.809,240.723
1687269126.077,-18.555,-29.297,-25.879,-26.855,113.770
1687269126.079,-22.949,-24.902,-24.902,-25.879,-144.043
1687269126.083,-26.855,-30.273,-24.902,-27.344,-156.738
1687269126.087,-29.297,-39.551,-29.297,-34.668,-122.070
1687269126.091,-37.109,-31.250,-26.855,-32.227,-122.070
1687269126.095,-41.504,-23.926,-20.996,-18.555,-182.129
1687269126.099,-41.504,-28.320,-24.902,-32.227,-6.836
1687269126.103,-42.969,-31.738,-27.344,-35.645,136.230
1687269126.106,-35.156,-32.715,-26.855,-31.738,-40.527
1687269126.110,-28.809,-32.715,-26.855,-23.926,-202.637
1687269126.114,-31.738,-28.320,-21.484,-21.973,-78.125
1687269126.118,-24.902,-28.320,-18.555,-17.578,136.719
1687269126.122,-29.297,-30.762,-19.043,-17.578,-45.898
1687269126.139,-28.809,-23.926,-21.484,-22.949,-186.035
1687269126.143,-20.508,-24.902,-23.438,-19.531,-65.430
1687269126.147,-30.273,-29.297,-23.438,-22.461,-62.500
1687269126.151,-35.156,-28.320,-21.973,-20.020,-143.066
1687269126.155,-27.344,-28.320,-18.066,-11.719,-139.160
1687269126.159,-30.762,-26.367,-18.555,-16.113,56.152
1687269126.163,-41.992,-25.879,-21.484,-23.926,102.051
1687269126.166,-37.109,-32.715,-22.461,-24.414,-81.543
1687269126.170,-41.504,-40.527,-23.438,-30.762,-106.934
1687269126.174,-57.129,-40.527,-20.996,-18.555,292.969
1687269126.178,-60.547,-33.203,-22.949,-5.371,327.148
1687269126.182,-44.434,-24.414,-24.414,-4.883,-184.082
1687269126.185,-20.996,-26.367,-21.484,-11.719,-167.480
1687269126.189,-20.020,-31.250,-23.926,-32.227,46.387
1687269126.193,-18.066,-29.785,-23.438,-40.039,-78.125
1687269126.197,-15.625,-24.414,-22.949,-37.598,-148.926
1687269126.201,-21.484,-28.320,-24.902,-45.898,-81.543
1687269126.205,-21.973,-27.832,-29.297,-46.875,0.000
1687269126.209,-28.320,-21.484,-34.668,-39.551,29.297
1687269126.212,-19.531,-30.273,-35.645,-50.781,-80.566
1687269126.216,-10.742,-27.344,-33.203,-64.453,-84.961
1687269126.220,-16.113,-19.043,-28.320,-66.406,222.656
1687269126.224,-20.996,-19.531,-26.367,-51.270,34.180
1687269126.228,-30.762,-15.137,-28.320,-26.367,-176.270
1687269126.229,-53.223,-22.949,-27.344,-9.277,-75.684
1687269126.233,-56.641,-26.367,-20.020,-16.113,-93.750
1687269126.237,-26.855,-6.836,-24.414,-27.832,-164.551
1687269126.241,-7.324,3.418,-38.574,-8.789,-120.605
1687269126.245,-21.484,-15.625,-22.949,-7.324,50.293
1687269126.249,-65.430,-20.508,-12.695,-33.203,70.312
1687269126.253,-81.055,-8.789,-11.719,-46.387,4.883
1687269126.256,-83.496,-6.836,-1.465,-57.617,-118.164
1687269126.260,-105.957,-5.371,3.906,-70.801,171.875
1687269126.264,-130.859,-2.930,12.695,-89.844,552.734
1687269126.268,-154.785,-6.836,19.531,-128.906,106.934
1687269126.272,-157.715,-1.953,20.508,-116.699,-144.043
1687269126.275,-167.480,6.348,18.555,-133.301,-119.629
1687269126.279,-191.406,5.859,16.113,-193.848,-261.719
1687269126.283,-183.594,1.465,19.531,-180.176,-232.910
1687269126.287,-180.176,2.441,23.438,-163.574,-132.324
1687269126.291,-197.266,1.953,20.508,-186.523,-74.219
1687269126.295,-191.895,-10.742,21.484,-179.688,-24.414
1687269126.299,-195.801,-17.090,20.508,-152.344,-68.848
1687269126.302,-196.777,-20.508,14.160,-149.414,31.250
1687269126.306,-174.316,-27.344,16.113,-131.836,278.809
1687269126.310,-163.086,-27.832,10.254,-133.789,65.918
1687269126.314,-148.926,-33.203,1.953,-135.742,-213.867
1687269126.318,-121.582,-41.504,4.883,-109.375,-193.359
1687269126.319,-87.402,-41.504,0.488,-95.703,-176.758
1687269126.323,-93.262,-33.203,-7.324,-85.449,-179.688
1687269126.327,-100.098,-27.832,-11.230,-61.523,-151.855
1687269126.331,-61.035,-44.434,-3.906,-41.504,-79.590
1687269126.335,-40.039,-51.270,-2.441,-40.039,-91.309
1687269126.339,-25.391,-46.875,-12.207,-42.969,-107.910
1687269126.343,-30.273,-50.781,-8.301,-15.625,27.344
1687269126.346,-13.184,-47.852,-8.789,6.348,103.516
1687269126.350,17.578,-48.828,-24.902,12.695,-31.738
1687269126.354,-5.371,-44.922,-21.484,11.719,-98.145
1687269126.358,2.441,-47.852,-5.371,4.395,-36.133
1687269126.362,21.484,-54.199,-2.930,34.180,231.445
1687269126.364,-10.742,-52.734,-12.207,39.062,424.316
1687269126.368,-16.113,-51.270,-21.484,8.789,8.301
1687269126.372,5.859,-50.293,-18.066,18.066,-166.992
1687269126.376,-2.441,-52.246,-20.996,8.789,-56.152
1687269126.380,-2.930,-55.664,-20.996,9.766,-92.285
1687269126.384,15.137,-47.852,-20.996,26.855,-119.629
1687269126.388,27.832,-39.551,-28.809,24.902,5.371
1687269126.391,26.367,-39.551,-28.320,19.043,247.070
1687269126.395,8.789,-39.062,-25.391,15.137,14.648
1687269126.399,4.395,-46.875,-28.809,14.160,-178.711
1687269126.403,2.930,-45.410,-29.785,21.973,-107.910
1687269126.407,-6.836,-41.504,-20.020,19.043,-71.777
1687269126.409,-3.418,-47.852,-24.414,18.555,-139.160
1687269126.413,8.789,-43.945,-40.039,21.484,-193.359
1687269126.417,7.812,-39.551,-41.016,-7.324,-14.160
1687269126.421,3.418,-41.504,-37.109,-22.949,62.500
1687269126.425,-2.930,-38.086,-39.551,-17.578,-155.273
1687269126.429,-4.883,-36.133,-33.691,-18.066,-73.730
1687269126.433,-8.301,-32.715,-34.668,-18.066,238.281
1687269126.436,-16.113,-31.250,-39.062,-20.020,75.684
1687269126.440,-8.301,-32.715,-33.691,-9.277,-136.719
1687269126.444,2.441,-31.738,-26.855,-1.465,-49.805
1687269126.448,-8.301,-33.691,-25.391,4.395,158.691
1687269126.452,-23.438,-37.109,-30.273,3.418,139.648
1687269126.455,-20.508,-33.203,-30.273,-14.648,-179.688
1687269126.459,-5.371,-30.762,-27.344,-4.883,-85.449
1687269126.463,-2.441,-31.250,-25.391,3.906,22.461
1687269126.467,-3.418,-29.785,-25.391,-12.207,-172.363
1687269126.471,0.000,-31.738,-24.414,-23.926,-233.887
1687269126.475,-6.836,-34.180,-21.973,-5.371,-51.758
1687269126.479,-11.719,-31.250,-20.508,14.648,296.387
1687269126.482,-7.324,-22.949,-21.484,15.625,127.441
1687269126.486,-11.719,-27.344,-24.902,-19.043,-192.871
1687269126.490,-33.203,-38.086,-24.414,-27.344,-119.629
1687269126.494,-27.832,-29.785,-28.809,-34.668,-97.168
1687269126.498,-20.508,-22.461,-34.668,-47.852,-185.059
1687269126.514,-23.438,-29.785,-27.344,-26.367,-134.766
1687269126.518,-29.785,-33.203,-18.066,-21.973,-37.598
1687269126.522,-21.973,-29.785,-22.461,-23.926,-101.562
1687269126.526,-35.645,-31.738,-29.785,-20.508,-137.695
1687269126.530,-41.504,-30.762,-21.484,-2.441,-90.820
1687269126.534,-30.273,-28.809,-10.254,-4.395,155.273
1687269126.538,-24.414,-34.180,-12.207,-7.324,283.203
1687269126.541,-16.113,-39.551,-18.066,-20.020,-70.801
1687269126.545,-30.273,-26.367,-25.391,-41.992,-181.641
1687269126.549,-53.711,-8.789,-38.086,-42.969,209.961
1687269126.553,-61.035,-14.648,-45.410,-47.852,171.875
1687269126.557,-51.758,-26.367,-41.992,-42.969,-158.203
1687269126.559,-43.945,-23.926,-37.598,-33.691,-138.184
1687269126.563,-57.129,-17.578,-39.551,-39.551,-23.438
1687269126.567,-62.500,-16.113,-36.133,-44.922,-112.305
1687269126.571,-53.711,-17.090,-34.668,-46.875,-176.270
1687269126.575,-44.434,-18.066,-32.227,-41.016,-135.742
1687269126.579,-42.969,-20.020,-31.250,-37.598,-59.570
1687269126.583,-38.086,-21.973,-35.156,-46.875,-44.922
1687269126.586,-26.855,-25.391,-36.133,-56.152,-100.586
1687269126.590,-21.484,-27.344,-34.180,-48.828,-58.105
1687269126.594,-27.832,-24.414,-30.762,-24.414,312.988
1687269126.598,-34.668,-22.461,-31.250,-36.621,102.051
1687269126.602,-28.809,-29.785,-37.109,-41.016,-234.863
1687269126.604,-14.648,-28.809,-36.133,-17.090,-127.930
1687269126.608,-28.320,-18.555,-34.668,-22.461,-122.070
1687269126.612,-28.809,-19.531,-30.762,-21.973,-165.527
1687269126.616,-5.371,-30.273,-27.344,-15.625,-102.539
1687269126.620,-5.859,-29.785,-31.250,-15.625,0.977
1687269126.624,2.441,-23.438,-30.273,-0.488,80.566
1687269126.628,-15.137,-23.438,-30.273,-2.930,91.309
1687269126.631,-54.199,-21.973,-31.250,-34.668,-69.824
1687269126.635,-62.012,-16.113,-35.156,-45.898,126.953
1687269126.639,-50.293,-16.113,-38.086,-31.738,268.066
1687269126.643,-51.270,-16.113,-29.785,-43.457,-66.895
1687269126.647,-56.152,-16.113,-31.738,-51.758,-125.000
1687269126.649,-49.316,-18.066,-29.785,-36.133,107.910
1687269126.653,-45.898,-20.020,-24.902,-24.902,-25.879
1687269126.657,-43.457,-21.484,-32.227,-24.414,-214.355
1687269126.661,-39.551,-17.090,-32.227,-31.250,-167.969
1687269126.665,-41.016,-17.578,-25.391,-35.156,-125.488
1687269126.669,-44.434,-21.484,-23.438,-36.621,20.020
1687269126.673,-40.039,-22.949,-28.809,-41.504,40.527
1687269126.676,-32.715,-28.320,-27.344,-22.949,-86.426
1687269126.680,-37.109,-22.461,-20.020,-20.508,142.578
1687269126.684,-31.738,-20.508,-25.391,-27.344,17.090
1687269126.688,-21.484,-22.461,-26.367,-17.090,-201.660
1687269126.692,-25.391,-20.508,-26.367,-27.344,-79.590
1687269126.694,-20.508,-20.020,-24.414,-44.434,-15.625
1687269126.698,-15.625,-16.602,-17.090,-34.668,-108.398
1687269126.702,-25.879,-19.531,-22.461,-25.879,-133.301
1687269126.706,-29.297,-21.484,-24.414,-24.902,-14.160
1687269126.710,-20.508,-19.043,-22.461,-22.461,-54.688
1687269126.714,-22.949,-20.020,-24.902,-16.602,-104.980
1687269126.718,-20.508,-19.531,-22.461,-13.184,-48.340
1687269126.721,-21.973,-20.020,-21.973,-26.367,184.570
1687269126.725,-30.762,-25.391,-27.344,-32.227,223.145
1687269126.729,-33.203,-24.902,-31.250,-28.809,-31.250
1687269126.733,-34.180,-22.949,-33.203,-38.574,-74.219
1687269126.737,-25.391,-27.832,-32.715,-53.711,89.355
1687269126.739,-34.668,-30.762,-33.691,-51.270,-28.809
1687269126.743,-41.016,-26.367,-36.133,-52.246,-144.043
1687269126.747,-38.574,-22.461,-36.621,-55.664,7.812
1687269126.751,-52.734,-24.902,-33.691,-47.363,52.246
1687269126.755,-40.527,-21.973,-28.809,-43.945,-82.031
1687269126.759,-39.062,-23.926,-27.832,-47.852,-104.004
1687269126.763,-52.246,-32.227,-28.809,-52.246,27.832
1687269126.766,-50.781,-34.668,-27.344,-45.410,245.117
1687269126.770,-52.246,-31.738,-33.203,-44.434,-10.254
1687269126.774,-44.434,-25.879,-32.227,-35.156,-266.113
1687269126.778,-35.156,-22.949,-20.020,-32.227,-177.734
1687269126.782,-43.457,-25.391,-19.043,-31.738,-145.508
1687269126.784,-45.410,-26.855,-27.344,-34.668,-166.016
1687269126.788,-43.945,-28.320,-33.691,-38.574,-166.504
1687269126.792,-40.527,-31.250,-30.273,-32.715,-91.797
1687269126.796,-32.715,-26.367,-26.855,-25.391,-45.410
1687269126.800,-32.227,-20.020,-27.344,-29.785,18.555
1687269126.804,-30.273,-20.020,-32.715,-45.898,30.762
1687269126.808,-27.832,-19.531,-32.227,-36.621,216.309
1687269126.811,-28.809,-16.113,-31.738,-33.691,342.773
1687269126.815,-20.020,-14.648,-40.527,-42.969,-74.219
1687269126.819,-21.973,-20.508,-30.762,-29.785,-136.230
1687269126.823,-36.621,-24.902,-22.461,-23.926,131.348
1687269126.827,-51.270,-28.809,-26.367,-35.645,-28.809
1687269126.829,-44.922,-30.273,-29.297,-40.039,-184.082
1687269126.833,-28.809,-28.809,-32.227,-37.109,-127.930
1687269126.837,-36.133,-27.832,-22.461,-20.020,-112.305
1687269126.841,-44.922,-25.391,-13.184,-8.301,-161.621
1687269126.845,-38.574,-24.902,-15.625,-8.301,-192.871
1687269126.849,-36.621,-24.414,-20.020,-17.090,0.977
1687269126.853,-26.855,-22.949,-24.414,-25.879,249.023
1687269126.856,-39.062,-19.531,-29.785,-33.203,41.992
1687269126.860,-42.969,-23.926,-33.691,-34.180,-192.871
1687269126.864,-29.297,-33.203,-32.715,-41.504,-157.715
1687269126.868,-33.691,-24.902,-28.809,-53.711,-111.816
1687269126.872,-24.902,-16.113,-28.809,-49.805,-157.227
1687269126.889,-39.062,-24.414,-32.227,-47.363,-201.660
1687269126.893,-47.852,-31.738,-30.762,-37.109,-31.250
1687269126.897,-32.715,-30.273,-29.785,-30.762,112.793
1687269126.901,-31.738,-26.855,-27.344,-41.016,-145.508
1687269126.905,-27.344,-25.391,-28.809,-31.738,-158.691
1687269126.909,-24.902,-26.367,-27.344,-14.648,132.324
1687269126.913,-28.809,-22.949,-21.973,-24.902,174.316
1687269126.916,-27.344,-21.484,-25.391,-17.578,-2.930
1687269126.920,-34.668,-21.973,-22.949,-21.973,-105.957
1687269126.924,-27.344,-23.926,-17.578,-20.508,245.117
1687269126.928,-27.344,-22.949,-20.996,-9.277,556.152
1687269126.932,-34.668,-20.508,-24.902,-34.180,26.367
1687269126.934,-29.785,-27.344,-30.273,-56.152,-234.375
1687269126.938,-34.668,-31.738,-36.133,-46.387,-103.516
1687269126.942,-30.762,-28.320,-32.715,-44.922,-170.410
1687269126.946,-38.574,-22.461,-27.832,-44.434,-183.594
1687269126.950,-33.691,-26.367,-21.973,-25.879,-129.395
1687269126.954,-29.785,-27.832,-20.996,-22.461,-44.434
1687269126.958,-40.039,-27.832,-21.973,-26.367,-41.992
1687269126.961,-39.062,-33.203,-21.484,-28.320,-149.414
1687269126.965,-33.691,-32.715,-15.625,-34.668,-49.316
1687269126.969,-31.250,-26.855,-20.996,-26.367,243.164
1687269126.973,-20.020,-22.949,-26.855,-18.066,-27.832
1687269126.977,-27.832,-23.926,-22.461,-20.020,-219.727
1687269126.978,-41.504,-22.949,-18.555,-29.785,-42.969
1687269126.982,-37.598,-24.414,-19.531,-43.945,-18.555
1687269126.986,-31.250,-31.738,-24.414,-29.297,-168.457
1687269126.990,-22.461,-28.320,-25.879,-9.766,-193.848
1687269126.994,-18.066,-21.973,-28.809,-5.859,-103.027
1687269126.998,-21.484,-24.902,-33.203,-18.066,-58.105
1687269127.002,-28.809,-26.367,-24.902,-24.902,24.902
1687269127.005,-31.738,-28.320,-20.020,-23.438,-105.469
1687269127.009,-36.621,-22.949,-28.320,-25.879,103.516
1687269127.013,-35.156,-23.926,-28.320,-36.621,363.770
1687269127.017,-30.762,-32.227,-23.926,-40.039,-61.523
1687269127.021,-36.133,-32.715,-23.438,-43.945,-198.242
1687269127.024,-35.645,-28.809,-24.902,-42.480,29.297
1687269127.028,-31.738,-21.973,-27.832,-22.461,-74.707
1687269127.032,-27.344,-20.508,-24.414,-19.531,-134.766
1687269127.036,-32.227,-27.832,-26.367,-33.691,-45.898
1687269127.040,-37.598,-25.879,-33.691,-26.855,7.812
1687269127.044,-31.738,-21.484,-26.367,-29.785,-24.902
1687269127.048,-25.391,-25.391,-21.973,-42.480,-41.992
1687269127.051,-17.090,-22.461,-31.738,-41.992,5.859
1687269127.055,-21.484,-16.602,-30.762,-28.320,212.402
1687269127.059,-43.457,-21.484,-25.879,-39.062,-8.789
1687269127.063,-51.758,-26.367,-17.578,-61.035,-205.566
1687269127.067,-28.809,-31.250,-10.742,-44.434,-114.746
1687269127.072,-15.625,-31.250,-11.719,-19.043,-128.906
1687269127.076,-18.066,-23.438,-14.648,-21.973,-178.711
1687269127.080,-20.996,-18.555,-16.113,-34.180,-133.301
1687269127.084,-25.879,-18.555,-19.043,-38.086,-44.434
1687269127.088,-27.832,-21.973,-18.555,-33.691,-41.504
1687269127.092,-38.086,-21.973,-23.438,-30.273,-17.090
1687269127.096,-36.621,-22.461,-35.156,-39.551,1.953
1687269127.099,-29.297,-30.273,-28.809,-23.926,195.801
1687269127.103,-50.293,-31.250,-19.043,-17.578,395.996
1687269127.107,-34.180,-26.367,-25.879,-40.527,67.871
1687269127.111,-13.672,-23.438,-27.344,-40.527,-149.414
1687269127.115,-20.508,-26.855,-14.648,-11.230,88.867
1687269127.129,-25.879,-20.508,-13.672,-1.465,27.344
1687269127.133,-26.855,-12.207,-14.160,-10.254,-148.926
1687269127.137,-18.066,-17.578,-11.230,-12.207,-132.812
1687269127.141,-21.484,-23.438,-14.160,-6.348,-64.453
1687269127.145,-29.297,-21.484,-17.578,-9.766,-41.504
1687269127.149,-16.113,-20.020,-22.949,-11.719,-84.961
1687269127.153,-28.320,-21.484,-25.879,2.930,14.160
1687269127.156,-45.898,-26.367,-22.949,-7.812,403.320
1687269127.160,-41.016,-24.902,-30.762,-50.293,165.039
1687269127.164,-39.062,-30.273,-31.250,-39.551,-210.938
1687269127.168,-41.504,-41.016,-24.414,-27.832,-147.461
1687269127.172,-27.832,-37.598,-25.391,-38.086,-126.953
1687269127.159,-22.949,-35.156,-28.320,-28.809,-166.992
1687269127.163,-15.625,-36.621,-22.949,-25.391,-162.109
1687269127.167,0.000,-27.832,-24.414,-23.438,-87.891
1687269127.171,-21.484,-24.902,-31.250,-31.250,-71.777
1687269127.175,-33.203,-27.832,-30.273,-32.715,-128.418
1687269127.179,-8.789,-23.926,-32.715,-28.320,-30.762
1687269127.183,0.488,-26.855,-32.715,-23.438,250.488
1687269127.186,-27.344,-37.109,-25.879,-13.184,92.285
1687269127.190,-30.273,-40.527,-15.625,7.324,-20.020
1687269127.194,-20.508,-33.691,-16.602,-2.441,96.191
1687269127.198,-32.227,-21.484,-35.156,-28.320,268.555
1687269127.202,-45.410,-13.672,-37.598,-23.926,426.758
1687269127.204,-56.152,-18.066,-33.203,-35.156,111.816
1687269127.208,-34.668,-24.414,-30.762,-57.617,-174.316
1687269127.212,-16.602,-24.414,-27.832,-54.688,-163.086
1687269127.216,-34.180,-28.320,-28.320,-53.223,-170.898
1687269127.220,-17.578,-32.715,-30.762,-53.223,-206.055
1687269127.224,-6.836,-32.715,-32.227,-44.434,-3.906
1687269127.228,-9.277,-34.668,-39.062,-39.062,281.250
1687269127.231,-12.207,-36.621,-39.062,-26.367,-27.832
1687269127.235,-32.715,-36.133,-27.832,-14.648,-231.934
1687269127.239,-31.250,-35.156,-20.996,-6.348,-96.191
1687269127.243,-24.902,-37.109,-21.484,-11.719,-67.871
1687269127.247,-35.645,-43.457,-22.461,-19.531,-164.062
1687269127.252,-45.898,-37.598,-26.367,-12.695,-121.094
1687269127.256,-41.992,-31.738,-28.809,16.113,-13.672
1687269127.260,-38.086,-29.297,-23.926,-4.883,-18.066
1687269127.264,-48.340,-26.367,-23.926,-25.879,-177.246
1687269127.268,-54.199,-26.367,-29.297,-20.508,-201.172
1687269127.272,-37.598,-21.973,-25.879,-36.621,29.297
1687269127.276,-33.203,-21.484,-22.461,-35.645,101.074
1687269127.279,-35.645,-26.855,-23.926,-21.484,-120.605
1687269127.283,-21.973,-30.762,-25.879,-12.695,-102.051
1687269127.287,-21.484,-28.809,-25.391,-14.160,98.633
1687269127.291,-28.320,-29.297,-22.949,-9.766,-10.742
1687269127.295,-26.855,-22.949,-27.832,-8.301,-152.344
1687269127.310,-27.832,-19.531,-27.832,-31.738,-99.121
1687269127.314,-23.926,-26.855,-20.020,-28.809,193.359
1687269127.318,-20.996,-30.762,-24.902,-18.555,91.797
1687269127.322,-31.738,-28.809,-31.250,-28.320,-178.711
1687269127.326,-18.555,-27.344,-26.855,-16.113,-125.488
1687269127.330,7.324,-25.879,-19.043,4.395,407.227
1687269127.334,0.977,-21.484,-14.648,-3.418,582.031
1687269127.337,-12.695,-20.508,-18.555,-12.695,-29.785
1687269127.341,-12.207,-26.855,-19.043,-4.883,-215.820
1687269127.345,-20.996,-29.297,-24.902,-15.625,-136.719
1687269127.349,-30.273,-26.367,-28.809,-41.992,-236.816
1687269127.353,-23.438,-29.297,-25.391,-33.203,-243.652
1687269127.354,-12.695,-38.086,-22.949,-11.230,-157.227
1687269127.358,-26.367,-29.785,-27.344,-33.203,-130.371
1687269127.362,-17.578,-23.438,-29.785,-40.039,-135.254
1687269127.366,-8.789,-28.809,-29.785,-11.719,-102.051
1687269127.370,-25.879,-26.367,-28.809,-17.090,-26.855
1687269127.374,-27.344,-23.926,-25.391,-33.203,-30.273
1687269127.378,-29.785,-25.879,-19.531,-21.973,-66.406
1687269127.381,-11.719,-25.879,-17.578,-16.113,-50.781
1687269127.385,6.348,-31.738,-20.508,-23.438,214.355
1687269127.389,-11.719,-36.621,-22.949,-15.137,469.238
1687269127.393,-24.414,-26.367,-22.949,-9.766,120.117
1687269127.397,-15.137,-26.367,-15.625,-21.973,-193.359
1687269127.399,27.344,-38.574,-4.395,12.695,-145.508
1687269127.403,26.367,-25.391,-7.324,16.113,-142.090
1687269127.407,-31.738,-14.160,-23.438,-46.387,-190.918
1687269127.411,-53.223,-16.113,-31.738,-57.129,-164.551
1687269127.415,-57.617,-13.672,-34.668,-52.734,-44.922
1687269127.419,-63.477,-4.395,-45.410,-58.105,19.043
1687269127.423,-77.637,-14.648,-66.406,-82.031,-54.199
1687269127.426,-90.332,-22.949,-67.871,-120.605,-69.336
1687269127.430,-105.957,-0.488,-57.617,-120.117,244.629
1687269127.434,-119.141,11.230,-67.871,-134.277,104.004
1687269127.438,-114.746,8.301,-73.242,-158.203,-204.590
1687269127.442,-146.973,15.137,-75.195,-163.574,-115.234
1687269127.444,-158.691,16.602,-76.172,-160.156,-52.734
1687269127.448,-138.184,1.465,-83.008,-170.898,-140.625
1687269127.452,-107.910,5.859,-72.754,-161.621,-164.551
1687269127.456,-102.051,21.973,-78.125,-137.695,-119.141
1687269127.460,-117.188,9.277,-83.496,-118.164,-108.887
1687269127.464,-89.355,0.977,-65.430,-97.168,-24.414
1687269127.468,-44.922,10.742,-54.688,-87.402,72.266
1687269127.471,-31.738,0.488,-55.664,-82.031,191.895
1687269127.475,-46.875,-18.066,-48.828,-86.426,147.949
1687269127.479,-46.875,-25.391,-38.086,-91.309,-28.320
1687269127.483,-26.367,-29.297,-30.273,-81.543,-27.344
1687269127.487,-10.742,-25.879,-20.996,-63.965,134.766
1687269127.489,-11.719,-22.461,-28.809,-61.035,75.684
1687269127.493,-12.207,-27.832,-40.527,-60.059,-136.719
1687269127.497,-8.301,-35.156,-37.598,-33.691,-138.672
1687269127.501,-5.859,-29.785,-33.203,-26.367,-116.699
1687269127.505,-2.441,-25.879,-26.855,-32.227,-146.973
1687269127.509,10.742,-28.809,-29.297,-21.484,-87.891
1687269127.513,2.930,-36.133,-30.273,-20.996,-3.418
1687269127.516,1.953,-31.250,-20.020,-3.906,191.406
1687269127.520,10.254,-21.484,-17.578,7.812,7.812
1687269127.524,-4.395,-14.160,-19.043,2.441,-213.379
1687269127.528,-4.883,-14.160,-18.066,-13.672,-127.930
1687269127.532,-13.184,-26.367,-20.020,-26.855,-44.434
1687269127.535,-11.230,-27.344,-20.996,-18.555,-39.551
1687269127.539,2.441,-23.926,-18.555,-8.301,-104.492
1687269127.543,7.812,-26.855,-13.672,6.348,-20.996
1687269127.547,-6.348,-22.461,-9.277,13.672,-2.930
1687269127.551,-15.625,-23.926,-11.719,-1.465,-151.367
1687269127.555,-16.602,-26.367,-25.879,-14.160,-84.473
1687269127.559,-8.789,-18.066,-29.297,-5.371,195.312
1687269127.562,-6.836,-18.555,-22.949,0.000,207.031
1687269127.566,-12.695,-27.344,-18.555,-13.672,-70.312
1687269127.570,-3.418,-25.391,-17.578,-11.230,-33.203
1687269127.574,-0.977,-24.902,-20.508,-5.371,109.863
1687269127.578,-15.625,-20.996,-22.461,-14.160,-18.066
1687269127.579,-15.137,-16.602,-20.996,-19.531,-180.176
1687269127.583,-17.578,-22.461,-19.043,-16.113,-116.211
1687269127.587,-22.461,-23.438,-21.973,-8.789,-12.207
1687269127.591,-39.551,-23.926,-16.113,-10.254,22.461
1687269127.595,-36.133,-24.414,-6.836,-29.297,-104.492
1687269127.599,-31.738,-20.508,-11.230,-33.203,-69.336
1687269127.603,-36.621,-20.996,-16.602,-8.301,348.145
1687269127.606,-28.320,-23.926,-17.578,-12.207,199.219
1687269127.610,-26.855,-25.879,-16.113,-29.297,-206.055
1687269127.614,-26.367,-25.391,-22.949,-35.156,-180.664
1687269127.618,-26.367,-28.320,-28.809,-28.320,-157.227
1687269127.622,-34.180,-33.691,-21.973,-25.391,-204.590
1687269127.639,-29.785,-26.855,-15.137,-28.809,-220.215
1687269127.643,-26.855,-24.902,-19.531,-21.973,-160.645
1687269127.647,-16.602,-19.531,-23.438,-6.348,-102.051
1687269127.651,-31.738,-16.602,-21.484,-12.207,-132.324
1687269127.655,-56.152,-18.555,-30.762,-50.293,-157.227
1687269127.659,-41.992,-20.508,-22.949,-39.551,1.465
1687269127.663,-48.340,-18.066,-20.508,-29.785,113.770
1687269127.666,-44.434,-13.672,-30.762,-41.016,124.023
1687269127.670,-42.480,-18.066,-19.531,-46.387,39.062
1687269127.674,-52.246,-24.902,-13.184,-41.504,277.344
1687269127.678,-36.133,-27.832,-16.113,-21.973,449.707
1687269127.682,-35.156,-21.484,-20.020,-32.715,-16.602
1687269127.685,-20.508,-15.625,-11.230,-26.367,-215.332
1687269127.689,-17.090,-22.461,-15.137,-4.883,-115.234
1687269127.693,-31.738,-22.461,-27.344,-16.113,-131.348
1687269127.697,-29.297,-13.184,-22.949,-26.367,-149.414
1687269127.701,-29.785,-18.066,-11.230,-24.414,-131.836
1687269127.705,-29.297,-19.531,-9.766,-19.043,20.996
1687269127.709,-12.695,-17.578,-16.113,-22.461,-27.832
1687269127.712,-18.066,-19.043,-24.902,-21.973,-124.512
1687269127.716,-36.133,-16.113,-26.855,-14.648,0.977
1687269127.720,-37.109,-23.438,-21.484,-8.301,-0.977
1687269127.724,-27.832,-28.809,-11.719,-3.418,-107.910
1687269127.728,-20.020,-20.508,-18.066,-12.695,-167.969
1687269127.729,-22.461,-15.137,-26.367,-20.996,-25.391
1687269127.733,-19.531,-22.949,-26.367,-16.113,292.480
1687269127.737,-29.785,-25.879,-28.320,-30.762,20.508
1687269127.741,-20.020,-21.484,-25.879,-22.461,-165.039
1687269127.745,-14.648,-24.414,-28.809,-19.531,-11.719
1687269127.749,-22.461,-19.043,-24.414,-27.832,-24.414
1687269127.753,-22.949,-17.578,-14.160,-19.531,-73.730
1687269127.756,-31.738,-20.508,-19.531,-18.066,-154.297
1687269127.760,-32.715,-18.066,-21.484,-9.277,161.133
1687269127.764,-34.180,-19.043,-16.602,11.230,437.988
1687269127.768,-41.504,-25.391,-24.414,-14.160,-28.809
1687269127.772,-30.273,-21.973,-24.902,-36.133,-162.598
1687269127.774,-19.043,-18.555,-21.484,-5.859,13.672
1687269127.778,-28.809,-21.973,-26.367,-4.395,-127.441
1687269127.782,-21.484,-14.648,-32.227,-24.902,-210.938
1687269127.786,-20.508,-7.812,-34.668,-42.969,-163.574
1687269127.790,-29.297,-14.648,-33.203,-51.758,-118.164
1687269127.794,-29.785,-19.043,-21.973,-48.828,-63.965
1687269127.798,-27.832,-27.832,-14.160,-40.527,-56.152
1687269127.801,-35.156,-29.785,-19.531,-32.715,-11.230
1687269127.805,-34.668,-20.020,-20.508,-18.555,216.797
1687269127.809,-24.414,-20.020,-23.926,-28.320,9.277
1687269127.813,-26.855,-23.438,-28.809,-36.133,-218.262
1687269127.817,-42.480,-21.484,-24.902,-15.625,-123.535
1687269127.819,-46.875,-21.973,-31.738,-16.113,-47.363
1687269127.823,-32.227,-21.484,-32.715,-30.273,-109.863
1687269127.827,-30.273,-16.602,-24.414,-37.598,-166.504
1687269127.831,-29.785,-17.578,-26.367,-51.758,-51.270
1687269127.835,-25.879,-20.996,-24.902,-52.734,-42.480
1687269127.839,-24.414,-23.438,-17.090,-25.879,-71.777
1687269127.843,-21.484,-20.996,-12.207,-25.879,13.184
1687269127.846,-36.133,-13.672,-18.066,-33.203,144.043
1687269127.850,-39.551,-12.207,-26.855,-13.672,199.219
1687269127.854,-33.203,-16.113,-28.809,-25.391,-5.859
1687269127.858,-29.297,-24.902,-28.320,-35.645,-104.004
1687269127.862,-29.297,-26.367,-27.832,-29.785,135.742
1687269127.864,-34.668,-18.066,-21.484,-34.180,23.438
1687269127.868,-39.062,-19.531,-16.113,-35.156,-175.781
1687269127.872,-42.480,-29.785,-23.926,-42.480,-118.164
1687269127.876,-44.922,-25.879,-34.668,-43.945,-54.199
1687269127.880,-44.434,-24.414,-33.203,-31.738,-54.688
1687269127.884,-41.016,-31.250,-36.133,-24.414,-46.875
1687269127.888,-25.879,-32.227,-36.621,-35.645,-27.832
1687269127.891,-40.527,-33.691,-27.344,-34.668,193.848
1687269127.895,-46.387,-28.320,-26.855,-41.016,78.125
1687269127.899,-31.738,-24.414,-27.832,-41.504,-203.125
1687269127.903,-30.273,-28.320,-23.438,-19.531,-133.301
1687269127.907,-36.133,-36.133,-21.973,-38.086,-104.492
1687269127.909,-37.598,-38.086,-24.902,-43.945,-150.391
1687269127.913,-42.969,-30.273,-23.438,-23.438,-152.832
1687269127.917,-34.668,-24.902,-18.555,-19.043,-85.938
1687269127.921,-25.879,-21.484,-20.996,-22.461,-82.031
1687269127.925,-33.203,-23.438,-29.785,-33.691,-142.578
1687269127.929,-32.227,-24.902,-22.461,-32.715,-68.359
1687269127.933,-30.273,-21.973,-21.484,-22.949,149.902
1687269127.936,-37.109,-22.461,-27.344,-21.484,233.398
1687269127.940,-31.250,-23.438,-23.926,-29.297,-34.668
1687269127.944,-30.273,-23.438,-23.438,-42.480,-97.656
1687269127.948,-47.363,-26.367,-31.250,-32.715,142.090
1687269127.952,-53.711,-28.320,-34.180,-29.785,88.379
1687269127.954,-50.293,-26.367,-34.668,-46.875,-153.809
1687269127.958,-46.387,-27.344,-34.180,-45.898,-125.977
1687269127.962,-42.969,-31.250,-31.250,-41.504,-53.711
1687269127.966,-28.809,-23.926,-27.344,-34.180,-129.883
1687269127.970,-25.879,-15.625,-32.715,-42.969,-178.711
1687269127.974,-30.273,-17.578,-31.738,-45.898,5.371
1687269127.978,-35.156,-17.090,-17.578,-16.113,273.438
1687269127.981,-25.391,-12.207,-15.625,-21.973,101.562
1687269127.985,-21.973,-9.766,-22.949,-35.645,-113.281
1687269127.989,-25.879,-12.207,-16.113,-6.836,-31.738
1687269127.993,-13.184,-11.719,-12.207,-4.883,55.664
1687269127.997,-22.949,-13.184,-24.414,-9.277,-86.426
1687269128.014,-40.039,-19.043,-22.949,-2.930,-186.523
1687269128.018,-33.691,-22.461,-16.602,-22.461,-102.539
1687269128.022,-29.785,-22.461,-24.902,-29.785,-69.336
1687269128.026,-28.320,-23.926,-30.273,-34.668,-160.645
1687269128.030,-25.879,-24.902,-22.461,-48.340,-141.113
1687269128.034,-25.879,-23.926,-20.996,-44.922,91.309
1687269128.038,-24.902,-20.508,-31.250,-38.086,165.039
1687269128.041,-21.973,-20.020,-27.344,-26.367,-11.230
1687269128.045,-30.273,-18.555,-23.438,-23.926,-119.141
1687269128.049,-40.039,-20.996,-28.809,-3.906,228.027
1687269128.053,-36.621,-26.855,-29.785,5.371,412.598
1687269128.057,-33.691,-28.320,-29.297,-37.598,39.062
1687269128.059,-40.039,-37.109,-33.203,-56.641,-145.020
1687269128.063,-42.969,-36.133,-41.992,-43.457,10.742
1687269128.067,-35.156,-27.832,-35.156,-39.062,-93.262
1687269128.071,-40.039,-22.461,-23.926,-36.133,-197.754
1687269128.075,-38.086,-21.484,-21.973,-42.969,-139.648
1687269128.079,-39.062,-23.926,-22.949,-47.363,-0.977
1687269128.083,-39.551,-23.926,-23.438,-31.738,-8.301
1687269128.086,-40.039,-26.855,-27.832,-33.203,-178.711
1687269128.090,-49.805,-27.344,-30.762,-35.645,-99.121
1687269128.094,-41.016,-30.762,-27.344,-22.949,254.395
1687269128.098,-34.180,-29.297,-21.973,-18.066,45.898
1687269128.102,-43.945,-26.855,-25.879,-31.250,-216.309
1687269128.104,-51.758,-24.902,-27.344,-40.527,-108.887
1687269128.108,-48.340,-23.438,-28.809,-68.359,-40.039
1687269128.112,-47.852,-26.367,-31.250,-75.684,-93.262
1687269128.116,-49.316,-26.855,-27.832,-68.359,-150.391
1687269128.120,-50.293,-29.785,-30.762,-93.750,3.906
1687269128.124,-62.988,-23.926,-34.180,-94.727,101.562
1687269128.128,-79.590,-10.742,-33.691,-75.195,55.176
1687269128.131,-75.684,3.418,-42.969,-81.543,-72.754
1687269128.135,-80.566,0.977,-45.898,-84.961,132.324
1687269128.139,-117.188,-12.207,-37.109,-114.258,388.184
1687269128.143,-128.418,-9.277,-27.344,-128.418,-78.125
1687269128.147,-115.234,0.977,-16.602,-115.723,-202.148
1687269128.165,-118.652,0.000,-20.996,-137.695,-80.566
1687269128.169,-141.113,3.906,-24.902,-143.555,-165.527
1687269128.173,-151.367,7.324,-15.137,-130.859,-193.359
1687269128.177,-149.902,10.254,-17.578,-150.879,-133.789
1687269128.181,-145.996,7.324,-22.461,-160.645,-16.113
1687269128.185,-146.973,4.395,-21.484,-145.020,-12.695
1687269128.189,-132.812,11.230,-28.809,-148.926,-60.547
1687269128.192,-102.051,10.254,-32.715,-139.160,-20.020
1687269128.196,-90.332,-4.883,-28.320,-120.605,234.863
1687269128.200,-71.289,-9.277,-36.133,-114.258,81.055
1687269128.204,-56.152,-12.695,-46.875,-101.074,-188.477
1687269128.208,-59.082,-25.391,-35.645,-63.965,-147.949
1687269128.193,-65.430,-26.855,-18.555,-50.781,-127.441
1687269128.197,-57.129,-31.250,-12.207,-45.898,-164.551
1687269128.201,-48.340,-31.250,-11.719,-27.832,-141.602
1687269128.205,-41.504,-28.809,-21.484,-28.809,-71.777
1687269128.209,-22.461,-27.832,-26.855,-23.926,-88.379
1687269128.213,-20.020,-36.133,-23.438,-3.418,-31.250
1687269128.217,-22.461,-44.434,-23.438,8.301,36.133
1687269128.220,-18.066,-44.434,-24.414,-0.977,139.160
1687269128.224,-6.348,-47.852,-23.438,0.488,-19.043
1687269128.228,-4.395,-45.410,-38.086,-1.953,-151.367
1687269128.232,-5.371,-44.434,-42.969,-1.465,-132.812
1687269128.236,7.324,-41.992,-25.879,18.555,-57.129
1687269128.239,4.395,-41.992,-18.555,13.184,-88.379
1687269128.243,4.395,-45.898,-20.020,11.719,-148.926
1687269128.247,17.090,-43.457,-22.949,21.973,-106.445
1687269128.251,13.184,-45.898,-22.461,24.902,219.727
1687269128.255,17.090,-45.898,-22.949,17.090,375.977
1687269128.259,22.461,-41.504,-25.879,14.160,34.668
1687269128.263,10.742,-43.945,-26.855,7.324,5.859
1687269128.266,17.090,-47.852,-27.344,10.742,220.703
1687269128.270,19.043,-42.480,-31.738,9.766,-22.949
1687269128.274,10.742,-35.645,-34.668,-2.441,-202.148
1687269128.278,3.418,-38.574,-32.715,10.742,-123.535
1687269128.282,6.836,-46.875,-29.785,11.719,-53.711
1687269128.285,3.906,-46.387,-26.367,7.324,-183.105
1687269128.289,12.207,-41.016,-26.367,10.254,-234.863
1687269128.293,8.301,-42.969,-28.809,3.906,-155.273
1687269128.297,-8.301,-41.016,-30.762,3.906,-129.395
1687269128.301,-11.719,-39.551,-27.344,7.324,-105.957
1687269128.305,-4.395,-37.598,-22.949,9.766,-61.035
1687269128.309,-4.883,-38.086,-21.484,13.672,175.293
1687269128.312,-5.371,-39.551,-21.973,1.465,209.473
1687269128.316,3.418,-34.668,-20.508,-0.977,-107.422
1687269128.320,7.812,-36.133,-20.508,6.836,-120.117
1687269128.324,6.836,-42.480,-18.555,7.324,112.793
1687269128.328,-2.441,-40.039,-20.996,2.930,96.680
1687269128.329,-9.766,-31.738,-21.484,-9.277,-134.766
1687269128.333,-16.602,-37.109,-23.438,-6.348,-103.027
1687269128.337,-21.973,-41.016,-24.414,0.977,62.988
1687269128.341,-14.648,-27.344,-21.973,-5.371,-89.844
1687269128.345,-9.277,-23.438,-27.832,-15.625,-215.820
1687269128.349,-19.531,-27.832,-25.391,-16.113,30.273
1687269128.353,-0.977,-34.668,-12.695,4.395,282.227
1687269128.356,7.812,-28.809,-14.648,1.953,51.270
1687269128.360,-19.531,-17.090,-28.809,-12.695,-123.047
1687269128.364,-19.531,-20.020,-35.156,-35.156,-64.941
1687269128.368,-22.461,-23.926,-38.086,-52.246,8.789
1687269128.372,-29.785,-20.508,-40.039,-26.367,-68.359
1687269128.375,-16.113,-18.066,-39.551,-13.184,-171.387
1687269128.379,-19.043,-21.973,-35.645,-29.297,-95.703
1687269128.383,-22.949,-18.066,-31.738,-20.996,-32.715
1687269128.387,-23.926,-13.184,-35.156,-21.484,-129.395
1687269128.391,-34.180,-19.531,-34.180,-35.156,-195.801
1687269128.395,-31.738,-20.996,-23.438,-26.855,64.941
1687269128.399,-23.926,-18.555,-27.832,-15.137,121.582
1687269128.402,-21.973,-20.020,-34.668,-19.043,-154.297
1687269128.406,-17.578,-22.949,-33.691,-23.438,-199.707
1687269128.410,-14.160,-27.832,-33.203,-13.184,117.188
1687269128.414,-16.602,-33.203,-28.809,-9.277,216.797
1687269128.418,-23.438,-27.344,-23.438,-28.320,-119.141
1687269128.434,-23.926,-22.949,-28.320,-39.551,-139.648
1687269128.438,-20.020,-16.602,-28.809,-36.621,-95.703
1687269128.442,-21.973,-13.672,-16.602,-25.879,-96.680
1687269128.446,-22.949,-19.043,-21.484,-24.902,-100.098
1687269128.450,-20.996,-13.672,-26.367,-25.391,13.672
1687269128.454,-21.973,-10.742,-22.461,-29.297,243.652
1687269128.458,-18.066,-17.090,-29.297,-34.180,49.805
1687269128.461,-27.832,-15.625,-33.203,-37.109,-149.902
1687269128.465,-36.133,-19.043,-29.297,-25.879,-12.207
1687269128.469,-30.273,-26.855,-26.855,-9.277,233.398
1687269128.473,-33.203,-26.367,-28.809,-16.113,33.691
1687269128.477,-21.973,-23.926,-31.250,-27.832,-178.711
1687269128.479,-24.902,-22.949,-29.297,-23.926,-65.918
1687269128.483,-38.574,-20.020,-27.832,-30.273,-12.207
1687269128.487,-37.109,-20.996,-28.320,-34.180,-111.816
1687269128.491,-36.621,-28.320,-25.879,-31.250,-127.441
1687269128.495,-34.668,-27.832,-28.809,-28.809,-42.969
1687269128.499,-30.762,-25.879,-26.367,-38.574,22.949
1687269128.503,-35.156,-23.438,-20.020,-44.434,29.297
1687269128.506,-26.855,-20.020,-20.508,-36.621,2.930
1687269128.510,-16.113,-22.949,-19.043,-27.344,179.199
1687269128.514,-20.020,-21.484,-20.996,-20.020,436.523
1687269128.518,-31.250,-25.391,-25.879,-18.555,75.684
1687269128.522,-22.461,-30.762,-24.414,-15.137,-251.953
1687269128.525,-14.648,-26.855,-25.391,-20.996,-153.809
1687269128.529,-24.414,-25.879,-22.461,-24.902,-165.039
1687269128.533,-22.949,-24.414,-17.090,-23.438,-200.684
1687269128.537,-19.531,-23.438,-19.043,-31.738,-163.086
1687269128.541,-24.902,-27.344,-24.902,-29.297,-93.750
1687269128.545,-41.504,-24.902,-25.391,-16.602,-48.828
1687269128.549,-48.340,-26.367,-25.391,-23.926,-65.430
1687269128.552,-31.250,-29.297,-23.926,-27.344,-26.367
1687269128.556,-29.785,-24.414,-20.996,-26.367,233.398
1687269128.560,-53.711,-24.902,-23.438,-35.156,104.004
1687269128.564,-41.992,-24.414,-22.461,-31.250,-194.336
1687269128.568,-18.066,-21.973,-26.855,-20.996,-100.098
1687269128.568,-28.809,-21.973,-27.344,-26.367,-17.090
1687269128.572,-27.832,-17.578,-20.508,-29.785,-173.340
1687269128.576,-31.250,-20.996,-23.926,-34.668,-175.781
1687269128.580,-39.551,-35.156,-31.250,-32.715,-39.551
1687269128.584,-31.738,-30.762,-33.691,-32.715,-50.781
1687269128.588,-36.621,-24.414,-27.832,-33.203,12.695
1687269128.592,-42.480,-20.996,-23.438,-25.879,67.383
1687269128.595,-38.574,-25.879,-30.762,-34.180,173.828
1687269128.599,-39.551,-30.273,-40.039,-47.363,236.816
1687269128.603,-38.574,-29.785,-43.457,-38.574,-21.973
1687269128.607,-47.363,-31.250,-46.387,-38.086,-101.074
1687269128.611,-46.387,-33.203,-34.180,-34.180,118.652
1687269128.614,-47.363,-31.250,-30.273,-16.113,37.109
1687269128.618,-41.992,-28.320,-34.668,-30.762,-206.055
1687269128.622,-36.621,-28.320,-33.203,-33.691,-129.883
1687269128.626,-38.086,-31.738,-29.297,-26.855,65.430
1687269128.630,-32.227,-28.320,-27.832,-40.039,-51.758
1687269128.634,-39.062,-22.949,-33.203,-46.875,-173.828
1687269128.638,-28.809,-24.902,-27.344,-31.738,-10.742
1687269128.641,-29.785,-26.367,-24.414,-20.020,284.180
1687269128.645,-44.922,-28.809,-32.715,-35.645,83.008
1687269128.649,-36.133,-31.250,-30.273,-30.273,-157.715
1687269128.653,-40.039,-27.832,-27.344,-33.203,-104.492
1687269128.657,-38.086,-30.273,-31.250,-38.086,-97.168
1687269128.659,-27.344,-34.668,-25.879,-22.949,-178.223
1687269128.663,-29.297,-31.738,-23.926,-47.852,-206.543
1687269128.667,-30.762,-31.250,-27.344,-54.199,-90.820
1687269128.671,-22.949,-30.762,-28.320,-37.598,-79.102
1687269128.675,-34.668,-29.297,-33.203,-38.574,-136.719
1687269128.679,-46.875,-36.621,-32.227,-36.133,-124.512
1687269128.683,-41.016,-36.133,-28.809,-38.574,169.434
1687269128.686,-39.062,-27.832,-29.785,-36.621,323.242
1687269128.690,-38.574,-25.879,-30.273,-40.527,-65.430
1687269128.694,-40.527,-23.438,-32.715,-46.387,-120.117
1687269128.698,-25.879,-22.949,-25.879,-33.203,120.605
1687269128.702,-30.762,-29.785,-22.949,-38.086,0.977
1687269128.704,-43.457,-30.273,-31.250,-47.363,-170.898
1687269128.708,-32.715,-28.320,-26.367,-34.180,-151.855
1687269128.712,-35.645,-22.949,-20.508,-35.645,-115.234
1687269128.716,-25.391,-15.625,-22.949,-36.133,-79.102
1687269128.720,-27.344,-23.926,-27.344,-17.578,-63.477
1687269128.724,-39.551,-32.227,-27.832,-23.438,32.227
1687269128.728,-33.203,-31.738,-26.367,-32.715,381.348
1687269128.731,-15.625,-40.527,-23.438,-19.043,169.922
1687269128.735,-20.020,-36.621,-22.949,-23.438,-238.770
1687269128.739,-24.902,-25.879,-27.832,-30.273,-156.250
1687269128.743,-21.484,-28.809,-30.273,-32.227,-80.078
1687269128.747,-36.621,-28.320,-32.227,-42.969,-184.082
1687269128.764,-34.180,-26.855,-25.879,-51.270,-223.633
1687269128.768,-26.855,-35.156,-25.391,-41.992,-68.848
1687269128.772,-33.203,-32.227,-28.809,-25.879,-6.348
1687269128.776,-39.551,-24.414,-24.902,-30.273,-119.141
1687269128.780,-46.387,-21.973,-27.344,-38.086,-154.785
1687269128.784,-38.086,-21.973,-31.250,-34.180,-17.578
1687269128.788,-36.133,-25.879,-29.297,-38.574,43.457
1687269128.791,-35.156,-26.855,-26.855,-44.434,-97.656
1687269128.795,-19.531,-26.855,-25.879,-42.969,-145.508
1687269128.799,-28.809,-20.996,-23.926,-26.855,205.566
1687269128.803,-30.762,-16.113,-24.414,-17.090,460.938
1687269128.807,-16.113,-19.043,-25.879,-34.668,106.934
1687269128.809,-11.230,-17.578,-18.555,-24.902,-137.207
1687269128.813,-22.461,-25.879,-18.066,-14.160,-58.594
1687269128.817,-43.457,-32.715,-18.066,-18.555,-125.977
1687269128.821,-41.504,-31.250,-15.137,-17.090,-203.125
1687269128.825,-34.668,-27.832,-16.602,-36.621,-179.199
1687269128.829,-45.410,-30.762,-21.973,-43.457,-3.906
1687269128.833,-48.828,-28.320,-28.809,-46.875,89.355
1687269128.836,-44.434,-22.949,-33.203,-45.410,-123.047
1687269128.840,-40.039,-20.508,-31.250,-25.879,-143.555
1687269128.844,-37.598,-22.461,-30.273,-24.902,267.090
1687269128.848,-38.086,-25.879,-27.832,-27.344,120.605
1687269128.852,-41.992,-19.043,-22.949,-30.762,-203.613
1687269128.853,-29.785,-20.508,-22.461,-35.645,-131.348
1687269128.857,-31.250,-23.438,-29.297,-31.738,-20.996
1687269128.861,-34.668,-19.531,-32.227,-47.363,-96.191
1687269128.865,-23.438,-20.020,-28.809,-34.180,-144.531
1687269128.869,-16.602,-15.137,-25.879,-23.438,-61.035
1687269128.873,-23.438,-13.672,-28.320,-23.926,25.879
1687269128.877,-45.410,-18.066,-27.832,-17.578,42.480
1687269128.880,-41.504,-20.508,-25.879,-26.367,-132.812
1687269128.884,-30.762,-22.949,-29.785,-18.555,82.031
1687269128.888,-39.062,-28.320,-33.203,-15.625,419.922
1687269128.892,-39.062,-33.203,-33.691,-35.645,-43.945
1687269128.896,-35.645,-33.691,-29.785,-35.645,-193.848
1687269128.899,-39.551,-29.785,-25.391,-26.367,60.059
1687269128.903,-28.809,-17.090,-40.039,-32.227,-34.180
1687269128.907,-13.672,-13.672,-37.598,-30.273,-125.488
1687269128.911,-38.574,-28.809,-19.531,-43.457,-88.867
1687269128.915,-51.758,-37.109,-17.090,-61.523,-46.875
1687269128.919,-35.156,-35.645,-16.113,-44.434,22.949
1687269128.923,-27.832,-30.762,-15.625,-37.109,69.336
1687269128.926,-29.297,-25.879,-11.230,-41.992,66.895
1687269128.930,-44.922,-25.391,-10.254,-32.227,228.027
1687269128.934,-48.828,-24.414,-19.043,-40.527,29.785
1687269128.938,-45.898,-25.879,-24.902,-36.133,-221.680
1687269128.942,-29.785,-31.250,-23.926,-23.926,-138.672
1687269128.945,-25.391,-31.250,-20.996,-19.043,-118.164
1687269128.949,-29.297,-28.320,-16.602,-17.090,-170.898
1687269128.953,-23.438,-28.320,-16.113,-23.438,-94.238
1687269128.957,-19.043,-23.438,-19.043,-17.578,57.617
1687269128.961,-18.066,-20.996,-19.531,-4.395,76.660
1687269128.965,-33.203,-23.438,-22.461,-9.277,47.852
1687269128.969,-35.645,-21.484,-22.461,-22.461,10.742
1687269128.972,-25.879,-20.020,-15.625,-10.254,124.512
1687269128.976,-33.203,-18.066,-16.113,-9.766,183.105
1687269128.980,-36.621,-9.766,-23.926,-23.926,-57.617
1687269128.984,-33.203,-11.230,-25.391,-19.531,-117.188
1687269128.988,-39.062,-22.461,-17.578,-7.812,93.750
1687269128.989,-31.738,-22.949,-16.602,-7.324,13.672
1687269128.993,-43.457,-23.926,-21.484,16.113,-208.984
1687269128.997,-37.598,-18.066,-27.344,-38.574,-149.902
1687269129.001,-27.344,-14.160,-31.250,-78.125,-99.609
1687269129.005,-35.156,-22.949,-27.832,-55.176,-100.586
1687269129.009,-26.367,-24.902,-31.250,-78.613,-20.020
1687269129.013,-37.109,-19.531,-26.855,-71.777,-14.648
1687269129.016,-41.992,-20.996,-21.973,-51.758,295.898
1687269129.020,-41.504,-18.066,-28.320,-76.660,193.359
1687269129.024,-50.781,-5.371,-26.367,-100.586,-182.129
1687269129.028,-64.453,-2.441,-24.414,-99.121,-156.250
1687269129.032,-86.426,0.977,-32.227,-93.262,-86.426
1687269129.034,-103.027,2.441,-34.180,-93.750,-98.633
1687269129.038,-99.609,11.719,-32.715,-113.281,-108.398
1687269129.042,-93.262,33.691,-36.621,-107.422,-49.805
1687269129.046,-105.469,30.273,-36.133,-104.004,-88.867
1687269129.050,-116.211,17.090,-26.855,-119.629,-141.113
1687269129.054,-128.418,26.367,-27.344,-127.930,-64.453
1687269129.058,-140.625,34.180,-32.715,-141.602,169.434
1687269129.061,-137.695,37.598,-35.645,-149.902,187.988
1687269129.065,-146.484,39.062,-39.551,-153.320,-31.250
1687269129.069,-153.320,33.203,-31.738,-158.203,-71.777
1687269129.073,-149.414,36.133,-25.391,-150.391,131.348
1687269129.077,-161.621,41.016,-28.320,-164.062,285.156
1687269129.079,-180.664,36.133,-34.180,-183.594,-110.352
1687269129.083,-178.223,44.434,-32.227,-177.734,-227.051
1687269129.087,-169.434,46.387,-31.738,-181.152,-146.973
1687269129.091,-159.180,40.527,-40.527,-179.199,-191.895
1687269129.095,-123.047,40.527,-38.574,-170.898,-207.520
1687269129.099,-97.168,31.250,-28.809,-162.109,-59.082
1687269129.103,-103.027,22.461,-20.996,-146.973,219.238
1687269129.106,-130.859,23.926,-20.996,-144.531,43.457
1687269129.110,-130.371,20.996,-16.113,-128.906,-153.809
1687269129.114,-113.281,9.766,-15.137,-109.863,-54.199
1687269129.118,-126.465,4.883,-20.020,-104.492,122.559
1687269129.122,-126.465,-2.930,-22.461,-97.656,-68.359
1687269129.139,-101.074,-12.695,-23.438,-77.148,-189.453
1687269129.143,-86.914,-11.230,-27.832,-47.852,-72.754
1687269129.147,-84.473,-12.695,-40.039,-64.453,-57.129
1687269129.151,-64.941,-18.555,-44.434,-77.637,-136.230
1687269129.155,-39.062,-25.879,-43.457,-57.617,-109.375
1687269129.159,-26.855,-28.809,-35.645,-46.875,68.359
1687269129.163,-3.906,-24.414,-24.902,-41.016,89.844
1687269129.166,0.000,-28.809,-25.391,-37.109,-42.969
1687269129.170,-10.254,-39.551,-23.438,-12.695,-142.578
1687269129.174,10.254,-43.457,-20.508,7.324,125.488
1687269129.178,22.949,-44.922,-22.949,19.043,330.078
1687269129.182,15.137,-45.410,-30.273,19.531,-110.840
1687269129.184,15.137,-51.270,-33.691,19.043,-147.461
1687269129.188,29.297,-57.617,-32.715,22.461,24.902
1687269129.192,41.992,-58.105,-34.180,32.715,-188.965
1687269129.196,54.199,-54.688,-34.180,35.156,-229.492
1687269129.200,58.594,-53.711,-31.250,33.203,-151.367
1687269129.204,61.035,-62.500,-27.832,43.945,-64.941
1687269129.208,72.754,-63.477,-25.879,50.293,79.102
1687269129.211,57.129,-65.918,-28.320,45.410,-9.277
1687269129.215,48.340,-68.359,-28.809,49.316,-112.305
1687269129.219,53.711,-63.477,-22.461,63.965,133.789
1687269129.223,52.734,-58.594,-19.043,66.895,-50.781
1687269129.227,54.199,-58.594,-16.602,76.172,-256.836
1687269129.228,39.551,-57.617,-13.672,78.613,-146.484
1687269129.232,40.527,-52.734,-12.207,52.734,-160.645
1687269129.236,39.551,-50.293,-15.625,29.785,-223.633
1687269129.240,27.832,-52.734,-19.043,25.391,-187.988
1687269129.244,31.250,-55.176,-9.766,30.273,-89.355
1687269129.248,25.879,-46.387,-10.742,35.645,-25.879
1687269129.252,18.555,-38.574,-19.043,39.551,-54.199
1687269129.255,27.832,-45.410,-16.113,42.480,-150.879
1687269129.259,28.320,-43.945,-15.625,24.414,68.848
1687269129.263,18.555,-40.527,-15.137,24.414,389.160
1687269129.267,3.418,-51.758,-18.066,25.879,-8.301
1687269129.271,0.977,-49.805,-22.949,15.625,-209.961
1687269129.274,5.371,-47.852,-20.508,22.461,-27.832
1687269129.278,8.789,-53.223,-20.020,23.926,-132.812
1687269129.282,4.395,-54.199,-23.438,13.672,-219.238
1687269129.286,-2.441,-53.223,-21.484,21.484,-144.043
1687269129.290,-5.371,-49.805,-19.043,3.418,-68.848
1687269129.294,-21.484,-47.363,-25.391,-17.090,-20.020
1687269129.298,-26.367,-41.016,-27.344,0.488,-35.156
1687269129.301,-17.090,-36.133,-25.879,-3.418,-7.812
1687269129.305,-28.320,-36.133,-25.391,3.418,319.824
1687269129.309,-20.020,-35.156,-24.414,8.301,197.754
1687269129.313,-5.371,-31.738,-28.809,-7.324,-157.227
1687269129.317,-35.156,-35.645,-32.227,-13.672,-125.977
1687269129.319,-33.203,-37.598,-27.344,-13.672,-88.867
1687269129.323,-19.531,-35.156,-26.367,-7.812,-133.301
1687269129.327,-27.832,-31.250,-29.297,-19.043,-151.367
1687269129.331,-17.578,-28.809,-22.461,-16.602,-106.934
1687269129.335,-19.043,-29.297,-20.996,-20.020,-129.883
1687269129.339,-20.996,-22.949,-16.602,-10.742,-102.051
1687269129.343,-15.137,-19.531,-18.066,-17.578,-85.449
1687269129.346,-30.762,-18.066,-22.461,-33.691,103.516
1687269129.350,-42.969,-15.137,-21.973,-36.133,346.191
1687269129.354,-44.922,-12.695,-21.484,-47.852,108.887
1687269129.358,-59.570,-12.695,-30.273,-67.871,-23.926
1687269129.362,-66.406,-12.695,-31.738,-81.543,140.625
1687269129.364,-78.613,-8.789,-27.832,-83.496,63.965
1687269129.368,-105.469,0.000,-32.227,-103.516,-186.035
1687269129.372,-115.234,5.859,-32.715,-113.281,-131.836
1687269129.376,-125.000,6.836,-34.180,-120.117,-33.691
1687269129.380,-126.465,12.207,-31.738,-139.648,-98.633
1687269129.384,-134.766,22.461,-36.133,-153.320,-99.121
1687269129.388,-142.578,18.066,-40.527,-139.648,-8.301
1687269129.391,-145.508,22.949,-36.133,-138.672,280.762
1687269129.395,-152.344,36.133,-28.320,-167.969,90.820
1687269129.399,-168.945,30.762,-35.645,-188.477,-213.867
1687269129.403,-166.016,25.879,-40.527,-180.664,-38.086
1687269129.407,-163.086,23.438,-37.109,-186.523,-12.207
1687269129.409,-166.016,24.414,-41.016,-201.172,-161.133
1687269129.413,-164.062,27.344,-42.969,-187.500,-200.684
1687269129.417,-147.461,30.762,-31.738,-177.734,-107.910
1687269129.421,-140.137,29.297,-26.367,-161.133,-48.828
1687269129.425,-144.043,17.090,-33.203,-137.207,-49.316
1687269129.429,-128.418,12.207,-40.527,-133.301,-57.617
1687269129.433,-99.609,16.113,-44.434,-135.254,187.012
1687269129.436,-70.312,9.766,-44.434,-100.098,377.441
1687269129.440,-55.664,7.324,-42.969,-82.520,33.203
1687269129.444,-67.871,6.348,-38.574,-84.473,-18.066
1687269129.448,-64.941,-10.742,-31.250,-76.660,122.070
1687269129.452,-40.039,-18.066,-38.574,-51.758,-62.988
1687269129.454,-20.996,-19.043,-44.434,-29.297,-224.609
1687269129.458,-17.578,-23.438,-39.551,-18.555,-99.121
1687269129.462,-9.766,-35.645,-38.574,4.395,70.312
1687269129.466,5.371,-46.387,-31.738,13.672,-44.922
1687269129.470,8.301,-48.340,-25.879,19.043,-205.566
1687269129.474,14.160,-52.246,-26.367,45.898,-35.645
1687269129.478,27.344,-54.199,-35.156,39.062,160.156
1687269129.481,41.016,-54.199,-34.668,20.020,-19.043
1687269129.485,50.781,-54.688,-27.344,32.715,-186.523
1687269129.489,54.688,-58.594,-20.020,51.270,-83.008
1687269129.493,50.781,-61.523,-16.602,65.430,56.152
1687269129.497,59.082,-60.547,-21.973,67.871,-106.934
1687269129.514,65.430,-67.871,-26.855,64.941,-165.527
1687269129.518,46.387,-77.637,-23.926,60.059,-99.609
1687269129.522,37.598,-70.312,-20.996,48.340,-125.488
1687269129.526,46.875,-63.965,-27.344,39.062,-80.566
1687269129.530,39.551,-74.707,-25.391,36.621,-67.871
1687269129.534,32.715,-71.777,-21.973,36.133,194.824
1687269129.538,47.363,-63.477,-23.926,35.156,359.863
1687269129.541,50.781,-64.941,-23.926,46.387,-15.137
1687269129.545,48.340,-59.082,-19.043,49.805,-133.301
1687269129.549,52.246,-62.012,-18.555,61.523,248.535
1687269129.553,43.457,-67.383,-26.367,68.359,224.609
1687269129.557,38.086,-61.035,-30.273,47.363,-163.086
1687269129.560,40.039,-56.641,-30.273,36.621,-168.457
1687269129.564,28.320,-50.781,-26.855,33.203,-98.633
1687269129.568,25.879,-52.246,-20.996,32.715,-108.887
1687269129.572,21.484,-48.828,-25.879,30.273,-135.254
1687269129.576,19.043,-41.016,-31.738,31.738,-101.074
1687269129.580,25.391,-42.480,-23.438,29.785,-12.207
1687269129.584,12.207,-45.410,-17.090,17.090,5.859
1687269129.587,4.883,-37.598,-19.043,5.859,-19.531
1687269129.591,-7.324,-27.344,-22.949,23.438,-25.391
1687269129.595,0.977,-38.086,-15.625,40.527,261.719
1687269129.599,7.324,-43.457,-12.695,28.809,112.305
1687269129.603,-5.859,-36.133,-20.508,17.090,-214.844
1687269129.604,-10.254,-35.645,-16.113,9.277,-153.320
1687269129.608,-8.301,-37.109,-17.578,0.488,-96.191
1687269129.612,-7.812,-41.504,-21.484,9.277,-145.508
1687269129.616,-2.930,-43.457,-18.066,0.488,-175.781
1687269129.620,13.672,-36.133,-19.531,-4.883,-51.758
1687269129.624,2.930,-30.273,-13.672,11.230,15.137
1687269129.628,-3.418,-29.297,-17.090,3.418,-42.480
1687269129.631,6.348,-32.715,-27.344,-3.906,-113.770
1687269129.635,-6.348,-31.250,-21.973,10.742,133.789
1687269129.639,-14.648,-31.738,-19.043,16.602,548.340
1687269129.643,-2.930,-41.016,-22.461,4.883,248.535
1687269129.647,1.465,-38.086,-19.043,-6.348,-74.219
1687269129.649,-14.160,-30.273,-21.484,-11.719,-90.332
1687269129.653,-11.719,-27.832,-23.438,-13.672,-175.781
1687269129.657,1.953,-22.461,-24.414,-16.113,-222.656
1687269129.661,-16.602,-20.996,-23.438,-8.301,-179.199
1687269129.665,-20.996,-28.320,-17.090,-9.277,-52.734
1687269129.669,-21.973,-25.879,-16.602,-9.766,62.012
1687269129.673,-34.668,-25.879,-22.949,-8.301,-14.648
1687269129.676,-18.066,-28.809,-23.926,-10.742,-67.383
1687269129.680,-15.625,-25.391,-24.902,-8.789,240.723
1687269129.684,-18.555,-29.785,-25.391,-18.555,79.102
1687269129.688,-7.812,-28.809,-21.973,-16.113,-187.012
1687269129.692,-14.160,-20.996,-19.043,-23.926,-73.730
1687269129.694,-9.766,-25.391,-16.113,-27.344,-39.062
1687269129.698,-13.672,-35.156,-19.531,-22.949,-117.676
1687269129.702,-30.273,-31.738,-27.344,-40.039,-159.180
1687269129.706,-27.832,-29.297,-31.250,-26.855,-12.695
1687269129.710,-30.762,-28.809,-30.762,-20.020,51.270
1687269129.714,-26.367,-33.203,-18.555,-18.555,1.953
1687269129.718,-30.762,-32.227,-21.484,-18.066,-11.719
1687269129.721,-19.531,-26.855,-23.926,-3.418,68.359
1687269129.725,-0.977,-18.066,-16.602,-3.418,119.141
1687269129.729,-7.324,-21.484,-18.066,-18.555,-87.402
1687269129.733,-15.625,-29.297,-20.020,-6.836,-169.434
1687269129.737,-28.809,-31.250,-22.949,-4.395,11.230
1687269129.739,-24.414,-29.297,-22.461,-19.043,-29.297
1687269129.743,-18.555,-24.902,-28.320,-14.648,-123.047
1687269129.747,-14.160,-35.645,-32.715,-3.418,-74.707
1687269129.751,-14.648,-36.621,-28.320,-12.207,-8.301
1687269129.755,-35.645,-22.949,-27.344,-33.691,-70.312
1687269129.759,-41.504,-20.508,-35.645,-25.879,-77.148
1687269129.763,-27.832,-27.344,-39.062,-18.555,11.230
1687269129.766,-14.160,-26.855,-29.785,-7.812,215.820
1687269129.770,-22.949,-24.414,-32.227,-20.508,-29.297
1687269129.774,-39.062,-23.926,-30.762,-31.738,-277.832
1687269129.778,-23.926,-26.855,-22.949,-32.715,-181.641
1687269129.782,-28.809,-26.855,-30.273,-35.645,-131.836
1687269129.784,-41.504,-23.438,-33.203,-34.180,-158.691
1687269129.788,-26.367,-29.785,-22.949,-29.297,-167.969
1687269129.792,-36.133,-35.645,-26.367,-29.785,-48.828
1687269129.796,-49.316,-37.598,-29.785,-45.898,16.113
1687269129.800,-42.969,-33.691,-33.203,-36.133,13.184
1687269129.804,-45.898,-23.438,-32.227,-25.879,0.977
1687269129.808,-32.715,-23.438,-15.625,-20.996,236.816
1687269129.811,-26.367,-19.531,-13.184,-23.926,391.602
1687269129.815,-30.762,-19.043,-20.508,-21.973,18.066
1687269129.819,-32.227,-29.785,-17.578,-12.207,-35.645
1687269129.823,-32.227,-34.180,-20.020,-19.043,145.996
1687269129.827,-41.016,-33.691,-28.809,-28.809,-40.039
1687269129.829,-56.641,-29.785,-27.344,-46.875,-200.684
1687269129.833,-51.270,-28.809,-24.414,-53.223,-148.926
1687269129.837,-39.062,-32.227,-39.062,-45.410,-107.910
1687269129.841,-34.180,-34.668,-35.645,-43.945,-157.715
1687269129.845,-27.832,-32.227,-34.668,-49.805,-186.523
1687269129.849,-33.691,-27.344,-36.621,-56.641,0.000
1687269129.853,-39.551,-30.273,-32.715,-52.734,260.254
1687269129.856,-36.133,-29.297,-34.668,-38.574,113.281
1687269129.860,-41.504,-20.996,-33.691,-39.551,-129.395
1687269129.864,-38.574,-23.926,-31.738,-34.668,-110.352
1687269129.868,-24.902,-23.438,-35.156,-29.785,135.742
1687269129.872,-34.668,-28.809,-27.344,-45.898,-52.734
1687269129.874,-28.809,-36.621,-23.438,-43.457,-197.754
1687269129.878,-25.391,-33.691,-23.438,-19.531,-56.152
1687269129.882,-41.992,-32.227,-20.020,-9.277,-76.172
1687269129.886,-41.992,-36.133,-27.832,-28.320,-129.395
1687269129.890,-37.598,-36.133,-29.785,-27.344,-105.957
1687269129.894,-35.156,-31.250,-20.996,-28.320,1.953
1687269129.898,-49.805,-20.996,-21.973,-35.156,91.797
1687269129.901,-46.387,-22.949,-33.203,-34.668,-51.758
1687269129.905,-30.762,-20.996,-38.086,-57.617,-134.277
1687269129.909,-31.250,-24.414,-26.855,-47.363,242.676
1687269129.913,-13.672,-41.016,-19.531,-19.531,516.113
1687269129.917,-17.578,-36.133,-27.344,-35.156,76.660
1687269129.934,-50.781,-27.832,-18.555,-25.391,-184.570
1687269129.938,-48.340,-31.738,-18.555,-16.602,-135.742
1687269129.942,-47.852,-31.738,-18.555,-37.598,-180.664
1687269129.946,-57.129,-24.414,-12.695,-44.434,-189.941
1687269129.950,-30.762,-34.668,-40.527,-31.738,-141.113
1687269129.954,-25.391,-35.645,-37.109,-24.414,-35.645
1687269129.958,-25.391,-21.973,-17.578,-22.461,-69.824
1687269129.961,-20.020,-20.508,-28.809,-28.320,-188.965
1687269129.965,-31.738,-25.391,-35.645,-22.949,-94.727
1687269129.969,-19.531,-33.691,-16.602,-15.137,218.262
1687269129.973,-18.555,-30.273,-9.766,-29.785,42.480
1687269129.977,-37.109,-22.461,-29.785,-34.668,-153.809
1687269129.979,-38.574,-26.367,-36.133,-29.785,-108.398
1687269129.983,-37.109,-28.809,-37.598,-18.555,-34.668
1687269129.987,-39.551,-28.809,-28.320,-22.949,-122.559
1687269129.991,-43.457,-21.484,-19.043,-40.039,-173.828
1687269129.995,-43.945,-20.020,-28.809,-40.039,-126.953
1687269129.999,-37.598,-28.320,-34.180,-28.809,50.293
1687269130.003,-24.902,-38.086,-37.109,-15.625,66.895
1687269130.006,-23.926,-31.250,-33.691,-26.855,-112.305
1687269130.010,-28.320,-27.832,-27.832,-30.762,67.871
1687269130.014,-1.953,-25.879,-23.438,-17.090,216.797
1687269130.018,8.301,-27.832,-7.324,-17.090,-35.156
1687269130.022,-2.930,-20.508,-26.367,-38.574,-178.711
1687269130.024,6.836,-22.461,-33.203,-43.457,62.988
1687269130.028,16.113,-30.762,-32.715,-32.715,138.672
1687269130.032,-10.742,-30.273,-43.457,-25.879,-140.137
1687269130.036,-33.691,-29.785,-19.531,-14.160,-200.195
1687269130.040,-20.996,-32.715,-11.230,-0.488,-0.488
1687269130.044,-39.062,-43.457,-27.344,-6.836,8.789
1687269130.048,-62.988,-35.645,-26.367,-16.602,-115.723
1687269130.051,-54.688,-33.203,-22.461,-7.324,-64.453
1687269130.055,-53.711,-31.250,-17.090,-0.977,208.984
1687269130.059,-45.410,-25.391,-23.926,-15.137,12.207
1687269130.063,-28.809,-27.344,-23.438,-16.113,-217.285
1687269130.067,-35.156,-32.227,-12.207,-33.691,-114.258
1687269130.069,-51.270,-29.785,-26.367,-41.504,-83.496
1687269130.073,-43.457,-23.926,-36.133,-27.344,-135.254
1687269130.077,-27.832,-24.414,-36.621,-26.855,-176.270
1687269130.081,-36.133,-25.391,-32.227,-20.996,-47.852
1687269130.085,-31.738,-20.996,-30.273,-32.715,42.969
1687269130.089,-33.203,-28.320,-28.809,-38.086,14.648
1687269130.093,-39.062,-32.227,-27.832,-35.156,-118.652
1687269130.096,-19.531,-11.719,-29.297,-22.461,28.320
1687269130.100,-18.555,-19.043,-31.250,-18.066,365.723
1687269130.104,-25.879,-32.715,-21.973,-24.902,130.371
1687269130.108,-33.691,-37.598,-10.254,-15.137,-121.094
1687269130.112,-30.273,-38.086,-30.762,-15.625,22.461
1687269130.129,-22.461,-27.344,-36.133,-17.578,-33.691
1687269130.133,-28.320,-23.438,-27.832,-10.742,-204.102
1687269130.137,-43.945,-29.785,-27.344,-9.766,-150.391
1687269130.141,-40.527,-35.156,-26.367,-21.484,-58.594
1687269130.145,-31.738,-25.879,-25.391,-45.898,-93.750
1687269130.149,-34.180,-18.555,-27.344,-37.109,-79.102
1687269130.153,-26.855,-27.344,-29.785,-18.555,1.953
1687269130.156,-15.625,-24.414,-27.344,-29.785,288.574
1687269130.160,-29.297,-20.020,-26.367,-35.645,202.637
1687269130.164,-49.316,-18.555,-29.785,-35.156,-141.602
1687269130.168,-42.480,-20.996,-31.250,-53.223,-101.074
1687269130.172,-33.691,-30.273,-39.062,-52.734,-88.379
1687269130.159,-35.156,-22.949,-39.551,-38.086,-125.977
1687269130.163,-50.781,-25.391,-28.320,-61.035,-101.074
1687269130.167,-44.922,-26.855,-28.320,-68.848,-82.031
1687269130.171,-35.156,-20.508,-35.645,-32.715,-108.887
1687269130.175,-40.527,-28.320,-33.203,-25.391,-208.984
1687269130.179,-45.410,-39.551,-27.832,-36.621,-138.184
1687269130.183,-39.062,-37.109,-26.855,-32.715,106.934
1687269130.186,-47.363,-31.250,-24.902,-30.273,-7.324
1687269130.190,-46.387,-30.273,-28.320,-25.391,-171.875
1687269130.194,-25.879,-27.344,-20.020,-12.695,-73.730
1687269130.198,-28.320,-26.367,-11.230,-3.418,251.953
1687269130.202,-26.855,-21.484,-32.227,-34.668,481.934
1687269130.205,-18.555,-19.531,-33.691,-38.574,143.066
1687269130.209,-27.832,-24.902,-25.879,-40.039,-107.422
1687269130.213,-40.039,-22.461,-22.461,-61.035,-27.832
1687269130.217,-33.203,-15.137,-23.926,-38.574,-115.723
1687269130.221,-22.461,-20.508,-29.785,-20.996,-196.777
1687269130.225,-18.555,-24.414,-22.461,-20.020,-10.254
1687269130.229,-19.531,-22.949,-23.438,-26.367,267.578
1687269130.232,-41.016,-27.344,-28.809,-36.621,36.621
1687269130.236,-52.734,-31.250,-24.902,-47.363,-206.543
1687269130.240,-37.598,-30.273,-25.879,-30.762,-121.094
1687269130.244,-33.203,-28.320,-32.227,-30.762,-77.637
1687269130.248,-32.715,-17.578,-35.645,-26.367,-144.531
1687269130.250,-35.156,-22.949,-23.438,-16.602,-188.965
1687269130.254,-32.715,-27.344,-23.438,-30.762,-114.746
1687269130.258,-29.785,-21.484,-24.902,-34.180,0.977
1687269130.262,-41.016,-28.809,-22.461,-32.227,-117.676
1687269130.266,-34.668,-38.086,-27.832,-40.039,-175.781
1687269130.270,-33.203,-32.227,-27.832,-42.480,33.203
1687269130.274,-33.203,-24.414,-31.250,-26.855,84.961
1687269130.277,-29.785,-35.645,-34.668,-32.227,-18.555
1687269130.281,-29.297,-38.086,-30.273,-35.645,-99.609
1687269130.285,-27.344,-32.715,-28.320,-25.391,205.078
1687269130.289,-32.227,-33.203,-30.762,-35.645,361.328
1687269130.293,-41.992,-30.273,-30.762,-46.875,-93.262
1687269130.310,-24.902,-31.738,-32.715,-48.340,-230.957
1687269130.314,-9.277,-33.203,-35.645,-47.363,-106.445
1687269130.318,-17.578,-24.902,-32.715,-36.621,-78.613
1687269130.322,-28.320,-32.227,-31.738,-43.945,-171.875
1687269130.326,-34.668,-38.574,-33.691,-41.016,-128.418
1687269130.330,-22.461,-24.902,-41.504,-20.020,233.887
1687269130.334,-31.738,-27.344,-37.598,-29.785,162.109
1687269130.337,-53.711,-41.016,-28.320,-40.039,-157.715
1687269130.341,-54.199,-33.691,-29.297,-29.785,-117.676
1687269130.345,-42.480,-29.785,-30.762,-4.883,144.043
1687269130.349,-35.645,-32.715,-31.250,-25.879,2.930
1687269130.353,-38.574,-33.691,-36.133,-44.434,-134.277
1687269130.369,-34.180,-34.180,-34.180,-38.574,-64.941
1687269130.373,-41.016,-35.645,-22.461,-48.828,-57.617
1687269130.377,-45.898,-36.621,-30.273,-49.805,-73.730
1687269130.381,-44.434,-29.297,-30.762,-45.410,-108.398
1687269130.385,-47.363,-28.809,-26.855,-29.785,27.344
1687269130.389,-41.016,-29.297,-32.715,-23.926,144.043
1687269130.393,-34.668,-29.297,-28.320,-35.645,64.941
1687269130.396,-33.203,-26.367,-17.578,-29.297,-41.504
1687269130.400,-30.273,-27.832,-22.949,-15.137,136.230
1687269130.404,-25.879,-23.926,-27.832,-22.949,533.203
1687269130.408,-31.738,-21.973,-33.203,-42.969,143.066
1687269130.412,-36.133,-33.203,-28.809,-44.434,-230.957
1687269130.399,-28.809,-30.273,-21.484,-24.414,-136.719
1687269130.403,-19.043,-30.762,-25.391,-7.812,-188.477
1687269130.407,-23.926,-32.227,-28.320,-10.742,-218.750
1687269130.411,-35.645,-29.785,-27.344,-32.227,-159.180
1687269130.415,-35.156,-30.762,-24.414,-33.203,-90.332
1687269130.419,-28.809,-32.715,-22.949,-11.719,3.906
1687269130.423,-23.438,-30.762,-25.879,-15.137,30.762
1687269130.426,-20.508,-25.391,-25.391,-29.785,25.391
1687269130.430,-30.762,-24.902,-20.020,-26.367,-26.855
1687269130.434,-33.203,-27.344,-21.484,-30.273,-126.465
1687269130.438,-24.902,-20.508,-22.461,-26.855,-216.797
1687269130.442,-29.785,-20.508,-24.414,-22.949,-137.695
1687269130.444,-34.668,-23.926,-26.367,-24.414,300.293
1687269130.448,-31.738,-25.391,-22.949,-23.438,147.461
1687269130.452,-36.621,-26.367,-17.578,-27.344,-205.566
1687269130.456,-24.414,-22.461,-15.137,-22.461,-150.879
1687269130.460,-22.461,-19.043,-17.090,-18.555,-65.430
1687269130.464,-26.855,-22.949,-15.625,-29.785,5.371
1687269130.468,-21.973,-28.320,-20.508,-29.785,-66.406
1687269130.471,-30.273,-28.320,-26.367,-17.090,82.520
1687269130.475,-29.297,-30.273,-25.391,-26.367,230.957
1687269130.479,-31.738,-30.762,-25.879,-36.133,-42.480
1687269130.483,-35.156,-27.344,-30.762,-39.551,-137.695
1687269130.487,-36.133,-25.879,-33.203,-39.062,101.562
1687269130.489,-33.203,-24.902,-27.344,-31.250,61.035
1687269130.493,-21.973,-20.996,-22.461,-25.879,-199.707
1687269130.497,-18.555,-20.508,-18.066,-25.391,-166.504
1687269130.501,-14.648,-22.949,-19.531,-23.438,-104.492
1687269130.505,-23.438,-22.461,-29.297,-19.531,-157.227
1687269130.509,-39.062,-20.996,-30.273,-22.461,-184.570
1687269130.513,-34.668,-23.926,-22.461,-19.043,-38.574
1687269130.516,-30.762,-18.555,-23.438,-11.719,245.605
1687269130.520,-25.879,-20.020,-23.438,-29.297,61.523
1687269130.524,-22.949,-27.344,-20.508,-32.715,-188.477
1687269130.528,-11.230,-24.414,-26.367,-28.320,-149.414
1687269130.532,-20.020,-19.043,-26.855,-37.109,-119.141
1687269130.534,-33.691,-22.949,-18.555,-36.133,-23.926
1687269130.538,-25.879,-28.320,-18.066,-32.227,-115.234
1687269130.542,-27.344,-29.297,-23.438,-22.461,-113.770
1687269130.546,-46.875,-36.621,-25.391,-26.367,18.066
1687269130.550,-44.922,-37.598,-30.273,-45.410,-118.652
1687269130.554,-35.156,-33.203,-29.785,-41.992,-119.141
1687269130.558,-40.527,-30.762,-22.949,-32.715,177.246
1687269130.561,-41.504,-30.273,-22.461,-25.879,226.562
1687269130.565,-46.875,-31.250,-24.902,-25.879,-107.422
1687269130.569,-48.340,-29.785,-28.809,-29.297,-168.945
1687269130.573,-36.133,-37.598,-30.762,-38.574,48.828
1687269130.577,-34.180,-44.922,-28.809,-39.551,5.859
1687269130.594,-53.711,-37.109,-30.762,-43.945,-189.941
1687269130.598,-39.062,-26.367,-30.762,-53.711,-139.160
1687269130.602,-23.926,-27.344,-35.645,-51.758,-39.551
1687269130.606,-39.062,-35.645,-34.668,-42.480,-93.262
1687269130.610,-40.527,-36.133,-27.344,-37.598,-125.000
1687269130.614,-39.062,-32.715,-23.438,-34.180,25.879
1687269130.618,-49.805,-28.320,-24.414,-26.367,397.949
1687269130.621,-37.109,-28.809,-30.273,-24.902,232.910
1687269130.625,-28.320,-27.832,-30.762,-33.203,-162.598
1687269130.629,-49.316,-25.879,-27.832,-39.551,-145.508
1687269130.633,-49.805,-35.645,-33.691,-33.203,-83.984
1687269130.637,-42.480,-33.203,-31.250,-23.438,-146.973
1687269130.624,-39.062,-25.879,-22.949,-28.320,-204.590
1687269130.628,-29.785,-26.367,-25.879,-35.645,-112.305
1687269130.632,-26.367,-27.344,-32.715,-41.016,-59.082
1687269130.636,-40.527,-33.203,-36.133,-44.922,-134.277
1687269130.640,-42.969,-34.668,-25.391,-39.551,-131.836
1687269130.644,-31.250,-29.297,-18.555,-28.320,38.574
1687269130.648,-33.203,-24.414,-19.531,-31.250,78.125
1687269130.651,-45.898,-30.762,-20.508,-37.598,-20.508
1687269130.655,-47.852,-34.668,-17.578,-44.922,-39.062
1687269130.659,-37.598,-36.621,-10.254,-34.668,245.605
1687269130.663,-32.715,-39.062,-18.555,-21.973,397.461
1687269130.667,-33.691,-32.227,-25.391,-23.438,-58.105
1687269130.684,-33.203,-26.367,-23.926,-44.922,-229.492
1687269130.688,-24.902,-22.949,-24.902,-54.199,-83.984
1687269130.692,-28.809,-25.391,-23.438,-45.898,-83.496
1687269130.696,-45.410,-27.832,-22.461,-40.527,-150.391
1687269130.700,-30.762,-29.785,-23.438,-35.645,-141.602
1687269130.704,-24.414,-36.133,-25.879,-37.598,8.301
1687269130.708,-44.922,-39.062,-26.367,-43.457,33.691
1687269130.711,-30.762,-37.109,-27.832,-35.156,-27.832
1687269130.715,-26.855,-31.250,-30.273,-40.039,-53.223
1687269130.719,-39.062,-36.621,-25.879,-36.133,220.215
1687269130.723,-49.805,-44.434,-21.484,-33.691,83.984
1687269130.727,-50.781,-37.109,-26.855,-43.945,-184.570
1687269130.729,-29.297,-35.156,-31.250,-44.922,-101.562
1687269130.733,-30.273,-43.457,-34.180,-43.457,-83.984
1687269130.737,-39.062,-42.969,-26.855,-52.734,-166.016
1687269130.741,-48.828,-38.086,-21.973,-44.922,-170.410
1687269130.745,-54.199,-33.691,-22.461,-34.180,-79.590
1687269130.749,-43.457,-36.621,-23.926,-31.250,9.766
1687269130.753,-38.086,-36.133,-28.809,-43.945,-7.812
1687269130.756,-48.828,-24.414,-28.809,-57.617,-163.574
1687269130.760,-41.992,-16.602,-25.391,-45.898,49.316
1687269130.764,-32.715,-28.320,-30.273,-33.691,439.453
1687269130.768,-32.715,-30.273,-33.203,-43.945,142.578
1687269130.772,-14.160,-33.203,-22.949,-33.691,-165.039
1687269130.774,-16.602,-30.273,-23.926,-24.902,-22.461
1687269130.778,-26.855,-24.902,-24.902,-23.438,-106.934
1687269130.782,-31.738,-31.738,-28.320,-27.344,-192.383
1687269130.786,-33.203,-26.855,-27.832,-33.691,-121.094
1687269130.790,-25.879,-22.949,-29.297,-26.855,-38.086
1687269130.794,-27.344,-16.113,-40.527,-32.227,47.852
1687269130.798,-25.879,-14.648,-20.996,-25.391,-76.660
1687269130.801,-18.555,-18.555,-17.090,-17.578,-123.047
1687269130.805,-24.414,-24.414,-26.855,-19.531,209.473
1687269130.809,-37.598,-33.203,-35.645,-37.598,51.758
1687269130.813,-37.598,-38.574,-33.691,-59.082,-212.891
1687269130.817,-32.227,-34.668,-28.809,-44.434,-116.211
1687269130.819,-46.875,-28.809,-23.438,-37.109,-15.137
1687269130.823,-53.223,-26.855,-21.973,-45.410,-25.391
1687269130.827,-23.926,-21.484,-29.297,-30.273,-94.727
1687269130.831,-20.508,-22.461,-27.832,-21.484,-53.223
1687269130.835,-35.645,-28.809,-14.648,-37.109,9.766
1687269130.839,-37.598,-22.461,-22.461,-31.250,6.836
1687269130.843,-40.039,-24.414,-34.668,-33.691,-1.465
1687269130.846,-29.297,-35.156,-37.109,-29.297,73.242
1687269130.850,-43.945,-40.039,-30.273,-23.926,196.777
1687269130.854,-50.293,-39.062,-21.484,-27.344,-31.250
1687269130.858,-37.109,-30.762,-30.273,-32.715,-184.570
1687269130.862,-43.945,-28.320,-24.414,-48.828,51.758
1687269130.864,-30.273,-22.949,-27.832,-42.480,-33.203
1687269130.868,-24.414,-28.809,-31.250,-24.902,-191.895
1687269130.872,-51.270,-31.250,-14.648,-22.461,-129.883
1687269130.876,-41.016,-28.320,-17.090,-9.766,-70.801
1687269130.880,-21.973,-28.809,-22.949,-2.930,-93.750
1687269130.884,-19.043,-19.531,-24.414,-24.414,-103.027
1687269130.888,-16.113,-19.043,-19.043,-50.293,-27.832
1687269130.891,-13.672,-24.902,-20.020,-28.320,276.855
1687269130.895,-10.742,-25.391,-39.551,-16.602,113.770
1687269130.899,12.207,-18.555,-45.898,-36.621,-222.656
1687269130.903,36.621,-15.137,-41.016,-34.668,-129.395
1687269130.907,10.254,-20.020,-41.992,-47.363,-34.668
1687269130.909,-20.020,-22.461,-38.086,-48.340,-150.879
1687269130.913,-31.738,-31.250,-39.551,-15.625,-179.199
1687269130.917,-40.527,-36.133,-36.133,-8.789,-86.914
1687269130.921,-48.340,-27.832,-35.156,-11.230,-82.520
1687269130.925,-55.176,-25.879,-32.227,-20.996,-80.078
1687269130.929,-55.176,-29.297,-29.785,-30.762,-71.289
1687269130.933,-42.969,-31.738,-23.926,-14.648,192.383
1687269130.936,-31.250,-28.809,-24.902,-9.766,380.859
1687269130.940,-24.902,-20.996,-37.598,-18.555,-13.184
1687269130.944,9.766,-7.812,-45.410,-7.324,-188.965
1687269130.948,6.348,-16.602,-27.344,-0.488,23.926
1687269130.952,-37.598,-37.109,-14.648,-28.809,80.078
1687269130.954,-43.945,-38.086,-20.020,-31.250,-151.855
1687269130.958,-33.203,-41.504,-18.066,2.441,-168.457
1687269130.962,-34.668,-41.992,-14.160,-8.789,55.664
1687269130.966,-27.832,-38.086,-9.277,-18.066,-32.227
1687269130.970,-34.668,-46.387,-1.953,-11.719,-188.477
1687269130.974,-38.574,-43.457,-1.953,-28.809,9.766
1687269130.978,-25.391,-40.527,5.371,-24.902,281.250
1687269130.981,-37.109,-41.992,10.254,-22.461,103.516
1687269130.985,-31.738,-40.527,16.602,-12.695,-82.031
1687269130.989,-17.578,-39.062,20.996,14.160,-79.590
1687269130.993,-35.645,-38.086,18.555,3.906,22.461
1687269130.997,-33.691,-45.898,16.113,-15.137,-113.281
1687269130.998,-36.621,-47.363,8.789,-5.859,-213.379
1687269131.002,-25.879,-43.945,1.953,13.184,-118.652
1687269131.006,-11.230,-42.969,4.883,29.785,-65.918
1687269131.010,-15.625,-39.551,6.348,29.297,-144.043
1687269131.014,-16.113,-35.156,2.930,21.973,-185.059
1687269131.018,-9.277,-33.203,7.812,19.531,60.059
1687269131.022,-3.906,-30.273,5.859,-6.836,152.832
1687269131.025,-20.996,-32.715,-7.812,-14.648,-34.180
1687269131.029,-23.926,-29.297,4.395,4.395,-99.609
1687269131.033,-11.719,-29.297,0.000,34.180,211.426
1687269131.037,-14.648,-30.273,-13.184,36.621,379.395
1687269131.041,-21.484,-30.762,-12.695,16.602,-27.832
1687269131.059,-23.438,-28.809,-9.277,-8.301,-175.293
1687269131.063,-22.461,-30.273,-9.766,-11.230,170.410
1687269131.067,-27.832,-38.574,-20.508,-10.742,191.406
1687269131.071,-28.320,-41.016,-23.438,-24.414,-155.762
1687269131.075,-28.320,-37.598,-14.648,-0.977,-166.504
1687269131.079,-24.902,-32.715,-14.160,10.742,-34.180
1687269131.083,-20.508,-30.762,-15.137,-32.715,10.254
1687269131.086,-15.137,-21.973,-26.367,-45.898,-138.672
1687269131.090,-7.812,-9.277,-26.367,-26.367,-137.695
1687269131.094,-17.090,-16.113,-13.672,-15.625,176.270
1687269131.098,-20.508,-23.926,-24.414,-13.672,-14.648
1687269131.102,-17.090,-27.344,-29.297,-12.695,-253.418
1687269131.104,-18.066,-35.156,-25.879,-26.367,-88.379
1687269131.108,-11.230,-29.297,-33.691,-40.527,-13.672
1687269131.112,-15.137,-23.438,-31.738,-19.531,-161.621
1687269131.116,-29.297,-26.855,-20.508,-25.879,-178.223
1687269131.120,-31.250,-25.879,-25.879,-30.762,-64.453
1687269131.124,-20.020,-14.648,-29.297,-9.766,-12.207
1687269131.128,-20.508,-16.113,-12.695,-15.625,-4.395
1687269131.131,-20.020,-21.973,-18.555,-21.973,-8.301
1687269131.135,-12.695,-23.926,-33.691,-2.930,120.605
1687269131.139,-12.695,-30.273,-28.809,-8.301,369.629
1687269131.143,-22.949,-36.621,-21.484,-23.438,24.902
1687269131.147,-15.625,-38.086,-21.484,-18.555,-195.312
1687269131.149,-25.879,-29.297,-27.344,-31.738,-94.727
1687269131.153,-39.551,-26.855,-29.785,-35.156,-127.441
1687269131.157,-40.527,-33.691,-24.414,-26.855,-174.316
1687269131.161,-41.016,-31.738,-29.785,-17.090,-92.773
1687269131.165,-38.574,-30.762,-38.574,-20.020,79.590
1687269131.169,-39.062,-37.109,-34.180,-54.688,45.410
1687269131.173,-35.156,-33.203,-27.344,-69.336,-86.426
1687269131.176,-30.762,-37.109,-34.668,-60.547,-89.844
1687269131.180,-20.996,-36.133,-37.109,-34.180,222.656
1687269131.184,-28.809,-23.438,-36.133,-41.016,105.469
1687269131.188,-34.668,-26.367,-32.227,-51.758,-143.066
1687269131.192,-30.273,-33.691,-31.738,-50.781,-79.590
1687269131.209,-35.645,-33.691,-37.109,-42.969,-77.637
1687269131.213,-32.227,-25.391,-43.457,-28.809,-180.664
1687269131.217,-11.230,-22.949,-43.457,2.441,-154.297
1687269131.221,-8.789,-27.344,-35.645,0.000,-34.180
1687269131.225,-53.223,-35.156,-37.598,-53.223,-62.012
1687269131.229,-62.988,-34.668,-35.645,-53.223,-39.551
1687269131.233,-47.363,-22.949,-35.156,-39.551,-37.598
1687269131.236,-67.871,-27.344,-35.156,-57.129,234.375
1687269131.240,-75.195,-26.855,-37.109,-70.801,492.676
1687269131.244,-64.941,-24.414,-41.992,-80.566,63.477
1687269131.248,-72.266,-30.762,-41.504,-92.773,-218.750
1687269131.252,-65.918,-24.902,-43.457,-67.871,-24.414
1687269131.239,-56.152,-26.855,-32.227,-45.410,-89.844
1687269131.243,-60.547,-35.156,-23.438,-63.965,-284.180
1687269131.247,-49.805,-21.973,-36.621,-31.250,-210.938
1687269131.251,-44.434,-16.113,-33.691,-30.762,-126.953
1687269131.255,-37.598,-19.043,-31.738,-55.176,-121.582
1687269131.259,-36.133,-20.020,-39.551,-59.570,-29.785
1687269131.263,-37.598,-21.484,-28.809,-55.176,71.777
1687269131.266,-33.691,-23.926,-23.926,-42.480,47.363
1687269131.270,-49.316,-27.344,-32.715,-49.316,-31.250
1687269131.274,-50.293,-29.297,-33.691,-48.340,-127.930
1687269131.278,-44.434,-32.715,-24.902,-37.109,-132.324
1687269131.282,-37.598,-31.738,-20.020,-17.090,183.594
1687269131.283,-26.367,-29.297,-30.762,9.766,135.742
1687269131.287,-24.902,-31.250,-36.133,-12.207,-149.414
1687269131.291,-25.391,-28.809,-28.320,-50.781,-166.016
1687269131.295,-28.809,-25.391,-30.273,-62.012,-121.094
1687269131.299,-31.250,-30.762,-39.062,-63.965,-113.770
1687269131.303,-36.133,-35.156,-28.809,-66.406,-1.465
1687269131.307,-28.809,-26.367,-24.414,-51.758,230.957
1687269131.310,-27.344,-27.832,-27.832,-42.480,195.801
1687269131.314,-32.715,-31.738,-25.391,-43.945,-151.855
1687269131.318,-23.438,-25.391,-32.715,-25.391,-158.203
1687269131.322,-26.855,-20.996,-31.250,-11.230,150.391
1687269131.326,-25.879,-24.902,-31.738,-12.695,152.832
1687269131.329,-24.902,-28.320,-31.738,-29.297,-148.926
1687269131.333,-22.949,-21.484,-28.320,-35.156,-152.832
1687269131.337,-21.973,-20.508,-27.344,-25.391,-35.156
1687269131.341,-30.273,-29.785,-26.855,-25.879,-101.562
1687269131.345,-36.133,-34.668,-20.020,-28.320,-208.984
1687269131.349,-35.156,-29.297,-20.508,-21.973,-54.688
1687269131.353,-30.762,-26.367,-22.461,-7.812,318.848
1687269131.356,-48.828,-26.855,-18.066,-13.672,60.547
1687269131.360,-42.969,-27.344,-21.973,-22.461,-202.637
1687269131.364,-35.156,-29.785,-19.531,-15.137,-130.371
1687269131.368,-46.875,-30.762,-20.020,-2.441,-136.230
1687269131.372,-41.016,-29.785,-25.391,-9.277,-203.613
1687269131.374,-22.949,-36.133,-20.020,-14.648,-185.547
1687269131.378,-20.508,-27.344,-23.438,-7.324,7.812
1687269131.382,-26.367,-19.531,-29.785,-17.090,63.965
1687269131.386,-22.461,-23.926,-33.203,-29.785,-119.141
1687269131.390,-19.531,-24.414,-33.203,-29.785,-160.156
1687269131.394,-25.391,-22.949,-21.484,-25.391,112.305
1687269131.398,-36.621,-22.949,-21.973,-22.949,209.473
1687269131.401,-37.109,-25.391,-23.438,-36.133,-41.504
1687269131.405,-31.250,-27.344,-18.555,-39.551,-137.207
1687269131.409,-28.320,-28.809,-19.043,-37.598,144.531
1687269131.413,-31.738,-29.785,-17.578,-29.297,278.809
1687269131.417,-25.879,-26.367,-19.043,-25.391,-20.020
1687269131.434,-21.484,-22.949,-18.555,-19.531,-106.934
1687269131.438,-10.254,-19.043,-23.438,-8.789,-35.645
1687269131.442,12.695,-14.160,-27.344,6.348,-90.820
1687269131.446,4.883,-22.461,-9.766,20.020,-177.246
1687269131.450,-28.809,-34.180,1.465,-4.395,-70.312
1687269131.454,-43.457,-40.039,-3.906,-32.227,314.941
1687269131.458,-40.527,-41.016,-3.418,-27.344,160.156
1687269131.461,-41.504,-35.645,1.465,-20.996,-194.336
1687269131.465,-42.480,-33.203,3.906,-15.625,-96.680
1687269131.469,-49.316,-33.691,11.230,-18.066,87.891
1687269131.473,-55.176,-40.527,8.301,-31.738,-107.422
1687269131.477,-55.664,-45.410,4.883,-45.898,-213.379
1687269131.479,-69.336,-37.598,10.254,-59.570,-147.461
1687269131.483,-71.289,-33.691,14.648,-45.898,-122.559
1687269131.487,-74.707,-36.133,19.531,-25.391,-145.508
1687269131.491,-74.707,-33.691,21.973,-25.391,-151.855
1687269131.495,-50.293,-30.762,16.113,-31.738,-72.266
1687269131.499,-41.016,-26.855,11.719,-19.043,-5.859
1687269131.503,-43.457,-25.879,8.789,0.977,44.434
1687269131.506,-31.738,-30.762,2.930,-5.859,-42.480
1687269131.510,-30.273,-38.086,5.859,-7.324,116.211
1687269131.514,-46.387,-38.086,1.465,9.277,464.355
1687269131.518,-50.293,-33.203,-11.230,0.488,146.973
1687269131.522,-26.367,-27.832,-16.113,-14.648,-189.941
1687269131.524,-27.832,-26.855,-16.602,-36.621,-122.559
1687269131.528,-34.668,-36.133,-16.602,-47.363,-157.227
1687269131.532,-24.902,-38.574,-18.555,-42.969,-189.941
1687269131.536,-32.227,-31.250,-13.184,-30.762,-157.715
1687269131.540,-35.156,-25.879,-8.301,-17.578,-146.973
1687269131.544,-25.391,-27.344,-11.719,-23.926,-107.422
1687269131.548,-22.949,-25.879,-15.625,-14.160,-21.973
1687269131.551,-23.926,-27.344,-14.160,9.766,3.906
1687269131.555,-27.832,-35.645,-11.719,3.906,246.582
1687269131.559,-21.973,-38.574,-18.066,-31.250,102.539
1687269131.563,-18.555,-36.621,-23.438,-54.199,-215.820
1687269131.567,-27.344,-34.668,-17.090,-39.062,-122.070
1687269131.569,-14.648,-25.879,-28.809,-38.086,-95.215
1687269131.573,-25.879,-37.109,-53.223,-49.316,-170.898
1687269131.577,-15.137,-34.668,-50.293,-31.738,-208.984
1687269131.581,26.855,-22.461,-51.758,-2.441,-82.520
1687269131.585,-38.086,-41.016,-49.805,-10.254,-28.809
1687269131.589,-77.148,-24.414,-10.742,-46.875,-27.344
1687269131.593,-63.477,-23.438,4.395,-60.059,-21.973
1687269131.596,-48.828,-46.387,-13.184,-33.691,111.816
1687269131.600,-8.789,-30.762,11.230,6.348,275.391
1687269131.604,-34.668,-19.043,12.207,-15.625,23.926
1687269131.608,-84.961,-16.113,-66.406,-112.793,-148.438
1687269131.612,-81.543,5.371,-58.594,-114.746,121.582
1687269131.614,-86.426,-8.789,-10.254,-83.984,180.664
1687269131.618,-83.984,-22.461,-5.371,-91.309,-150.391
1687269131.622,-87.402,-16.602,-5.371,-76.660,-146.484
1687269131.626,-99.121,-6.348,-6.836,-61.035,-56.641
1687269131.630,-88.379,-1.465,-11.719,-54.199,-152.832
1687269131.634,-86.426,-3.418,-11.230,-127.930,-126.465
1687269131.638,-74.219,2.930,-22.461,-164.551,35.156
1687269131.641,-78.613,1.953,-19.043,-118.652,301.270
1687269131.645,-98.633,-2.930,-12.695,-107.422,94.727
1687269131.649,-81.543,2.441,-23.926,-103.027,-193.359
1687269131.653,-66.406,4.395,-26.855,-107.422,-199.707
1687269131.657,-56.641,-4.395,-16.602,-85.449,-138.184
1687269131.660,-45.898,-9.277,-8.789,-37.109,-120.117
1687269131.664,-69.824,-15.137,-9.277,-47.363,-100.098
1687269131.668,-76.172,-5.859,-20.020,-95.703,5.371
1687269131.672,-40.039,1.465,-24.902,-86.426,-24.902
1687269131.676,-22.949,-0.977,-29.297,-68.359,-113.281
1687269131.680,-43.457,-10.742,-25.391,-48.340,-91.797
1687269131.684,-37.598,-14.160,-24.414,-31.250,159.180
1687269131.687,-30.762,-6.836,-37.109,-48.340,214.355
1687269131.691,-35.156,-10.742,-34.668,-38.086,-69.336
1687269131.695,-23.926,-18.555,-27.832,-27.344,-98.145
1687269131.699,-4.395,-23.926,-25.879,-20.508,124.023
1687269131.703,8.301,-19.531,-35.156,-11.719,170.898
1687269131.704,5.859,-16.602,-42.969,-10.254,-141.113
1687269131.708,15.625,-15.625,-39.062,2.441,-198.242
1687269131.712,10.742,-16.113,-33.203,5.371,-110.352
1687269131.716,-4.395,-23.438,-31.250,1.465,-87.402
1687269131.720,3.418,-26.855,-31.738,-5.859,-65.918
1687269131.724,1.465,-24.414,-26.367,-7.324,-37.598
1687269131.728,0.977,-21.484,-28.809,10.742,285.156
1687269131.731,3.906,-24.902,-32.715,14.648,241.211
1687269131.735,12.207,-20.996,-30.273,-4.395,-134.277
1687269131.739,20.020,-18.555,-36.621,-10.254,-179.199
1687269131.743,12.695,-22.461,-38.574,-3.418,-85.449
1687269131.747,-0.488,-25.879,-34.180,-3.906,-21.973
1687269131.749,-2.441,-28.809,-37.109,-17.578,-65.430
1687269131.753,0.977,-24.902,-33.691,-19.043,-99.609
1687269131.757,-9.277,-25.391,-34.180,-16.602,-72.754
1687269131.761,3.418,-34.180,-34.180,-6.348,-83.984
1687269131.765,25.391,-40.039,-21.973,23.926,-152.344
1687269131.769,19.531,-30.762,-19.531,12.695,0.488
1687269131.773,4.883,-20.996,-33.203,-5.371,142.090
1687269131.776,8.789,-17.578,-44.922,-5.371,-21.973
1687269131.780,25.879,-13.184,-47.363,-2.930,-91.309
1687269131.784,34.180,-21.973,-39.551,22.461,231.445
1687269131.788,32.227,-22.461,-40.039,28.809,404.297
1687269131.792,25.391,-23.438,-46.875,-9.277,-53.711
1687269131.809,22.461,-23.926,-47.852,-18.066,-235.840
1687269131.813,14.648,-20.508,-41.016,-12.695,-110.840
1687269131.817,2.441,-18.066,-36.133,-3.418,-95.215
1687269131.821,-1.465,-17.578,-35.645,4.883,-156.250
1687269131.825,-0.977,-20.020,-37.109,-8.789,-155.762
1687269131.829,-1.465,-23.926,-30.762,4.883,43.945
1687269131.833,-5.859,-28.809,-20.996,0.000,23.926
1687269131.836,-9.766,-32.715,-27.344,-13.672,-128.418
1687269131.840,-11.230,-29.297,-31.250,-5.859,-134.277
1687269131.844,-13.672,-26.855,-31.250,13.672,174.316
1687269131.848,-14.648,-30.762,-33.203,27.344,70.312
1687269131.852,-8.789,-32.715,-28.809,8.301,-190.918
1687269131.854,-11.230,-30.762,-21.973,-8.789,-136.230
1687269131.858,-18.555,-27.832,-23.438,-18.066,-129.883
1687269131.862,-19.531,-28.809,-27.344,-31.738,-162.109
1687269131.866,-24.414,-27.832,-27.832,-9.766,-132.324
1687269131.870,-28.809,-26.855,-30.273,19.043,-33.203
1687269131.874,-25.391,-24.414,-31.250,4.395,93.750
1687269131.878,-28.809,-24.902,-31.250,-35.645,80.078
1687269131.881,-26.855,-26.367,-32.227,-56.641,-82.031
1687269131.885,-26.855,-28.320,-22.949,-28.320,102.539
1687269131.889,-32.715,-33.203,-15.625,-14.648,474.121
1687269131.893,-34.180,-30.762,-15.137,-17.090,84.961
1687269131.897,-28.809,-26.367,-13.184,-2.441,-81.055
1687269131.899,-18.555,-25.391,-21.973,-2.441,207.520
1687269131.903,-11.719,-29.785,-27.832,-16.602,20.996
1687269131.907,-15.137,-26.855,-25.391,-4.395,-170.410
1687269131.911,-20.508,-24.414,-20.020,5.859,-140.137
1687269131.915,-13.672,-24.414,-21.484,-2.930,-131.348
1687269131.919,-17.578,-21.484,-25.879,-16.602,-20.996
1687269131.923,-31.738,-23.438,-24.414,-17.578,-19.043
1687269131.926,-38.086,-27.344,-24.902,-7.324,-87.402
1687269131.930,-23.926,-28.320,-20.508,-9.766,172.852
1687269131.934,-25.391,-29.297,-20.020,-56.152,9.766
1687269131.938,-23.926,-32.227,-31.738,-66.406,-231.934
1687269131.942,-22.461,-32.227,-35.156,-48.340,-134.277
1687269131.959,-37.598,-31.250,-28.809,-42.480,-103.516
1687269131.963,-48.340,-30.762,-27.344,-24.902,-142.090
1687269131.967,-42.480,-29.785,-26.855,-24.902,-118.652
1687269131.971,-41.504,-33.203,-22.461,-29.785,-47.363
1687269131.975,-43.945,-32.227,-16.602,-30.762,13.184
1687269131.979,-23.926,-24.902,-17.578,-37.598,-5.859
1687269131.983,-13.672,-27.832,-22.949,-40.039,-117.188
1687269131.986,-22.949,-31.738,-20.020,-30.762,52.246
1687269131.990,-31.738,-22.461,-15.625,-14.648,191.406
1687269131.994,-40.039,-23.926,-19.531,-8.301,-81.543
1687269131.998,-36.133,-25.879,-27.832,-23.926,-199.219
1687269132.002,-39.551,-27.832,-25.391,-20.508,10.742
1687269131.988,-40.527,-31.250,-24.414,-11.719,-49.805
1687269131.992,-27.832,-34.180,-27.832,-30.273,-223.633
1687269131.996,-6.836,-42.480,-25.879,-17.090,-120.605
1687269132.000,-5.371,-36.621,-24.902,-10.742,-21.973
1687269132.004,-28.320,-20.996,-31.738,-45.410,-74.219
1687269132.008,-21.973,-17.578,-39.062,-53.223,-128.418
1687269132.012,-9.277,-19.043,-38.574,-44.434,30.762
1687269132.015,-17.090,-25.391,-39.551,-37.109,104.492
1687269132.019,-18.066,-26.855,-44.434,-17.578,-68.848
1687269132.023,-21.484,-20.996,-39.551,-6.836,-167.480
1687269132.027,-17.090,-20.508,-33.203,-31.250,-95.703
1687269132.031,-16.113,-26.855,-27.832,-39.551,256.836
1687269132.033,-20.508,-21.973,-28.320,-38.574,75.195
1687269132.037,-11.719,-18.555,-37.109,-23.926,-223.145
1687269132.041,-16.113,-20.996,-37.598,-12.695,-109.375
1687269132.045,-17.090,-21.484,-29.297,-20.508,-94.238
1687269132.049,-12.207,-24.414,-28.320,-22.949,-169.922
1687269132.053,-14.648,-29.297,-28.809,-26.367,-88.867
1687269132.057,-6.348,-22.949,-23.926,-24.902,214.844
1687269132.060,-16.602,-17.578,-26.367,-26.855,359.863
1687269132.064,-25.391,-27.832,-34.180,-23.926,4.883
1687269132.068,-25.879,-26.367,-34.668,-24.414,-148.926
1687269132.072,-36.621,-26.367,-30.273,-27.344,121.094
1687269132.076,-44.922,-32.227,-35.156,-31.738,146.484
1687269132.080,-40.527,-30.273,-34.668,-37.598,-200.195
1687269132.084,-36.621,-34.668,-26.367,-51.270,-242.188
1687269132.088,-39.062,-38.086,-27.344,-42.480,-154.297
1687269132.092,-36.133,-34.180,-25.391,-22.461,-167.480
1687269132.096,-42.480,-31.738,-26.367,-30.762,-206.055
1687269132.100,-46.387,-31.250,-29.785,-29.785,-2.441
1687269132.104,-37.598,-28.809,-22.949,-27.344,308.105
1687269132.107,-28.320,-25.879,-22.461,-38.086,37.109
1687269132.111,-29.297,-26.367,-24.902,-28.320,-194.336
1687269132.115,-32.715,-30.762,-27.344,-36.621,-64.941
1687269132.119,-22.461,-33.203,-33.203,-31.250,-35.156
1687269132.123,-17.090,-29.297,-31.250,-22.949,-163.086
1687269132.138,-31.738,-28.320,-28.320,-32.227,-241.699
1687269132.142,-36.621,-30.762,-33.203,-47.852,-140.625
1687269132.146,-38.574,-27.832,-34.668,-42.969,-14.648
1687269132.150,-39.062,-24.414,-27.344,-35.645,-57.617
1687269132.154,-32.227,-28.320,-26.855,-30.762,-121.094
1687269132.158,-26.855,-27.344,-27.344,-23.438,107.910
1687269132.162,-35.645,-26.367,-26.855,-20.508,460.938
1687269132.165,-40.527,-23.926,-28.320,-25.391,89.355
1687269132.169,-24.902,-21.973,-21.484,-35.645,-218.750
1687269132.173,-27.832,-23.926,-18.555,-47.363,104.492
1687269132.177,-40.039,-25.391,-29.785,-41.504,148.926
1687269132.181,-30.762,-28.809,-33.203,-31.738,-102.539
1687269132.183,-31.250,-37.109,-28.809,-25.879,-59.570
1687269132.187,-36.133,-35.645,-28.809,-23.438,33.203
1687269132.191,-35.156,-26.855,-28.320,-35.645,-91.797
1687269132.195,-35.645,-25.879,-31.738,-39.551,-187.500
1687269132.199,-31.250,-35.156,-30.273,-37.109,-122.559
1687269132.203,-43.945,-36.133,-25.879,-31.738,43.457
1687269132.207,-47.363,-28.809,-21.973,-25.391,58.105
1687269132.210,-39.551,-24.902,-20.020,-36.621,-168.457
1687269132.214,-33.691,-26.367,-24.902,-26.855,-127.441
1687269132.218,-23.438,-28.809,-25.879,-18.555,215.820
1687269132.222,-28.320,-29.297,-30.762,-33.691,24.414
1687269132.226,-37.109,-31.250,-35.645,-28.320,-218.262
1687269132.229,-37.109,-28.809,-28.320,-20.508,-144.531
1687269132.233,-39.551,-27.832,-26.367,-21.484,-112.305
1687269132.237,-42.480,-28.320,-28.320,-17.578,-43.457
1687269132.241,-31.250,-22.949,-30.762,-42.480,-47.852
1687269132.245,-30.762,-27.344,-34.180,-51.758,20.996
1687269132.249,-45.410,-31.738,-31.738,-42.969,160.645
1687269132.253,-50.293,-28.809,-31.738,-20.020,23.926
1687269132.256,-36.621,-25.391,-29.297,-10.254,-138.184
1687269132.260,-37.109,-26.855,-21.973,-14.648,65.918
1687269132.264,-43.945,-31.250,-22.949,-18.555,387.207
1687269132.268,-41.504,-28.320,-32.715,-39.062,-4.395
1687269132.272,-38.086,-22.461,-32.227,-33.203,-230.469
1687269132.273,-35.645,-23.438,-30.762,-30.273,-87.402
1687269132.277,-27.832,-22.461,-25.879,-53.223,-134.766
1687269132.281,-20.508,-11.719,-22.461,-46.875,-182.129
1687269132.285,-32.715,-11.719,-29.785,-33.203,-111.328
1687269132.289,-37.598,-15.137,-25.391,-34.180,-17.090
1687269132.293,-32.715,-15.625,-16.113,-33.691,11.230
1687269132.297,-41.504,-15.625,-21.973,-38.086,-112.793
1687269132.300,-40.527,-27.344,-25.391,-29.297,-89.355
1687269132.304,-23.926,-29.785,-22.949,-15.137,319.336
1687269132.308,-24.902,-28.320,-23.438,-24.414,227.051
1687269132.312,-28.809,-28.320,-20.508,-17.090,-193.848
1687269132.316,-26.855,-25.391,-26.855,-12.207,-237.305
1687269132.318,-25.391,-23.926,-29.297,-27.344,-129.883
1687269132.322,-37.598,-23.438,-22.461,-44.434,-125.977
1687269132.326,-44.922,-28.320,-22.949,-53.223,-150.879
1687269132.330,-41.016,-33.203,-28.809,-58.105,-120.605
1687269132.334,-37.109,-30.273,-29.785,-43.945,-110.840
1687269132.338,-41.016,-26.367,-23.438,-19.043,-17.090
1687269132.342,-41.504,-36.133,-13.184,-14.160,-23.926
1687269132.345,-13.672,-42.480,-8.301,4.395,41.016
1687269132.349,-2.441,-34.668,-2.930,12.695,326.172
1687269132.353,-35.645,-22.949,-12.207,-24.414,103.027
1687269132.357,-40.039,-9.277,-26.855,-52.734,-172.363
1687269132.361,-24.902,-6.836,-28.809,-33.203,54.688
1687269132.364,-31.250,-10.254,-33.203,-35.156,89.355
1687269132.368,-45.410,-10.254,-41.992,-54.688,-144.043
1687269132.372,-43.457,-14.648,-43.945,-41.016,-204.590
1687269132.376,-28.809,-11.719,-44.922,-33.203,-148.438
1687269132.380,-27.344,-4.395,-48.340,-41.504,-132.324
1687269132.384,-48.828,-5.859,-50.781,-43.945,-118.164
1687269132.388,-45.898,-4.883,-54.199,-34.668,50.781
1687269132.391,-32.715,-6.836,-63.965,-40.527,348.145
1687269132.395,-41.504,-17.090,-63.965,-46.387,80.566
1687269132.399,-33.691,-17.090,-55.176,-57.129,-189.453
1687269132.403,-29.297,-16.113,-51.758,-55.176,3.418
1687269132.407,-32.715,-19.043,-48.340,-55.664,7.324
1687269132.408,-27.344,-20.508,-46.875,-67.871,-171.875
1687269132.412,-23.926,-25.391,-39.062,-52.246,-221.191
1687269132.416,-24.414,-27.344,-35.156,-62.012,-90.332
1687269132.420,-40.039,-19.531,-42.969,-72.754,-31.738
1687269132.424,-33.203,-16.113,-44.434,-48.340,-177.246
1687269132.428,-24.902,-18.555,-45.898,-49.316,-134.277
1687269132.432,-39.062,-20.996,-40.527,-43.945,197.266
1687269132.435,-41.504,-22.949,-36.621,-34.668,301.270
1687269132.439,-33.203,-25.391,-40.039,-41.504,-39.062
1687269132.443,-39.551,-29.297,-41.992,-41.504,-116.211
1687269132.447,-46.875,-28.809,-35.645,-23.926,58.105
1687269132.451,-41.992,-35.645,-34.180,-29.785,-32.715
1687269132.470,-40.527,-36.621,-34.668,-46.875,-156.738
1687269132.474,-37.598,-27.832,-29.785,-27.832,-75.684
1687269132.478,-41.504,-35.156,-26.855,-24.902,84.961
1687269132.482,-37.598,-38.086,-26.855,-22.461,-8.301
1687269132.486,-29.297,-36.133,-23.438,-5.371,-176.758
1687269132.490,-36.621,-27.832,-21.484,-14.160,-36.621
1687269132.494,-26.367,-18.555,-26.367,-38.574,350.098
1687269132.497,-29.297,-22.461,-30.273,-58.594,168.457
1687269132.501,-34.668,-28.320,-27.832,-57.129,-155.273
1687269132.505,-14.648,-27.832,-22.461,-25.391,-111.328
1687269132.509,-18.066,-28.809,-24.414,-18.555,-90.332
1687269132.513,-35.156,-27.832,-31.738,-39.551,-135.254
1687269132.514,-36.133,-27.832,-27.832,-37.598,-155.762
1687269132.518,-21.973,-23.438,-23.438,-34.180,-125.977
1687269132.522,-22.949,-27.344,-27.344,-30.273,-86.914
1687269132.526,-21.484,-29.785,-26.855,-17.578,-80.566
1687269132.530,-19.531,-21.484,-23.926,-10.742,-126.465
1687269132.534,-24.902,-24.414,-20.996,-20.508,98.145
1687269132.538,-35.156,-29.297,-21.973,-31.738,194.824
1687269132.541,-34.668,-29.785,-18.066,-36.133,-93.750
1687269132.545,-37.598,-29.297,-16.602,-36.133,-221.680
1687269132.549,-39.551,-31.738,-22.949,-29.785,85.938
1687269132.553,-24.902,-28.809,-22.461,-15.137,408.691
1687269132.557,-20.996,-27.344,-24.902,-16.113,46.387
1687269132.559,-22.461,-31.738,-29.297,-20.020,-166.504
1687269132.563,-27.344,-27.832,-29.785,-19.531,-87.891
1687269132.567,-37.598,-29.297,-31.250,-31.738,-155.762
1687269132.571,-36.621,-32.715,-25.879,-24.414,-208.496
1687269132.575,-37.598,-33.203,-26.855,-7.324,-168.457
1687269132.579,-36.133,-32.227,-33.691,-19.043,-18.555
1687269132.583,-32.227,-29.785,-28.320,-36.133,8.789
1687269132.586,-32.715,-27.344,-26.367,-31.250,-18.555
1687269132.590,-43.457,-30.273,-29.297,-36.621,-42.969
1687269132.594,-38.086,-34.180,-26.367,-39.551,199.219
1687269132.598,-34.180,-36.133,-34.668,-37.598,195.312
1687269132.602,-28.320,-37.598,-35.645,-32.227,-151.855
1687269132.604,-21.973,-37.109,-30.273,-30.762,-187.988
1687269132.608,-25.391,-35.156,-30.273,-32.227,-163.574
1687269132.612,-21.484,-33.691,-25.391,-13.184,-177.734
1687269132.616,-26.367,-30.273,-25.879,-21.973,-162.109
1687269132.620,-31.250,-28.809,-34.668,-29.785,-104.980
1687269132.624,-29.785,-29.785,-35.645,-23.926,33.203
1687269132.628,-29.785,-31.738,-30.273,-51.270,102.051
1687269132.631,-41.016,-37.109,-27.832,-32.715,-58.105
1687269132.635,-33.691,-36.621,-24.414,-12.207,104.004
1687269132.639,-32.227,-29.785,-22.949,-11.719,484.375
1687269132.643,-41.016,-29.297,-31.738,-14.648,132.324
1687269132.647,-36.133,-33.691,-30.273,-21.484,-170.410
1687269132.649,-39.551,-36.621,-24.902,-28.809,17.578
1687269132.653,-35.156,-41.992,-30.273,-34.668,-89.844
1687269132.657,-32.227,-38.574,-25.391,-23.438,-246.582
1687269132.661,-35.156,-29.297,-22.949,-10.742,-136.230
1687269132.665,-35.645,-27.344,-29.785,-6.836,-56.641
1687269132.669,-48.828,-29.297,-28.809,-22.949,-77.637
1687269132.673,-38.574,-28.320,-25.879,-28.809,-59.082
1687269132.676,-11.230,-22.461,-27.344,-9.277,-12.695
1687269132.680,-24.902,-17.090,-31.250,5.371,191.895
1687269132.684,-49.805,-21.973,-34.668,-26.855,61.523
1687269132.688,-38.574,-28.320,-28.809,-45.898,-202.148
1687269132.692,-32.227,-31.738,-25.391,-27.344,-156.250
1687269132.694,-27.832,-24.414,-26.855,-24.414,-71.777
1687269132.698,-21.973,-23.438,-26.367,-16.602,-123.047
1687269132.702,-25.879,-28.809,-28.809,-13.672,-87.891
1687269132.706,-23.926,-27.832,-36.133,-25.391,-39.551
1687269132.710,-31.738,-28.809,-39.551,-35.156,-110.840
1687269132.714,-19.531,-33.691,-36.133,-27.344,-58.594
1687269132.718,-14.648,-34.668,-37.598,-28.320,-17.578
1687269132.721,-19.043,-26.855,-36.133,-54.688,50.293
1687269132.725,-3.418,-19.043,-30.762,-52.734,221.191
1687269132.729,9.766,-19.043,-34.180,-53.711,63.477
1687269132.733,15.625,-22.949,-39.551,-65.430,-125.000
1687269132.737,10.742,-22.461,-38.574,-41.504,-42.969
1687269132.740,-11.719,-25.391,-32.227,-10.254,-7.324
1687269132.744,-31.738,-27.832,-27.344,-9.766,-74.707
1687269132.748,-38.086,-25.391,-24.414,-8.789,-86.426
1687269132.752,-26.855,-21.973,-21.973,0.488,81.543
1687269132.756,-21.484,-21.484,-25.391,-3.906,-12.695
1687269132.760,-32.715,-24.902,-23.438,-21.973,-98.145
1687269132.764,-30.762,-28.320,-22.461,-18.066,-12.695
1687269132.767,-40.039,-29.785,-21.973,3.906,216.797
1687269132.771,-42.969,-30.762,-22.949,0.488,106.445
1687269132.775,-30.273,-36.133,-24.414,-4.395,-143.066
1687269132.779,-28.320,-35.645,-25.391,-12.695,-111.816
1687269132.783,-33.691,-22.461,-29.297,-19.043,-122.559
1687269132.784,-29.297,-15.137,-27.832,-19.043,-128.418
1687269132.788,-24.902,-16.602,-30.273,-31.738,-141.602
1687269132.792,-24.414,-15.137,-28.320,-43.457,-74.219
1687269132.796,-28.320,-15.137,-25.879,-32.715,10.742
1687269132.800,-27.832,-20.508,-25.391,-23.926,-49.316
1687269132.804,-22.949,-24.902,-31.250,-17.090,-41.016
1687269132.808,-28.809,-21.973,-33.691,-33.203,166.992
1687269132.811,-28.809,-20.996,-28.809,-37.109,405.762
1687269132.815,-25.391,-24.414,-31.250,-30.273,-7.324
1687269132.819,-20.020,-25.391,-28.320,-14.160,-166.016
1687269132.823,-20.508,-25.391,-23.438,15.137,27.832
1687269132.827,-31.250,-20.996,-20.508,21.973,-105.469
1687269132.829,-36.133,-26.367,-29.297,5.859,-239.258
1687269132.833,-27.832,-28.809,-37.598,-20.996,-170.410
1687269132.837,-26.367,-20.020,-39.551,-58.105,-6.348
1687269132.841,-32.227,-24.414,-37.598,-62.988,-104.492
1687269132.845,-38.574,-33.203,-30.762,-40.039,-170.410
1687269132.849,-35.156,-29.297,-25.879,-15.137,39.551
1687269132.853,-34.180,-23.438,-24.902,-25.879,252.930
1687269132.856,-48.340,-28.809,-30.273,-41.016,76.172
1687269132.860,-38.574,-28.809,-31.250,-26.367,-158.203
1687269132.864,-32.715,-20.996,-25.879,-18.555,-89.844
1687269132.868,-38.574,-20.020,-25.391,-7.324,178.223
1687269132.872,-29.297,-20.508,-29.297,-43.945,-13.672
1687269132.874,-23.438,-19.531,-35.156,-77.637,-216.309
1687269132.878,-22.949,-19.531,-32.715,-52.246,-98.145
1687269132.882,-16.113,-11.230,-27.832,-38.086,-39.062
1687269132.886,5.371,6.836,-38.574,-20.020,-95.703
1687269132.890,9.277,0.488,-35.156,2.441,-192.871
1687269132.894,-16.602,-22.461,-21.973,-19.531,-14.648
1687269132.898,-44.922,-29.785,-19.043,-27.832,109.375
1687269132.901,-41.992,-27.344,-14.648,-20.020,-26.367
1687269132.905,-38.086,-31.250,-9.277,-21.484,-38.086
1687269132.909,-46.875,-32.715,-0.488,-16.113,169.922
1687269132.913,-54.199,-35.645,1.953,-16.113,392.578
1687269132.917,-71.777,-36.621,-2.441,-38.086,25.391
1687269132.934,-84.961,-32.715,-0.488,-49.316,-226.562
1687269132.938,-95.703,-38.574,2.441,-60.059,-144.531
1687269132.942,-95.703,-42.480,5.371,-53.223,-186.035
1687269132.946,-86.914,-35.645,9.766,-40.527,-222.656
1687269132.950,-90.332,-35.156,9.766,-54.688,-163.574
1687269132.954,-89.355,-41.504,4.395,-69.336,16.113
1687269132.958,-91.309,-41.504,2.441,-73.730,62.500
1687269132.961,-101.562,-43.945,8.789,-72.754,-87.891
1687269132.965,-92.285,-41.992,10.254,-62.500,-106.934
1687269132.969,-67.871,-33.691,2.441,-11.719,-16.113
1687269132.973,-53.711,-33.691,0.488,10.742,-33.203
1687269132.977,-55.176,-27.344,3.418,-18.066,-36.133
1687269132.978,-55.664,-25.391,-4.395,-41.016,-18.555
1687269132.982,-53.223,-31.738,-13.184,-36.621,244.141
1687269132.986,-43.945,-29.785,-13.672,-25.391,50.781
1687269132.990,-42.480,-23.926,-11.230,-19.043,-160.645
1687269132.994,-37.109,-28.320,-13.184,-24.902,-74.707
1687269132.998,-24.902,-28.809,-20.020,-30.762,1.953
1687269133.002,-30.273,-31.738,-23.926,-24.902,2.441
1687269133.005,-32.227,-38.086,-23.438,-21.484,-231.445
1687269133.009,-20.996,-32.715,-18.066,-13.184,-27.832
1687269133.013,-29.297,-35.645,-20.020,6.348,460.449
1687269133.017,-35.156,-35.645,-29.785,11.230,67.871
1687269133.021,-23.438,-35.645,-29.785,11.719,-141.602
1687269133.024,-30.762,-35.645,-26.367,19.531,13.184
1687269133.028,-34.180,-25.879,-37.598,24.414,-61.035
1687269133.032,-30.273,-24.414,-48.340,27.832,-150.391
1687269133.036,-25.391,-29.785,-37.598,7.324,-149.414
1687269133.040,-9.277,-29.785,-21.973,-47.363,54.199
1687269133.044,-17.578,-27.344,-21.484,-42.969,68.848
1687269133.048,-26.367,-24.414,-29.297,-21.973,-41.016
1687269133.051,-16.602,-20.020,-25.879,-32.227,-78.125
1687269133.055,-18.555,-20.508,-25.391,-23.926,139.160
1687269133.059,-29.785,-34.180,-37.598,-16.602,-7.812
1687269133.063,-38.086,-41.504,-38.574,-10.742,-240.723
1687269133.067,-32.227,-30.273,-34.180,-1.953,-141.113
1687269133.069,-24.902,-28.320,-30.762,6.836,-117.188
1687269133.073,-22.461,-28.320,-33.691,5.859,-144.531
1687269133.077,-17.578,-19.043,-30.762,-1.465,-143.066
1687269133.081,-16.113,-19.531,-28.809,-9.277,-45.410
1687269133.085,-19.043,-23.926,-34.180,-13.184,11.230
1687269133.089,-18.066,-21.973,-30.762,12.695,-38.086
1687269133.093,-17.578,-22.461,-25.879,20.020,-62.012
1687269133.096,-10.742,-25.391,-23.438,14.160,57.129
1687269133.100,-11.719,-19.531,-32.227,-13.184,279.785
1687269133.104,-16.113,-13.672,-37.109,-33.203,84.961
1687269133.108,2.930,-13.672,-29.297,-16.602,-106.445
1687269133.112,1.953,-20.508,-37.109,-10.742,31.738
1687269133.114,-22.949,-24.902,-40.039,-14.160,11.230
1687269133.118,-29.297,-18.555,-39.062,-14.648,-208.496
1687269133.122,-33.203,-17.578,-40.039,-17.090,-168.945
1687269133.126,-31.738,-18.555,-35.645,-21.484,-81.055
1687269133.130,-26.855,-19.531,-45.410,-18.555,-78.125
1687269133.134,-19.531,-22.949,-47.363,-18.066,-112.793
1687269133.138,-27.344,-22.949,-37.109,-12.695,-86.914
1687269133.141,-25.391,-21.973,-39.062,-7.324,349.121
1687269133.145,10.742,-20.020,-41.504,-0.488,277.832
1687269133.149,1.953,-22.461,-40.527,16.602,-152.344
1687269133.153,-15.137,-27.832,-42.969,4.883,-192.383
1687269133.157,-14.648,-30.762,-43.457,-24.414,-155.762
1687269133.159,-17.578,-21.484,-39.551,-30.273,-188.477
1687269133.163,-14.648,-10.742,-41.016,-34.180,-205.566
1687269133.167,-22.461,-17.090,-42.480,-33.203,-137.207
1687269133.171,-31.738,-25.879,-41.504,-34.668,-103.027
1687269133.175,-27.344,-27.832,-46.875,-24.902,-115.723
1687269133.179,-13.184,-26.855,-43.457,-1.953,-71.777
1687269133.183,-19.531,-21.484,-34.668,3.906,218.750
1687269133.186,-27.832,-18.555,-37.109,-0.977,334.473
1687269133.190,-20.020,-17.090,-35.156,-0.488,-49.316
1687269133.194,-8.789,-21.484,-38.086,-10.254,-108.398
1687269133.198,-4.883,-20.020,-44.922,-14.648,108.398
1687269133.202,-7.812,-18.066,-43.945,-9.277,-35.645
1687269133.204,-7.324,-20.508,-42.969,-15.137,-193.359
1687269133.208,-11.719,-20.996,-42.480,-23.438,-167.480
1687269133.212,-12.695,-22.949,-39.551,-27.344,110.352
1687269133.216,-16.602,-26.367,-41.016,-21.973,115.234
1687269133.220,-11.230,-21.973,-45.410,-16.113,-127.930
1687269133.224,0.000,-20.020,-45.410,-18.066,-38.086
1687269133.228,-6.348,-22.461,-41.992,-7.812,345.215
1687269133.231,-15.625,-21.973,-41.504,12.695,175.293
1687269133.235,-18.066,-21.484,-46.387,0.000,-208.008
1687269133.239,-14.160,-26.367,-48.340,-7.812,-179.688
1687269133.243,-2.930,-25.391,-43.945,1.465,-107.422
1687269133.247,8.301,-16.602,-39.062,10.742,-39.551
1687269133.249,-4.395,-21.973,-46.387,0.977,-133.301
1687269133.253,-11.230,-21.484,-53.223,-12.207,-112.793
1687269133.257,0.488,-15.625,-51.758,-18.555,-1.953
1687269133.261,-9.277,-23.926,-50.293,-21.484,-145.996
1687269133.265,-14.648,-26.367,-50.293,-21.973,-221.680
1687269133.269,-4.883,-25.391,-44.434,-21.973,-51.758
1687269133.273,-16.113,-29.297,-41.992,-14.648,72.754
1687269133.276,-18.555,-29.297,-46.875,-11.230,-47.363
1687269133.280,-9.766,-29.785,-44.922,-4.883,-174.316
1687269133.284,-15.625,-25.879,-42.969,12.695,123.535
1687269133.288,-21.484,-19.531,-46.387,15.625,339.355
1687269133.292,-12.207,-17.090,-50.293,-5.859,-51.270
1687269133.309,-8.301,-15.625,-44.922,-22.461,-174.805
1687269133.313,-6.836,-17.090,-41.992,-23.438,9.277
1687269133.317,-2.441,-20.020,-40.527,-24.902,22.461
1687269133.321,-13.672,-20.508,-39.062,-7.812,-133.789
1687269133.325,-24.414,-20.020,-40.527,3.418,-140.625
1687269133.329,-20.996,-22.461,-41.992,-3.906,274.414
1687269133.333,-24.902,-24.414,-43.457,-4.395,275.879
1687269133.336,-20.508,-22.461,-39.551,-10.742,-115.723
1687269133.340,-10.742,-19.531,-35.156,-8.789,-131.836
1687269133.344,-12.207,-19.043,-31.738,-15.137,76.660
1687269133.348,-13.672,-23.926,-35.156,-27.344,-78.613
1687269133.352,-13.184,-33.203,-42.969,-22.461,-194.824
1687269133.354,1.465,-38.574,-34.668,2.930,-104.004
1687269133.358,7.812,-31.738,-33.691,14.648,-44.434
1687269133.362,-18.555,-19.531,-57.617,-17.090,-100.098
1687269133.366,-25.391,-12.695,-59.082,-24.902,-121.094
1687269133.370,-8.789,-15.137,-53.711,-18.555,94.727
1687269133.374,-7.812,-18.555,-60.059,-18.555,134.277
1687269133.378,-11.230,-16.602,-65.918,-17.578,-0.977
1687269133.381,-5.371,-13.672,-65.918,-19.043,-146.484
1687269133.385,5.371,-10.742,-66.406,-4.883,13.184
1687269133.389,5.859,-16.113,-69.336,-13.672,445.312
1687269133.393,0.488,-20.996,-76.172,-21.973,70.801
1687269133.397,-1.953,-22.461,-72.754,-12.695,-197.754
1687269133.399,-1.465,-29.785,-67.383,-23.438,-65.918
1687269133.403,2.930,-29.297,-72.754,-23.438,-157.715
1687269133.407,-3.906,-22.949,-70.312,-7.812,-197.754
1687269133.411,-4.883,-22.949,-61.035,-5.859,-141.602
1687269133.415,1.465,-23.926,-58.594,-17.578,-95.703
1687269133.419,-6.348,-21.484,-64.453,-22.461,-67.383
1687269133.423,-8.301,-20.020,-66.895,-13.672,-65.430
1687269133.426,-18.555,-27.344,-56.152,-3.418,70.312
1687269133.430,-14.160,-29.297,-44.922,4.883,361.328
1687269133.434,-9.277,-23.438,-44.922,0.488,188.965
1687269133.438,-11.230,-25.879,-51.758,-20.996,-157.715
1687269133.442,-7.812,-26.855,-59.570,-27.344,-160.156
1687269133.444,-9.766,-22.461,-56.641,-21.484,-106.934
1687269133.448,-20.508,-28.809,-55.664,-20.020,-107.422
1687269133.452,-25.879,-32.715,-54.688,-3.906,-184.570
1687269133.456,-22.461,-21.973,-46.875,-9.766,-154.297
1687269133.460,-7.324,-14.648,-54.199,-28.809,-66.406
1687269133.464,-1.953,-18.555,-53.223,-15.137,-58.594
1687269133.468,-3.906,-20.020,-41.992,0.977,-46.387
1687269133.471,1.953,-15.137,-41.992,14.648,112.793
1687269133.475,-3.906,-22.949,-45.898,9.277,244.629
1687269133.479,-17.578,-25.391,-46.875,-8.789,66.406
1687269133.483,-18.555,-21.973,-48.828,-5.371,-38.086
1687269133.487,-12.207,-25.391,-51.270,-2.930,145.996
1687269133.489,-14.648,-23.438,-46.875,-0.977,179.199
1687269133.493,-11.230,-22.461,-40.527,-14.160,-164.551
1687269133.497,-11.230,-25.879,-42.480,-10.742,-191.895
1687269133.501,-29.297,-28.320,-45.410,-21.973,-80.566
1687269133.505,-26.367,-27.344,-43.945,-22.461,-136.230
1687269133.509,-13.184,-24.902,-44.922,1.465,-43.457
1687269133.513,-9.277,-32.715,-56.152,-6.348,37.598
1687269133.516,-6.348,-34.668,-53.711,-1.953,202.148
1687269133.520,-15.625,-29.297,-52.734,-13.184,44.922
1687269133.524,-24.902,-26.855,-59.570,-33.203,-229.004
1687269133.528,-22.461,-32.227,-51.758,-38.574,-166.504
1687269133.532,-25.879,-30.762,-37.598,-24.902,-121.582
1687269133.534,-28.320,-26.855,-31.738,-9.766,-137.207
1687269133.538,-26.855,-29.297,-37.598,-17.578,-183.594
1687269133.542,-31.250,-28.320,-37.109,-22.949,-114.746
1687269133.546,-34.668,-27.344,-37.598,-13.184,-14.160
1687269133.550,-29.785,-32.227,-45.410,7.812,-132.812
1687269133.554,-27.344,-29.297,-42.480,22.949,-90.332
1687269133.558,-22.461,-26.367,-42.969,11.230,163.086
1687269133.561,-23.926,-20.508,-48.828,-18.555,90.332
1687269133.565,-18.066,-15.137,-48.340,-32.227,-101.562
1687269133.569,-10.254,-21.973,-49.805,-29.785,-99.609
1687269133.573,-9.277,-24.902,-42.480,-19.043,84.473
1687269133.577,-17.090,-22.949,-42.480,-8.301,269.043
1687269133.580,-22.949,-24.902,-47.852,-9.277,-45.410
1687269133.584,-14.160,-28.809,-44.922,-6.348,-137.207
1687269133.588,-14.648,-32.715,-39.551,-5.859,29.297
1687269133.592,-21.484,-38.086,-38.574,-5.859,-98.633
1687269133.596,-11.230,-41.992,-40.039,-6.348,-208.008
1687269133.600,-3.906,-31.250,-38.086,-6.348,18.555
1687269133.604,-23.438,-24.902,-45.410,-11.719,408.203
1687269133.607,-24.902,-21.973,-54.688,-15.625,143.066
1687269133.611,-9.766,-21.484,-59.570,-3.906,-252.930
1687269133.615,-6.836,-19.043,-62.500,-10.254,-210.938
1687269133.619,-15.137,-16.113,-61.523,-16.602,-155.273
1687269133.623,-12.207,-16.113,-60.547,-13.184,-124.023
1687269133.624,-16.602,-11.719,-59.570,-32.227,-148.438
1687269133.628,-31.738,-11.230,-62.988,-39.551,-152.832
1687269133.632,-27.832,-10.742,-65.430,-24.902,-86.426
1687269133.636,-16.602,-15.137,-62.988,-38.574,-108.887
1687269133.640,-20.020,-23.438,-63.965,-59.570,-119.141
1687269133.644,-12.207,-20.020,-65.918,-63.477,133.301
1687269133.648,1.465,-16.113,-63.477,-58.594,308.105
1687269133.651,1.465,-23.438,-61.035,-65.430,35.156
1687269133.655,5.859,-22.949,-61.035,-53.223,-79.102
1687269133.659,1.953,-20.508,-58.105,-31.738,151.367
1687269133.663,-24.414,-19.043,-59.082,-23.438,76.172
1687269133.667,-36.133,-20.020,-50.293,-8.789,-222.168
1687269133.684,-34.180,-24.902,-40.039,-18.066,-205.566
1687269133.688,-27.344,-23.438,-36.133,-12.207,39.062
1687269133.692,-38.574,-23.438,-36.621,3.906,-14.160
1687269133.696,-42.480,-31.250,-45.410,-4.395,-162.598
1687269133.700,-29.297,-33.203,-42.480,-20.508,-99.609
1687269133.704,-25.391,-28.320,-35.645,-24.414,11.719
1687269133.708,-27.344,-34.180,-37.598,-12.695,23.438
1687269133.711,-24.902,-36.621,-41.016,-14.160,-42.969
1687269133.715,-20.020,-32.715,-43.457,-15.625,-81.543
1687269133.719,-18.555,-37.598,-42.480,2.930,163.574
1687269133.723,-27.832,-37.109,-45.410,-4.883,56.641
1687269133.727,-20.508,-29.297,-48.340,-10.254,-221.191
1687269133.729,-7.324,-32.227,-41.504,-17.578,-169.922
1687269133.733,-22.949,-30.273,-40.039,-42.480,-152.832
1687269133.737,-29.785,-28.320,-43.457,-45.898,-152.344
1687269133.741,-16.113,-30.273,-41.016,-36.621,-148.926
1687269133.745,-22.949,-30.762,-36.621,-25.879,-126.465
1687269133.749,-19.043,-31.250,-34.668,-21.484,20.508
1687269133.753,-8.789,-25.391,-30.273,-9.277,33.691
1687269133.756,-16.602,-18.066,-28.320,-5.859,-120.605
1687269133.760,-24.414,-20.996,-33.691,-7.812,40.527
1687269133.764,-25.391,-21.973,-45.898,-6.836,502.441
1687269133.768,-16.113,-18.555,-48.828,-5.371,244.141
1687269133.772,-9.277,-21.973,-36.621,-7.812,-161.621
1687269133.774,-18.555,-24.902,-33.691,-11.230,-39.062
1687269133.778,-24.414,-23.926,-37.598,-20.508,-109.375
1687269133.782,-17.578,-20.996,-32.227,-21.973,-204.102
1687269133.786,-22.461,-21.973,-31.250,-11.230,-121.094
1687269133.790,-20.508,-28.809,-37.109,-15.137,-72.754
1687269133.794,-26.855,-33.203,-37.598,-21.973,-16.602
1687269133.798,-36.133,-21.973,-32.715,-16.602,20.508
1687269133.801,-27.832,-21.973,-38.574,-19.043,-40.039
1687269133.805,-22.949,-26.855,-42.969,-22.949,219.238
1687269133.809,-24.414,-23.926,-40.039,-24.414,117.676
1687269133.813,-22.949,-29.297,-37.598,-22.461,-230.957
1687269133.817,-26.367,-35.156,-40.039,-7.812,-168.945
1687269133.818,-30.273,-29.297,-42.480,-9.766,-55.176
1687269133.822,-23.438,-26.367,-35.156,-21.484,-132.812
1687269133.826,-18.555,-27.832,-36.133,-20.020,-139.648
1687269133.830,-20.508,-28.809,-44.922,-18.066,-70.312
1687269133.834,-18.066,-28.809,-40.039,-26.367,-57.129
1687269133.838,-26.367,-28.320,-36.621,-23.926,-78.613
1687269133.842,-25.391,-24.902,-40.039,-19.043,-124.512
1687269133.845,-17.090,-22.461,-37.598,-19.531,40.039
1687269133.849,-25.879,-28.320,-39.062,-23.926,323.730
1687269133.853,-27.344,-26.855,-45.410,-24.902,107.422
1687269133.857,-25.391,-30.273,-41.016,-19.531,-114.258
1687269133.861,-29.297,-30.762,-36.133,-16.602,73.242
1687269133.864,-27.344,-27.344,-39.062,-16.113,5.371
1687269133.868,-25.879,-28.320,-38.574,-19.531,-217.773
1687269133.872,-14.648,-27.344,-33.203,-23.926,-140.137
1687269133.876,-17.578,-26.367,-36.133,-32.227,39.062
1687269133.880,-37.109,-27.344,-41.016,-38.574,-46.387
1687269133.884,-31.738,-32.715,-38.086,-29.785,-138.184
1687269133.888,-20.996,-29.297,-39.062,-16.113,-16.602
1687269133.891,-14.648,-24.902,-41.504,-20.508,237.305
1687269133.895,-13.672,-29.785,-38.574,-26.855,79.102
1687269133.899,-13.184,-28.809,-35.645,-18.066,-181.152
1687269133.903,-7.812,-27.344,-37.598,-13.672,-158.691
1687269133.907,-21.484,-28.809,-41.016,-16.113,-128.418
1687269133.909,-18.066,-26.367,-41.992,-12.207,-144.043
1687269133.913,-9.277,-22.949,-44.922,-12.695,-208.984
1687269133.917,-20.996,-22.461,-42.969,-23.438,-140.625
1687269133.921,-24.414,-29.297,-33.691,-11.230,-52.246
1687269133.925,-9.277,-29.297,-32.227,-16.113,-81.055
1687269133.929,-5.371,-28.809,-40.039,-31.250,-95.703
1687269133.933,-11.719,-30.762,-38.086,-20.508,126.465
1687269133.936,-16.602,-30.273,-30.762,-16.602,508.789
1687269133.940,-28.320,-20.996,-31.738,-32.227,171.387
1687269133.944,-27.832,-21.973,-38.086,-29.297,-119.629
1687269133.948,-14.648,-23.926,-41.992,-23.926,35.645
1687269133.952,-15.625,-19.531,-38.574,-20.020,-17.578
1687269133.969,-13.184,-21.484,-35.156,-13.672,-204.102
1687269133.973,-11.719,-28.320,-36.133,-14.648,-197.266
1687269133.977,-14.160,-36.621,-36.133,2.930,-85.449
1687269133.981,-21.973,-38.574,-34.668,7.812,-159.180
1687269133.985,-25.391,-33.203,-33.203,-9.766,-218.750
1687269133.989,-20.996,-34.180,-43.945,-7.324,11.230
1687269133.993,-18.066,-35.156,-41.016,-12.207,159.180
1687269133.996,-1.953,-24.414,-24.902,-16.602,42.480
1687269134.000,-14.160,-21.484,-23.926,-17.578,-135.742
1687269134.004,-29.785,-28.320,-24.902,-18.066,-154.785
1687269134.008,-29.297,-30.273,-30.273,-4.395,207.520
1687269134.012,-38.086,-29.785,-38.086,-22.949,96.680
1687269133.999,-24.902,-29.297,-34.668,-36.621,-178.223
1687269134.003,-8.789,-33.203,-31.738,-26.855,-88.379
1687269134.007,-17.090,-29.785,-34.668,-12.207,-59.570
1687269134.011,-35.156,-22.461,-33.691,-0.488,-116.699
1687269134.015,-25.879,-23.438,-25.879,8.789,-100.586
1687269134.019,-15.137,-28.809,-26.855,-4.395,30.273
1687269134.023,-20.996,-28.320,-29.297,-29.297,79.102
1687269134.026,-21.973,-28.809,-28.320,-27.344,-124.512
1687269134.030,-24.414,-31.738,-30.273,-6.348,-227.051
1687269134.034,-28.809,-28.809,-32.227,-3.418,117.676
1687269134.038,-27.832,-22.461,-32.715,-5.859,502.930
1687269134.042,-21.973,-25.391,-36.133,-18.066,199.707
1687269134.059,-15.625,-30.762,-34.668,-41.992,-152.344
1687269134.063,-35.645,-29.297,-33.203,-39.551,-110.840
1687269134.067,-51.758,-34.180,-40.527,-10.742,-123.047
1687269134.071,-22.949,-35.645,-42.969,-15.137,-198.242
1687269134.075,-22.949,-28.320,-32.227,-18.066,-154.785
1687269134.079,-32.227,-25.391,-34.180,-13.184,18.555
