timestamps,TP9,AF7,AF8,TP10,Right AUX
1692210145.157,-9.277,-33.203,-13.672,0.000,-10.254
1692210145.161,-22.461,-38.086,-10.742,-22.949,-61.523
1692210145.165,-32.715,-38.086,-14.160,-42.969,-128.418
1692210145.169,-41.016,-34.180,-18.066,-30.762,30.762
1692210145.173,-30.273,-37.109,-16.113,-6.836,150.391
1692210145.177,-23.438,-40.039,-19.043,-12.695,50.293
1692210145.181,-29.297,-41.504,-18.066,-27.344,-24.414
1692210145.184,-30.762,-49.805,-13.672,-32.227,149.414
1692210145.188,-27.832,-55.176,-13.184,-21.484,367.676
1692210145.192,-15.137,-53.711,-15.625,-8.301,85.449
1692210145.196,-4.395,-56.641,-18.555,-7.812,-159.668
1692210145.200,-20.996,-56.152,-15.137,-26.367,-103.516
1692210145.219,-32.227,-51.758,-14.160,-42.969,-134.766
1692210145.223,-34.180,-56.152,-23.438,-40.039,-203.613
1692210145.227,-36.133,-61.523,-19.043,-25.391,-161.621
1692210145.231,-34.668,-61.523,-15.625,-18.066,-52.246
1692210145.235,-33.203,-61.035,-19.043,-33.691,-63.477
1692210145.239,-41.992,-59.082,-19.043,-50.781,-95.215
1692210145.243,-52.734,-55.176,-20.508,-46.875,62.012
1692210145.246,-33.691,-55.664,-19.531,-25.879,208.008
1692210145.250,-17.578,-56.152,-19.531,-14.160,32.715
1692210145.254,-22.461,-50.293,-15.137,-21.973,-154.785
1692210145.258,-41.016,-49.805,-14.648,-38.574,-70.801
1692210145.262,-46.387,-50.781,-16.113,-41.016,218.750
1692210145.247,-27.832,-44.434,-14.648,-19.043,34.180
1692210145.251,-19.531,-44.922,-13.184,-4.883,-170.898
1692210145.255,-24.414,-44.922,-15.137,-3.906,-42.480
1692210145.259,-34.180,-37.598,-18.555,-20.508,-50.293
1692210145.263,-40.527,-28.809,-14.160,-34.180,-113.281
1692210145.267,-34.180,-31.738,-10.742,-9.277,30.762
1692210145.271,-20.020,-37.598,-11.719,5.859,113.281
1692210145.274,-17.090,-35.156,-11.719,-7.812,-37.598
1692210145.278,-27.832,-35.645,-11.230,-27.344,-64.941
1692210145.282,-34.180,-30.762,-14.160,-31.250,-134.766
1692210145.286,-26.855,-37.598,-13.184,-10.254,89.844
1692210145.290,-18.555,-42.969,-12.207,8.789,513.184
1692210145.294,-15.137,-33.691,-11.719,5.371,186.523
1692210145.298,-18.555,-36.621,-12.695,-15.137,-156.250
1692210145.302,-21.973,-37.598,-18.555,-31.738,-149.414
1692210145.306,-15.625,-30.762,-18.555,-13.184,-184.570
1692210145.310,-2.441,-33.203,-16.113,7.324,-182.129
1692210145.314,6.836,-34.180,-16.113,6.348,-48.340
1692210145.318,-2.441,-28.320,-15.137,-16.113,175.781
1692210145.321,-25.879,-28.809,-17.090,-36.133,-5.371
1692210145.325,-44.434,-32.715,-19.531,-31.738,-189.453
1692210145.329,-39.551,-34.668,-20.996,-20.020,-11.230
1692210145.333,-34.668,-30.273,-18.555,-20.508,106.445
1692210145.337,-45.410,-27.832,-20.996,-43.945,-44.922
1692210145.352,-59.570,-28.809,-20.996,-58.594,-195.801
1692210145.356,-48.828,-29.785,-19.043,-44.922,-20.508
1692210145.360,-36.133,-31.250,-25.879,-23.438,108.887
1692210145.364,-34.180,-25.391,-22.949,-14.648,-3.418
1692210145.368,-31.738,-30.762,-13.184,-28.809,-61.523
1692210145.372,-40.039,-37.598,-11.230,-35.645,151.367
1692210145.376,-44.434,-34.668,-10.742,-24.414,396.484
1692210145.379,-35.645,-23.438,-11.230,-11.230,20.020
1692210145.383,-30.273,-18.555,-17.090,-9.766,-192.871
1692210145.387,-32.227,-20.996,-16.602,-22.461,-125.488
1692210145.391,-40.527,-19.043,-19.043,-35.645,-155.273
1692210145.395,-47.363,-26.855,-19.043,-38.086,-206.543
1692210145.397,-37.598,-32.227,-16.113,-23.438,-96.191
1692210145.401,-29.297,-20.020,-13.184,-5.859,5.371
1692210145.405,-24.414,-10.254,-9.277,-13.184,-108.398
1692210145.409,-34.180,-9.766,-8.789,-33.691,-204.590
1692210145.413,-47.852,-12.695,-8.789,-35.645,-145.020
1692210145.417,-33.691,-12.207,-11.230,-12.207,50.781
1692210145.421,-20.508,-12.695,-10.254,-3.906,102.051
1692210145.424,-23.926,-21.973,-8.301,-23.926,-58.594
1692210145.428,-32.715,-25.391,-10.742,-37.598,-95.215
1692210145.432,-43.945,-24.902,-12.207,-33.691,169.922
1692210145.436,-42.969,-28.320,-12.695,-14.648,48.340
1692210145.440,-27.832,-34.668,-12.207,-9.277,-156.250
1692210145.442,-26.855,-38.086,-6.836,-24.414,-82.031
1692210145.446,-41.992,-39.062,-9.277,-46.387,-51.758
1692210145.450,-46.875,-30.762,-9.277,-46.387,-84.961
1692210145.454,-42.969,-26.367,-6.836,-29.785,-101.074
1692210145.458,-25.391,-31.250,-10.742,-16.113,252.930
1692210145.462,-8.301,-32.715,-15.625,-12.207,433.594
1692210145.466,-24.414,-30.762,-16.113,-38.086,115.723
1692210145.469,-45.898,-33.691,-18.066,-52.734,-108.398
1692210145.473,-42.969,-37.598,-20.508,-29.297,64.941
1692210145.477,-29.297,-37.109,-19.043,-1.953,216.309
1692210145.481,-23.926,-36.133,-19.043,-5.859,-137.207
1692210145.485,-41.992,-36.133,-15.625,-32.715,-174.316
1692210145.488,-52.246,-34.180,-11.230,-48.340,-110.352
1692210145.492,-43.945,-31.250,-9.766,-34.668,-150.391
1692210145.496,-30.762,-28.809,-11.719,-8.301,-174.805
1692210145.500,-19.043,-26.855,-14.160,-4.395,-98.633
1692210145.504,-17.090,-26.855,-16.113,-23.438,-36.133
1692210145.508,-30.273,-31.738,-12.207,-38.086,-23.438
1692210145.512,-38.574,-36.133,-7.812,-26.855,-53.711
1692210145.515,-25.391,-35.645,-11.719,-2.441,-15.625
1692210145.519,-18.555,-30.762,-7.324,9.277,327.148
1692210145.523,-19.043,-28.809,-5.859,-10.742,213.379
1692210145.527,-25.391,-31.250,-11.719,-29.785,-167.480
1692210145.531,-40.039,-34.668,-10.254,-27.344,-134.277
1692210145.532,-35.645,-37.109,-8.301,-14.648,-96.680
1692210145.536,-26.367,-37.598,-13.184,-6.348,-104.980
1692210145.540,-31.250,-36.621,-16.602,-28.809,-87.402
1692210145.544,-45.898,-35.645,-18.066,-50.293,59.082
1692210145.548,-44.922,-32.227,-17.090,-49.805,45.410
1692210145.552,-31.250,-32.715,-15.625,-24.414,-51.270
1692210145.556,-23.926,-34.668,-11.719,-12.695,0.977
1692210145.559,-23.438,-28.809,-6.348,-30.273,153.809
1692210145.563,-36.621,-25.879,-9.766,-45.898,328.125
1692210145.567,-40.039,-28.320,-13.184,-49.805,-2.441
1692210145.571,-29.785,-31.738,-13.672,-35.156,-205.566
1692210145.575,-22.461,-34.180,-18.555,-25.879,-36.133
1692210145.579,-24.902,-33.203,-21.484,-38.086,-70.312
1692210145.583,-40.527,-29.785,-18.555,-53.223,-203.125
1692210145.587,-55.664,-28.320,-19.531,-50.293,-147.461
1692210145.591,-51.758,-32.227,-19.043,-37.109,-64.941
1692210145.595,-40.527,-30.762,-18.555,-20.996,-43.945
1692210145.599,-40.527,-31.738,-20.996,-28.320,-53.711
1692210145.603,-48.340,-34.668,-20.996,-47.852,-51.758
1692210145.606,-54.688,-39.062,-19.531,-46.387,150.879
1692210145.610,-47.363,-44.922,-19.531,-27.344,31.250
1692210145.614,-32.227,-43.945,-22.949,-20.508,-161.133
1692210145.618,-35.645,-41.992,-26.855,-30.762,-47.852
1692210145.622,-41.504,-36.621,-24.414,-44.922,-13.672
1692210145.622,-39.062,-31.738,-20.996,-54.199,-121.094
1692210145.626,-35.156,-29.785,-24.414,-37.109,-152.344
1692210145.630,-27.832,-30.273,-22.461,-18.066,78.613
1692210145.634,-26.855,-32.715,-17.090,-21.973,196.777
1692210145.638,-34.180,-28.320,-19.043,-33.203,-15.137
1692210145.642,-45.898,-27.832,-20.020,-44.922,-53.711
1692210145.646,-48.828,-31.738,-20.996,-39.062,187.500
1692210145.649,-37.109,-33.203,-21.973,-18.555,415.039
1692210145.653,-19.531,-35.156,-20.508,-16.602,88.867
1692210145.657,-17.090,-33.691,-17.090,-37.598,-149.902
1692210145.661,-29.785,-33.691,-19.531,-48.340,-109.375
1692210145.665,-30.762,-36.133,-20.508,-38.574,-162.109
1692210145.670,-17.090,-36.133,-18.066,-18.555,-164.551
1692210145.674,-13.672,-35.156,-20.020,-13.672,-78.125
1692210145.678,-28.809,-33.691,-19.531,-30.762,12.695
1692210145.682,-47.852,-34.668,-17.578,-47.852,-28.320
1692210145.686,-52.246,-36.133,-15.137,-44.434,-118.652
1692210145.690,-42.969,-33.203,-13.672,-27.832,-20.996
1692210145.694,-39.062,-33.691,-19.531,-27.832,142.578
1692210145.697,-41.016,-31.738,-23.926,-40.039,0.000
1692210145.701,-41.016,-28.809,-23.438,-53.223,-189.941
1692210145.705,-53.223,-29.785,-20.996,-51.270,-57.129
1692210145.709,-46.387,-33.691,-20.508,-20.508,152.344
1692210145.713,-20.508,-32.715,-17.090,-0.488,16.113
1692210145.727,-19.531,-32.227,-13.672,-18.066,-139.160
1692210145.731,-25.879,-35.645,-13.672,-37.109,-112.305
1692210145.735,-30.762,-38.086,-15.137,-31.738,-69.824
1692210145.739,-36.133,-38.086,-17.090,-20.020,-29.297
1692210145.743,-15.137,-39.551,-20.996,-13.184,13.672
1692210145.747,-15.625,-42.480,-21.484,-17.578,241.211
1692210145.751,-37.598,-39.551,-17.578,-31.250,577.148
1692210145.754,-42.969,-38.574,-14.648,-37.598,192.383
1692210145.758,-36.133,-38.574,-12.207,-33.691,-226.074
1692210145.762,-27.344,-36.621,-14.160,-24.414,-123.535
1692210145.766,-29.785,-37.109,-15.137,-25.879,-127.930
1692210145.770,-40.039,-35.645,-16.602,-46.875,-208.984
1692210145.772,-43.457,-34.668,-17.090,-53.223,-169.434
1692210145.776,-38.086,-32.227,-17.578,-31.250,-108.398
1692210145.780,-22.461,-32.227,-17.090,-18.066,-71.777
1692210145.784,-20.020,-30.762,-17.090,-22.949,-96.191
1692210145.788,-38.086,-30.762,-19.043,-41.016,-81.543
1692210145.792,-54.688,-33.203,-23.438,-47.852,-0.488
1692210145.796,-51.758,-31.738,-24.414,-29.297,-57.129
1692210145.799,-41.016,-32.715,-23.438,-19.531,-33.691
1692210145.803,-39.062,-30.273,-22.461,-24.414,37.598
1692210145.807,-48.828,-31.250,-18.066,-39.551,296.387
1692210145.811,-58.594,-33.691,-20.020,-55.664,150.391
1692210145.815,-48.828,-33.203,-20.020,-45.898,-208.984
1692210145.817,-41.504,-36.621,-16.602,-21.973,-90.820
1692210145.821,-40.039,-36.621,-16.602,-17.090,-27.344
1692210145.825,-38.086,-35.156,-16.113,-28.809,-107.910
1692210145.829,-50.781,-39.062,-11.230,-46.875,-115.234
1692210145.833,-56.641,-39.062,-12.207,-42.969,136.230
1692210145.837,-46.875,-35.645,-15.625,-20.996,234.863
1692210145.841,-34.668,-33.203,-14.648,-20.996,38.574
1692210145.844,-43.945,-33.203,-13.672,-44.922,-158.203
1692210145.848,-54.688,-37.598,-14.648,-60.059,49.316
1692210145.852,-53.711,-36.621,-20.508,-49.805,338.379
1692210145.856,-43.457,-27.832,-21.484,-27.344,-48.340
1692210145.860,-33.203,-25.391,-14.160,-13.672,-193.359
1692210145.862,-35.645,-22.461,-12.695,-27.344,-134.766
1692210145.866,-46.387,-14.648,-12.695,-47.852,-152.344
1692210145.870,-44.434,-14.648,-15.137,-46.875,-158.691
1692210145.874,-36.133,-20.020,-20.508,-27.832,-122.559
1692210145.878,-34.668,-20.020,-17.090,-18.066,-73.730
1692210145.882,-39.062,-20.996,-16.602,-31.738,-26.367
1692210145.886,-44.922,-25.879,-21.973,-49.316,-102.539
1692210145.889,-42.480,-30.273,-21.484,-53.223,-141.113
1692210145.893,-42.969,-33.203,-20.996,-41.504,148.926
1692210145.897,-41.016,-34.180,-22.461,-28.320,109.863
1692210145.901,-33.691,-39.551,-22.949,-30.762,-128.418
1692210145.905,-34.668,-35.645,-20.508,-44.434,-58.594
1692210145.907,-40.527,-29.297,-20.020,-39.062,-11.719
1692210145.911,-30.273,-34.668,-19.531,-16.602,-87.891
1692210145.915,-8.789,-39.062,-15.625,-6.836,-107.910
1692210145.919,-7.324,-38.086,-15.137,-12.207,119.141
1692210145.923,-26.367,-42.480,-15.137,-36.621,240.723
1692210145.927,-48.340,-45.410,-21.973,-55.664,61.035
1692210145.931,-48.340,-45.898,-18.555,-40.527,-9.766
1692210145.934,-33.203,-49.805,-13.184,-26.855,185.059
1692210145.938,-32.715,-47.363,-15.625,-36.621,283.203
1692210145.942,-46.875,-38.086,-20.020,-48.340,-62.988
1692210145.946,-58.105,-37.109,-21.484,-57.129,-221.191
1692210145.950,-49.316,-38.574,-19.531,-48.828,-169.434
1692210145.955,-43.945,-44.434,-18.555,-31.738,-120.117
1692210145.959,-46.875,-46.387,-17.090,-39.062,-139.160
1692210145.963,-56.152,-46.875,-18.066,-55.664,-123.047
1692210145.967,-66.406,-49.805,-19.531,-66.406,-41.504
1692210145.971,-59.082,-44.922,-15.137,-54.688,-62.012
1692210145.975,-46.387,-44.434,-15.137,-28.809,-102.539
1692210145.979,-41.016,-43.945,-12.695,-25.879,116.699
1692210145.982,-52.246,-45.410,-12.207,-47.363,333.984
1692210145.986,-62.500,-45.410,-20.020,-62.012,25.391
1692210145.990,-51.758,-44.922,-20.020,-46.875,-222.168
1692210145.994,-40.527,-42.969,-22.949,-24.902,-23.926
1692210145.998,-32.715,-47.363,-24.902,-21.973,34.668
1692210145.997,-37.109,-48.828,-17.578,-34.180,-127.930
1692210146.001,-44.434,-38.574,-18.066,-42.480,-167.480
1692210146.005,-40.039,-41.992,-20.996,-39.551,-103.027
1692210146.009,-33.691,-44.434,-21.973,-29.785,9.277
1692210146.013,-28.809,-37.598,-23.438,-24.414,50.781
1692210146.017,-36.133,-41.504,-23.926,-39.062,-43.457
1692210146.021,-53.711,-44.434,-24.414,-50.781,153.809
1692210146.024,-64.453,-41.504,-23.926,-48.828,541.016
1692210146.028,-49.316,-41.016,-23.926,-25.879,266.113
1692210146.032,-32.715,-41.504,-20.020,-11.719,-115.723
1692210146.036,-34.668,-42.969,-17.578,-26.855,-111.328
1692210146.040,-39.062,-45.410,-17.578,-43.457,-179.688
1692210146.044,-42.969,-42.480,-20.996,-39.551,-247.559
1692210146.048,-33.691,-37.598,-24.414,-18.555,-185.547
1692210146.052,-25.391,-37.598,-20.996,-4.883,-84.961
1692210146.056,-36.621,-41.992,-21.973,-24.414,-125.977
1692210146.060,-51.758,-44.434,-21.484,-49.805,-184.570
1692210146.064,-57.617,-45.410,-15.137,-44.922,-33.203
1692210146.068,-51.270,-47.852,-16.113,-31.250,203.125
1692210146.071,-43.457,-45.410,-20.996,-26.367,181.152
1692210146.075,-29.297,-41.504,-17.090,-35.645,-55.664
1692210146.079,-29.297,-33.691,-15.625,-53.711,-74.219
1692210146.083,-38.086,-30.762,-20.508,-47.363,73.242
1692210146.087,-35.156,-36.621,-25.391,-37.598,-60.547
1692210146.102,-22.949,-37.598,-26.367,-30.273,-136.719
1692210146.106,-23.926,-38.086,-28.809,-32.715,-47.363
1692210146.110,-39.551,-38.086,-28.320,-57.617,-68.359
1692210146.114,-52.246,-37.109,-23.438,-68.359,-103.027
1692210146.118,-47.852,-44.434,-21.484,-52.246,-61.523
1692210146.122,-32.227,-50.293,-22.949,-27.832,167.969
1692210146.126,-35.645,-46.875,-24.902,-27.832,479.980
1692210146.129,-49.805,-45.898,-22.949,-56.641,110.352
1692210146.133,-51.270,-46.387,-19.531,-62.500,-212.402
1692210146.137,-40.527,-46.387,-18.066,-40.039,-89.844
1692210146.141,-27.832,-48.828,-18.066,-14.160,-60.059
1692210146.145,-30.762,-47.363,-16.113,-9.766,-127.441
1692210146.162,-39.551,-50.293,-14.160,-28.809,-96.191
1692210146.166,-42.480,-56.152,-19.043,-38.574,25.391
1692210146.170,-40.039,-53.223,-22.949,-32.227,-43.457
1692210146.174,-21.484,-46.387,-24.414,-9.766,-142.090
1692210146.178,-1.465,-42.480,-31.250,6.836,-64.941
1692210146.182,-16.113,-52.734,-22.949,-5.859,100.098
1692210146.186,-39.062,-57.617,-10.254,-24.414,116.211
1692210146.189,-43.457,-52.246,-13.184,-25.391,-54.688
1692210146.193,-33.691,-57.617,-11.230,-7.812,-27.832
1692210146.197,-15.137,-59.082,-4.395,12.207,253.906
1692210146.201,-21.973,-51.270,-11.719,-6.836,84.473
1692210146.205,-43.945,-50.293,-23.926,-36.621,-155.762
1692210146.192,-47.852,-59.082,-20.508,-33.203,8.789
1692210146.196,-32.227,-63.477,-15.137,-6.348,61.035
1692210146.200,-26.855,-56.641,-9.766,4.395,-100.586
1692210146.204,-36.133,-50.781,-7.324,-6.836,-149.902
1692210146.208,-46.387,-50.781,-6.836,-20.996,106.445
1692210146.212,-55.176,-52.246,-7.324,-24.414,228.027
1692210146.216,-47.363,-54.199,-8.789,-10.742,-0.488
1692210146.219,-29.297,-58.105,-7.812,5.371,-76.172
1692210146.223,-27.344,-55.664,-6.348,-3.418,-42.969
1692210146.227,-45.410,-58.105,-7.812,-26.367,-99.121
1692210146.231,-59.082,-59.082,-9.766,-28.809,-177.734
1692210146.235,-50.781,-57.129,-9.277,-5.371,-148.438
1692210146.239,-35.156,-60.059,-9.277,16.113,113.770
1692210146.243,-32.227,-59.570,-5.859,16.113,179.199
1692210146.247,-35.156,-55.664,-0.977,2.930,-80.566
1692210146.251,-34.668,-54.688,3.418,-8.301,-91.797
1692210146.255,-30.762,-57.129,1.465,11.719,32.715
1692210146.259,-20.020,-62.012,-6.836,22.949,80.078
1692210146.263,-4.883,-61.523,-7.812,14.160,-21.973
1692210146.266,-9.766,-60.059,-2.930,3.418,-23.926
1692210146.270,-27.832,-62.988,-3.906,-8.789,179.199
1692210146.274,-15.625,-62.500,-8.301,-0.977,62.500
1692210146.278,-0.488,-59.570,-7.324,16.113,-179.199
1692210146.282,2.441,-55.176,-8.789,14.160,-94.238
1692210146.282,-3.418,-54.199,-9.277,3.418,-86.426
1692210146.286,-20.996,-53.711,-7.812,-5.371,-200.195
1692210146.290,-33.203,-45.410,-7.812,-0.488,-186.035
1692210146.294,-38.086,-40.527,-8.789,14.160,6.836
1692210146.298,-41.016,-48.340,-11.719,4.395,71.289
1692210146.302,-49.316,-51.758,-11.719,-25.879,-9.766
1692210146.306,-56.641,-50.293,-11.719,-46.875,-17.090
1692210146.309,-63.965,-55.176,-16.602,-42.480,150.391
1692210146.313,-53.223,-54.199,-20.508,-19.043,401.367
1692210146.317,-29.297,-44.922,-17.090,-7.812,127.441
1692210146.321,-23.926,-41.992,-12.695,-25.879,-191.406
1692210146.325,-42.480,-49.316,-15.137,-43.457,-183.105
1692210146.329,-55.176,-53.223,-19.043,-35.645,-155.762
1692210146.333,-42.480,-49.805,-15.137,-13.184,-131.348
1692210146.337,-31.738,-46.875,-12.695,-7.324,-66.406
1692210146.341,-35.645,-44.922,-10.742,-22.461,46.875
1692210146.345,-48.340,-44.434,-8.301,-31.738,-85.938
1692210146.349,-56.152,-45.898,-8.789,-23.926,-81.543
1692210146.353,-45.410,-45.898,-9.766,-1.953,90.820
1692210146.356,-30.762,-49.805,-4.883,8.301,305.664
1692210146.360,-30.762,-51.758,-9.277,-18.555,112.305
1692210146.364,-45.410,-53.711,-18.066,-42.480,-228.516
1692210146.368,-50.293,-54.199,-21.484,-39.551,-60.059
1692210146.372,-36.621,-49.316,-18.066,-20.020,6.836
1692210146.372,-15.137,-49.316,-14.160,-8.301,-167.969
1692210146.376,-12.207,-52.246,-17.578,-21.973,-161.133
1692210146.380,-32.715,-51.270,-19.531,-35.645,-79.102
1692210146.384,-44.922,-48.340,-19.043,-29.785,-8.789
1692210146.388,-33.203,-45.410,-21.973,-5.859,17.578
1692210146.392,-18.555,-41.992,-18.555,4.395,25.879
1692210146.396,-21.973,-40.527,-14.160,-8.789,179.199
1692210146.399,-38.086,-38.086,-19.531,-29.785,327.637
1692210146.403,-42.969,-34.668,-20.996,-41.992,10.254
1692210146.407,-28.809,-37.598,-20.996,-21.973,-137.695
1692210146.411,-24.902,-35.156,-25.391,-12.207,30.273
1692210146.415,-23.926,-32.227,-23.926,-20.020,-63.965
1692210146.419,-22.461,-38.574,-17.090,-32.227,-186.035
1692210146.423,-36.133,-43.945,-7.324,-43.945,-170.410
1692210146.427,-45.410,-39.062,-5.859,-35.645,-105.469
1692210146.431,-31.738,-37.598,-11.230,-16.602,-91.309
1692210146.435,-20.508,-43.945,-11.719,-19.531,-120.117
1692210146.439,-34.180,-45.410,-15.625,-36.621,16.113
1692210146.443,-52.246,-49.316,-17.578,-48.340,260.254
1692210146.446,-45.898,-47.852,-14.648,-36.621,81.055
1692210146.450,-34.180,-43.457,-16.113,-17.090,-190.918
1692210146.454,-31.738,-42.480,-19.043,-23.438,-58.105
1692210146.458,-37.109,-35.645,-20.996,-39.062,34.180
1692210146.462,-48.828,-28.320,-14.648,-50.293,-162.598
1692210146.463,-44.922,-31.738,-9.277,-31.250,-100.098
1692210146.467,-35.156,-34.668,-14.160,-8.301,126.465
1692210146.471,-25.879,-38.086,-18.066,-11.230,120.605
1692210146.475,-31.250,-41.504,-23.438,-37.598,-53.711
1692210146.479,-42.480,-41.992,-22.461,-54.199,-91.797
1692210146.483,-42.969,-45.410,-19.531,-45.410,98.633
1692210146.487,-24.902,-46.875,-20.508,-22.949,429.688
1692210146.490,-8.789,-48.828,-20.996,-13.672,111.328
1692210146.494,-22.949,-53.223,-25.879,-39.062,-218.750
1692210146.498,-37.109,-44.922,-24.414,-61.035,-168.457
1692210146.502,-26.855,-39.551,-21.484,-48.340,-170.898
1692210146.506,-15.137,-31.250,-21.973,-25.879,-179.688
1692210146.523,-5.859,-22.461,-18.555,-13.672,-149.902
1692210146.527,-17.578,-25.879,-19.531,-25.391,-106.934
1692210146.531,-33.203,-26.855,-17.578,-36.133,-77.148
1692210146.535,-27.832,-28.320,-15.625,-26.367,-152.344
1692210146.539,-21.973,-31.738,-18.555,-8.789,-105.469
1692210146.543,-21.973,-38.086,-21.484,1.465,323.242
1692210146.547,-27.832,-39.551,-20.508,-7.812,192.871
1692210146.550,-38.574,-41.504,-19.043,-29.785,-165.527
1692210146.554,-48.828,-46.875,-20.508,-36.133,-45.898
1692210146.558,-41.992,-46.387,-18.066,-14.160,127.441
1692210146.562,-30.273,-46.387,-15.625,-9.766,-32.715
1692210146.566,-35.645,-48.340,-22.461,-31.250,-100.586
1692210146.567,-49.316,-47.852,-21.973,-59.082,-55.664
1692210146.571,-45.410,-42.480,-16.602,-58.105,-115.723
1692210146.575,-34.180,-37.598,-17.578,-38.574,-147.461
1692210146.579,-25.391,-36.621,-15.137,-23.926,-63.477
1692210146.583,-24.902,-40.039,-14.648,-24.902,141.602
1692210146.587,-43.945,-40.527,-16.113,-45.410,158.691
1692210146.591,-49.316,-40.527,-21.973,-55.664,-58.594
1692210146.594,-47.363,-40.527,-22.461,-43.945,-78.613
1692210146.598,-45.410,-38.574,-17.578,-28.320,131.836
1692210146.602,-39.551,-33.203,-16.602,-29.297,282.227
1692210146.606,-53.223,-24.902,-21.484,-52.246,-69.336
1692210146.610,-68.848,-24.902,-27.344,-67.383,-253.906
1692210146.613,-62.988,-29.785,-28.320,-52.734,-182.129
1692210146.617,-45.410,-24.902,-24.414,-25.391,-109.375
1692210146.621,-43.945,-27.832,-21.973,-28.809,-125.000
1692210146.625,-52.734,-31.250,-22.461,-42.969,-128.418
1692210146.629,-55.176,-33.691,-23.438,-43.945,-95.215
1692210146.633,-56.152,-35.645,-22.949,-41.504,-6.348
1692210146.637,-39.062,-28.320,-19.531,-26.855,26.367
1692210146.640,-23.438,-26.367,-20.996,-22.461,-9.277
1692210146.644,-33.691,-29.785,-21.484,-37.109,325.684
1692210146.648,-46.387,-25.391,-22.949,-49.316,217.773
1692210146.652,-38.086,-23.926,-22.949,-46.387,-190.918
1692210146.656,-34.180,-27.344,-17.578,-27.832,-104.004
1692210146.657,-37.109,-24.414,-17.578,-25.391,-25.879
1692210146.661,-43.945,-22.949,-19.043,-48.828,-124.512
1692210146.665,-56.641,-23.926,-16.602,-66.895,-176.270
1692210146.669,-58.105,-26.855,-20.996,-58.105,-44.434
1692210146.673,-50.293,-27.344,-28.320,-33.203,99.609
1692210146.677,-35.645,-28.809,-25.879,-21.973,72.754
1692210146.681,-39.551,-29.785,-19.531,-41.016,-2.930
1692210146.684,-55.176,-23.438,-15.137,-52.734,107.910
1692210146.688,-61.523,-25.879,-13.184,-42.480,219.727
1692210146.692,-47.852,-33.203,-18.066,-38.086,-26.367
1692210146.696,-38.574,-36.621,-18.066,-26.855,-57.617
1692210146.700,-47.363,-41.992,-21.973,-29.785,10.742
1692210146.704,-60.059,-42.480,-26.367,-46.387,-110.840
1692210146.708,-68.359,-43.457,-22.949,-48.828,-194.824
1692210146.712,-59.570,-46.387,-21.484,-28.320,-86.426
1692210146.716,-43.457,-45.410,-21.484,-19.043,-48.828
1692210146.720,-43.945,-45.898,-19.531,-32.715,-97.656
1692210146.724,-56.152,-43.457,-16.602,-43.945,-27.832
1692210146.728,-65.430,-45.410,-19.043,-58.105,26.367
1692210146.731,-62.012,-39.551,-18.066,-45.410,211.426
1692210146.735,-46.875,-38.086,-14.160,-29.785,132.812
1692210146.739,-36.621,-40.527,-16.602,-41.504,-122.559
1692210146.743,-44.434,-33.691,-20.020,-61.523,-85.938
1692210146.747,-53.223,-30.762,-18.066,-65.430,-87.891
1692210146.748,-60.059,-27.832,-18.555,-39.062,-105.469
1692210146.752,-49.805,-27.344,-20.508,-16.113,-30.762
1692210146.756,-28.320,-26.855,-15.137,-19.531,65.430
1692210146.760,-30.762,-28.320,-13.184,-41.016,114.258
1692210146.764,-43.457,-26.367,-18.555,-47.852,-1.465
1692210146.768,-38.086,-19.531,-20.996,-37.109,-63.965
1692210146.772,-20.508,-24.902,-19.043,-15.137,239.746
1692210146.775,-20.020,-34.668,-18.066,-10.742,481.445
1692210146.779,-38.086,-34.180,-22.461,-35.156,69.336
1692210146.783,-55.176,-36.621,-25.879,-49.805,-227.051
1692210146.787,-54.688,-36.133,-26.855,-41.992,-180.664
1692210146.791,-39.062,-34.180,-25.879,-21.484,-170.410
1692210146.794,-30.273,-34.180,-27.344,-20.508,-193.359
1692210146.798,-38.574,-34.668,-24.902,-40.039,-168.945
1692210146.802,-54.688,-37.598,-20.020,-56.641,-78.613
1692210146.806,-58.594,-35.156,-18.555,-49.805,-57.129
1692210146.810,-45.410,-39.062,-21.484,-26.855,-101.562
1692210146.814,-29.785,-37.598,-23.926,-19.043,-23.926
1692210146.818,-29.297,-38.086,-19.043,-29.785,369.141
1692210146.821,-39.551,-38.086,-22.949,-52.734,251.953
1692210146.825,-48.340,-29.297,-22.949,-57.617,-201.172
1692210146.829,-41.016,-34.668,-17.578,-35.645,-104.980
1692210146.833,-19.043,-35.645,-21.484,-17.578,-21.484
1692210146.837,-20.996,-38.574,-23.438,-25.391,-114.746
1692210146.852,-38.574,-43.945,-21.484,-49.316,-140.137
1692210146.856,-38.574,-36.133,-12.207,-36.621,-101.562
1692210146.860,32.715,-14.648,50.781,59.082,-92.285
1692210146.864,41.992,-41.016,40.039,71.289,-47.363
1692210146.868,-44.434,-60.059,-42.480,-35.156,-82.520
1692210146.872,-75.195,-33.691,-46.875,-73.242,115.234
1692210146.876,-49.316,-28.320,-10.742,-34.668,465.332
1692210146.879,-45.898,-35.156,-11.230,-34.668,122.559
1692210146.883,-97.656,-47.363,-45.410,-91.309,-202.148
1692210146.887,-99.121,-51.758,-49.805,-104.492,-57.617
1692210146.891,61.523,44.434,11.230,52.246,-27.832
1692210146.895,126.465,108.887,-23.926,127.441,-213.867
1692210146.897,-19.531,-9.277,-98.145,-7.324,-179.688
1692210146.901,-84.961,-86.914,-11.230,-79.590,-77.637
1692210146.905,-23.926,-33.691,45.410,-35.156,-109.375
1692210146.909,34.668,53.223,27.832,30.273,-174.805
1692210146.913,-116.699,-37.598,-56.641,-106.934,-140.625
1692210146.917,-250.977,-106.445,-101.562,-241.699,35.156
1692210146.921,-143.066,-13.672,-21.973,-151.367,57.617
1692210146.924,-94.238,14.648,-13.672,-125.000,-92.285
1692210146.928,-143.066,36.133,-41.992,-185.059,-15.625
1692210146.932,-128.418,51.270,-5.371,-172.363,236.816
1692210146.936,-84.961,-39.551,41.504,-122.559,83.496
1692210146.940,-53.223,-116.699,74.707,-96.191,-119.629
1692210146.942,-26.367,-109.863,137.207,-74.707,49.805
1692210146.946,-11.719,-76.660,189.453,-71.289,122.559
1692210146.950,-7.812,-49.805,216.309,-80.078,-87.891
1692210146.954,2.441,-32.715,254.883,-65.918,-62.988
1692210146.958,14.648,-21.484,296.387,-45.898,195.801
1692210146.962,16.602,-15.625,332.031,-41.016,282.715
1692210146.966,5.859,-244.141,362.793,-65.430,98.633
1692210146.969,-4.883,-524.902,374.512,-84.473,-108.887
1692210146.973,-12.695,-612.305,374.023,-71.777,31.250
1692210146.977,-7.812,-619.141,359.375,-61.035,172.852
1692210146.981,0.977,-560.059,325.684,-69.824,-3.906
1692210146.985,-8.301,-466.309,294.922,-95.215,-58.105
1692210146.989,-29.297,-373.535,272.461,-108.887,-47.363
1692210146.993,-43.945,-316.406,254.883,-103.516,-104.004
1692210146.997,-37.598,-271.484,230.469,-83.496,-195.801
1692210147.001,-32.227,-237.305,199.707,-79.102,-100.586
1692210147.005,-41.992,-212.402,177.734,-104.492,-51.270
1692210147.009,-52.246,-184.082,158.691,-115.723,-64.453
1692210147.013,-54.688,-163.574,144.043,-102.051,-39.551
1692210147.016,-47.363,-156.250,135.742,-74.707,16.602
1692210147.020,-40.039,-142.578,118.164,-60.059,220.703
1692210147.024,-40.039,-124.512,94.238,-67.383,66.895
1692210147.028,-50.293,-170.410,80.078,-86.426,-153.809
1692210147.032,-65.918,-241.699,73.730,-92.773,-83.496
1692210147.033,-55.176,-238.770,72.266,-72.754,-12.207
1692210147.037,-42.480,-221.680,68.359,-61.523,-5.859
1692210147.041,-49.805,-212.402,59.570,-65.918,-147.461
1692210147.045,-66.895,-198.730,54.199,-76.660,42.969
1692210147.049,-64.453,-176.270,47.852,-71.777,152.832
1692210147.053,-42.969,-156.738,42.969,-48.828,-38.086
1692210147.057,-23.438,-143.555,44.434,-29.785,3.418
1692210147.060,-9.277,-136.230,44.922,-22.461,157.227
1692210147.064,-27.832,-140.137,24.414,-38.574,323.730
1692210147.068,-42.969,-140.625,7.324,-56.152,20.508
1692210147.072,-42.969,-135.742,8.301,-37.598,-228.027
1692210147.076,-34.668,-129.395,7.324,-18.555,-136.230
1692210147.079,-25.391,-132.324,1.465,-22.949,-74.707
1692210147.083,-41.016,-123.047,-2.930,-36.621,-183.105
1692210147.087,-43.945,-101.074,4.395,-41.016,-219.727
1692210147.091,-42.969,-106.934,10.742,-28.809,-57.617
1692210147.095,-44.434,-125.488,13.184,-11.719,2.930
1692210147.099,-11.719,-135.742,19.531,15.625,-32.715
1692210147.103,-4.395,-121.582,11.230,11.230,55.664
1692210147.106,-46.875,-103.027,-13.672,-40.039,362.793
1692210147.110,-61.035,-99.609,-26.367,-61.035,191.406
1692210147.114,-33.203,-107.422,-25.391,-32.715,-222.656
1692210147.118,-35.645,-116.211,-27.832,-38.086,-171.387
1692210147.122,-54.199,-114.746,-34.180,-75.684,-115.234
1692210147.122,-67.871,-118.164,-38.086,-85.449,-172.363
1692210147.126,-74.219,-116.699,-42.480,-63.965,-152.832
1692210147.130,-61.523,-106.445,-46.387,-45.898,-63.477
1692210147.134,-58.105,-103.516,-51.758,-57.129,-38.086
1692210147.138,-60.059,-104.980,-49.316,-64.941,-64.941
1692210147.142,-74.219,-105.469,-45.410,-80.078,-36.621
1692210147.146,-74.219,-105.957,-41.504,-62.988,174.316
1692210147.149,-48.828,-104.980,-34.668,-16.602,545.410
1692210147.153,-30.273,-104.980,-37.598,-15.625,303.223
1692210147.157,-37.109,-107.910,-45.410,-34.180,-141.113
1692210147.161,-45.410,-107.910,-50.781,-43.457,-89.355
1692210147.165,-42.480,-109.863,-50.781,-39.062,-100.098
1692210147.169,-29.297,-113.281,-51.758,-17.578,-180.664
1692210147.173,-10.254,-108.887,-47.852,-8.789,-120.117
1692210147.177,-16.113,-108.398,-49.316,-24.414,-28.320
1692210147.181,-39.551,-111.328,-47.852,-40.039,-56.641
1692210147.185,-42.480,-115.723,-43.945,-42.969,-119.141
1692210147.189,-36.133,-112.305,-47.363,-28.320,24.902
1692210147.193,-24.902,-105.469,-45.410,-8.789,356.934
1692210147.196,-19.531,-109.375,-39.551,-18.555,173.828
1692210147.200,-39.062,-111.328,-41.016,-46.875,-167.969
1692210147.204,-52.734,-111.328,-41.504,-49.316,-69.824
1692210147.208,-38.086,-110.352,-38.086,-16.113,109.375
1692210147.212,-22.949,-104.004,-35.156,-2.930,-43.945
1692210147.227,-22.949,-104.004,-28.809,-15.137,-187.988
1692210147.231,-31.250,-107.910,-20.996,-37.598,-134.766
1692210147.235,-32.715,-104.492,-18.066,-43.457,-139.648
1692210147.239,-23.926,-100.098,-21.973,-22.461,-97.168
1692210147.243,-15.625,-99.609,-18.555,-6.348,-25.879
1692210147.247,-14.160,-103.516,-17.578,-13.672,199.219
1692210147.251,-33.203,-104.004,-23.926,-39.551,450.195
1692210147.254,-42.969,-97.656,-22.461,-44.922,32.715
1692210147.258,-26.855,-93.750,-16.602,-26.855,-229.492
1692210147.262,-15.625,-93.262,-12.695,-21.484,-133.301
1692210147.266,-26.367,-95.215,-12.207,-29.297,-120.117
1692210147.270,-32.227,-94.238,-14.648,-41.016,-166.992
1692210147.260,-34.180,-85.449,-15.625,-43.945,-171.875
1692210147.264,-45.898,-79.590,-16.602,-29.297,-53.711
1692210147.268,-28.320,-96.191,-11.719,0.977,-72.266
1692210147.272,8.301,-100.586,-4.883,26.855,-134.766
1692210147.276,-12.695,-74.707,-11.719,-14.648,-51.758
1692210147.280,-62.012,-64.453,-20.020,-62.012,44.922
1692210147.284,-68.359,-72.754,-26.367,-61.523,-4.883
1692210147.287,-42.969,-71.777,-22.949,-31.738,-94.727
1692210147.291,-30.273,-65.918,-18.555,-18.555,-86.914
1692210147.295,-62.500,-62.500,-25.879,-58.594,203.613
1692210147.299,-74.707,-60.059,-29.297,-89.355,84.961
1692210147.303,-61.523,-55.664,-24.902,-73.242,-191.406
1692210147.317,-49.805,-55.176,-23.438,-47.852,-52.246
1692210147.321,-33.691,-53.711,-25.391,-44.434,48.828
1692210147.325,-41.504,-49.805,-20.508,-58.594,-6.348
1692210147.329,-58.594,-51.758,-24.902,-69.336,-84.961
1692210147.333,-57.129,-49.316,-31.250,-60.059,127.930
1692210147.337,-38.574,-55.176,-27.832,-34.668,443.848
1692210147.341,-10.742,-54.199,-25.879,-18.555,170.410
1692210147.344,-21.973,-48.340,-29.297,-34.668,-199.707
1692210147.348,-45.410,-53.711,-31.250,-64.941,-68.359
1692210147.352,-42.480,-55.664,-30.762,-59.082,-46.387
1692210147.356,-30.762,-49.805,-28.809,-29.785,-232.910
1692210147.360,-19.043,-41.992,-30.273,-20.020,-186.035
1692210147.364,-15.625,-40.527,-28.809,-30.762,-88.379
1692210147.368,-26.367,-46.387,-23.438,-42.480,-98.633
1692210147.372,-38.574,-49.316,-23.438,-39.062,-155.273
1692210147.376,-35.156,-47.852,-23.438,-24.414,-81.055
1692210147.380,-25.879,-45.410,-18.066,-13.184,49.316
1692210147.384,-17.578,-39.551,-16.113,-12.695,86.426
1692210147.388,-27.344,-38.086,-23.438,-29.297,31.250
1692210147.391,-41.016,-48.828,-20.996,-35.645,-8.789
1692210147.395,-32.715,-50.781,-20.508,-20.996,104.492
1692210147.399,-18.555,-43.945,-25.391,-1.465,20.508
1692210147.403,-15.137,-43.457,-27.344,-5.859,-116.699
1692210147.407,-21.973,-45.898,-30.762,-21.973,14.648
1692210147.407,-31.250,-49.316,-35.645,-26.367,94.727
1692210147.411,-29.785,-42.969,-40.527,-20.996,-78.613
1692210147.415,-18.066,-31.250,-37.109,-5.371,-120.605
1692210147.419,-21.973,-30.762,-33.691,-10.742,51.270
1692210147.423,-42.969,-33.691,-32.227,-43.457,90.820
1692210147.427,-57.617,-31.250,-37.109,-55.664,37.598
1692210147.431,-41.992,-34.668,-37.598,-35.156,-19.531
1692210147.434,-3.906,-42.480,-12.695,9.766,99.121
1692210147.438,-9.277,-48.340,-11.719,20.508,478.516
1692210147.442,-37.598,-42.969,-38.574,-25.879,232.910
1692210147.446,-35.156,-28.320,-34.180,-41.504,-182.617
1692210147.450,-36.133,-24.414,-21.484,-22.949,-147.949
1692210147.454,-29.785,-31.250,-19.043,-12.695,-160.645
1692210147.458,-21.484,-33.691,-23.438,-17.578,-245.605
1692210147.462,-30.762,-33.203,-20.020,-27.832,-191.406
1692210147.466,-41.992,-33.203,-16.602,-49.316,-103.027
1692210147.470,-46.875,-32.715,-20.996,-39.062,-82.520
1692210147.474,-35.156,-30.273,-23.438,-10.254,-53.711
1692210147.478,-20.020,-27.832,-18.066,-8.789,15.625
1692210147.481,-26.367,-29.297,-20.020,-25.879,220.703
1692210147.485,-37.109,-29.785,-28.809,-38.574,127.930
1692210147.489,-29.297,-30.762,-27.344,-30.273,-131.836
1692210147.493,-20.020,-31.738,-25.879,-6.836,-85.449
1692210147.497,-18.066,-35.156,-20.020,1.953,23.926
1692210147.497,-22.949,-28.809,-3.906,-12.695,-123.047
1692210147.501,-40.039,-15.137,-7.324,-35.645,-150.879
1692210147.505,-48.828,-10.254,-23.438,-34.668,-38.086
1692210147.509,-41.992,-16.113,-25.391,-13.672,-5.371
1692210147.513,-22.949,-17.578,-24.414,4.395,-84.961
1692210147.517,10.254,-17.578,-12.207,27.344,-82.520
1692210147.521,34.668,-16.602,6.348,36.133,222.168
1692210147.524,23.438,-5.859,-0.488,19.531,248.047
1692210147.528,-15.625,-7.324,-20.508,-8.789,-115.723
1692210147.532,-20.508,2.930,-19.531,-12.207,-167.969
1692210147.536,38.574,50.293,38.574,46.387,86.426
1692210147.540,1.953,32.227,5.859,14.160,196.777
1692210147.557,-110.840,-35.156,-91.797,-98.145,-98.145
1692210147.561,-110.840,-33.691,-74.707,-96.191,-179.199
1692210147.565,-73.730,-21.973,-42.969,-59.570,-3.418
1692210147.569,-56.641,-18.555,-33.203,-50.781,-13.184
1692210147.573,-59.570,-14.160,-29.297,-63.965,-125.488
1692210147.577,-67.871,-11.230,-27.344,-69.336,-39.551
1692210147.581,-58.105,-7.324,-22.461,-43.457,165.527
1692210147.584,-34.180,-5.859,-26.855,-20.996,40.527
1692210147.588,-26.855,-7.324,-29.785,-29.297,-215.332
1692210147.592,-33.691,0.977,-18.066,-42.969,-120.117
1692210147.596,-31.738,9.766,-8.789,-43.945,-66.895
1692210147.600,-25.391,14.648,-17.578,-31.250,-139.160
1692210147.588,-11.719,25.391,-7.812,-7.812,-122.559
1692210147.592,-3.418,27.344,-5.371,-7.324,20.020
1692210147.596,-18.555,27.344,-21.484,-31.738,17.578
1692210147.600,-28.320,25.879,-12.695,-40.527,-60.059
1692210147.604,-21.484,16.113,-12.695,-23.926,-61.523
1692210147.608,-27.832,0.488,-24.414,-10.742,102.539
1692210147.612,-31.738,-0.977,-19.531,-15.625,384.277
1692210147.615,-28.320,3.418,-10.742,-33.203,117.188
1692210147.619,-41.016,3.418,-12.695,-44.434,-166.016
1692210147.623,-44.434,1.465,-18.066,-43.457,70.801
1692210147.627,-35.645,3.418,-20.020,-29.785,191.895
1692210147.631,-23.926,6.836,-15.625,-24.902,-124.023
1692210147.636,-26.855,0.488,-19.043,-44.922,-178.711
1692210147.640,-42.480,-1.465,-19.043,-62.500,-125.977
1692210147.644,-44.434,7.812,-14.160,-50.293,-143.066
1692210147.648,-31.250,10.742,-16.113,-24.902,-163.086
1692210147.652,-20.020,7.812,-15.137,-18.555,-42.480
1692210147.656,-24.902,10.742,-12.207,-27.832,293.945
1692210147.660,-44.922,7.812,-12.207,-45.898,146.484
1692210147.663,-44.922,1.953,-11.230,-46.387,-158.203
1692210147.667,-26.367,-0.977,-9.277,-12.695,-13.672
1692210147.671,-21.973,-7.812,-7.324,-0.488,80.078
1692210147.675,-29.785,-10.254,-2.930,-23.438,-97.168
1692210147.679,-41.016,-12.695,-3.906,-37.109,-205.566
1692210147.692,-55.176,-16.113,-8.789,-25.391,-32.715
1692210147.696,-45.410,-13.672,-10.254,-4.883,68.848
1692210147.700,-24.414,-11.230,-6.836,-5.859,-77.148
1692210147.704,-25.879,-11.719,-8.789,-23.926,-62.500
1692210147.708,-38.086,-12.207,-4.883,-33.203,120.605
1692210147.712,-49.316,-19.043,-2.930,-39.062,401.367
1692210147.716,-41.016,-20.996,-7.812,-31.250,260.742
1692210147.719,-19.531,-17.578,-11.719,-10.254,-59.570
1692210147.723,-12.695,-20.996,-8.301,-7.812,61.035
1692210147.727,-25.391,-25.879,-3.906,-28.809,33.203
1692210147.731,-30.762,-25.879,-2.930,-35.645,-230.469
1692210147.735,-24.902,-30.273,-3.418,-17.578,-187.500
1692210147.739,-10.254,-37.109,-5.371,-5.371,-53.711
1692210147.743,-12.207,-33.203,-8.301,-16.602,-55.176
1692210147.747,-37.598,-30.273,-11.719,-34.180,-180.664
1692210147.751,-46.387,-35.156,-11.719,-37.109,-171.875
1692210147.755,-46.387,-33.691,-12.207,-20.508,-79.590
1692210147.759,-33.691,-30.273,-12.207,-1.465,3.418
1692210147.763,-26.855,-30.273,-14.160,-11.719,-1.465
1692210147.766,-44.434,-33.203,-17.090,-36.133,-75.684
1692210147.770,-54.199,-44.434,-19.043,-44.434,160.156
1692210147.774,-52.246,-43.457,-21.484,-32.715,187.012
1692210147.778,-33.203,-37.598,-23.438,-12.695,-103.027
1692210147.782,-22.949,-41.504,-24.902,-13.184,-14.160
1692210147.782,-41.016,-41.016,-24.902,-35.156,63.965
1692210147.786,-55.176,-41.992,-20.508,-48.828,-111.816
1692210147.790,-49.805,-44.922,-21.973,-30.273,-104.492
1692210147.794,-35.156,-41.992,-24.414,-7.324,62.012
1692210147.798,-27.832,-37.109,-21.973,-4.883,112.305
1692210147.802,-32.715,-36.133,-21.484,-20.996,48.340
1692210147.806,-38.086,-41.016,-21.973,-35.156,23.438
1692210147.809,-45.898,-45.898,-20.020,-27.832,49.316
1692210147.813,-37.109,-48.340,-20.508,-12.207,296.875
1692210147.817,-24.414,-45.898,-23.926,-11.719,109.863
1692210147.821,-33.691,-43.945,-25.391,-27.344,-158.203
1692210147.825,-46.387,-43.945,-24.414,-47.363,-60.547
1692210147.829,-50.781,-45.410,-25.391,-54.688,-34.180
1692210147.833,-40.527,-48.340,-30.762,-42.480,-135.254
1692210147.837,-29.785,-45.410,-27.832,-35.645,-134.766
1692210147.841,-34.180,-40.527,-22.461,-49.316,-19.043
1692210147.845,-47.852,-44.434,-26.367,-69.824,-96.191
1692210147.849,-59.570,-45.898,-28.809,-67.383,-136.230
1692210147.853,-51.270,-51.270,-28.809,-42.480,17.090
1692210147.856,-34.180,-57.129,-29.297,-19.531,249.512
1692210147.860,-36.621,-46.875,-27.344,-28.320,95.703
1692210147.864,-50.293,-43.457,-27.344,-60.547,-194.336
1692210147.868,-61.523,-49.805,-24.414,-62.012,-124.512
1692210147.872,-55.176,-43.457,-21.484,-33.691,-99.121
1692210147.873,-39.551,-41.504,-27.344,-22.461,-130.859
1692210147.877,-38.574,-49.316,-30.762,-41.016,-145.020
1692210147.881,-56.152,-50.293,-35.645,-54.199,61.035
1692210147.885,-63.965,-46.875,-35.645,-53.223,131.348
1692210147.889,-45.410,-45.410,-31.250,-38.086,-56.641
1692210147.893,-22.949,-52.734,-29.785,-21.973,-11.719
1692210147.897,-21.484,-60.059,-32.715,-17.578,217.285
1692210147.900,-35.645,-51.758,-36.133,-24.902,406.738
1692210147.904,-34.668,-41.992,-27.344,-26.367,82.520
1692210147.908,-30.273,-50.293,-24.414,-14.160,-183.105
1692210147.912,-21.484,-53.223,-31.738,-7.812,-109.863
1692210147.916,-15.137,-43.945,-29.785,-15.625,-114.258
1692210147.932,-32.227,-45.898,-26.367,-38.086,-184.082
1692210147.936,-46.875,-50.781,-30.762,-54.199,-181.152
1692210147.940,-39.551,-44.922,-25.879,-39.551,-147.461
1692210147.944,-14.160,-28.809,-2.441,-7.812,-159.180
1692210147.948,2.930,6.348,23.438,4.883,-50.781
1692210147.952,-10.742,9.277,1.465,-20.020,70.312
1692210147.956,-19.043,-41.992,-31.738,-28.809,323.242
1692210147.959,-6.836,-56.641,-19.043,0.977,227.539
1692210147.963,-10.742,-1.465,5.859,0.000,-155.273
1692210147.967,-25.391,8.789,11.230,-11.230,-57.617
1692210147.971,-40.039,-20.020,38.086,-24.414,-30.273
1692210147.975,-75.195,-44.434,9.277,-71.289,-199.707
1692210147.962,-112.305,-135.254,-101.562,-100.586,-205.566
1692210147.966,-105.469,-138.184,-104.980,-84.961,-64.453
1692210147.970,-99.121,-86.914,-34.180,-89.844,-24.414
1692210147.974,-109.863,-142.578,-14.648,-120.605,-40.039
1692210147.978,-116.699,-189.453,-34.668,-135.254,-66.895
1692210147.982,-160.645,-187.500,-146.973,-160.645,103.516
1692210147.986,-162.598,-185.547,-321.289,-155.762,234.375
1692210147.989,-130.371,-201.172,-440.430,-133.789,14.160
1692210147.993,-160.156,-183.105,-645.020,-167.969,-147.949
1692210147.997,-183.105,-204.590,-886.230,-188.477,27.832
1692210148.001,-202.148,-277.832,-870.117,-190.430,305.176
1692210148.005,-214.355,-239.746,-766.113,-196.289,33.203
1692210148.022,-190.430,-265.625,-675.781,-188.477,-121.582
1692210148.026,-200.684,-311.035,-572.266,-214.844,-42.480
1692210148.030,-209.473,-263.184,-578.125,-234.863,-58.105
1692210148.034,-206.055,-179.688,-720.215,-229.004,-132.812
1692210148.038,-206.055,-27.832,-920.410,-212.402,-115.723
1692210148.042,-200.684,35.156,-1000.000,-202.148,126.465
1692210148.046,-195.801,15.137,-995.605,-217.773,123.535
1692210148.049,-201.172,146.484,-1000.000,-231.934,-48.340
1692210148.053,-210.449,425.781,-1000.000,-221.680,-29.785
1692210148.057,-198.730,752.441,-1000.000,-189.941,113.770
1692210148.061,-180.664,962.402,-1000.000,-172.852,8.301
1692210148.065,-165.527,964.355,-1000.000,-165.039,-178.223
1692210148.067,-164.551,963.379,-1000.000,-166.504,-50.781
1692210148.071,-168.945,969.238,-1000.000,-173.340,118.164
1692210148.075,-151.855,967.773,-1000.000,-146.973,-83.496
1692210148.079,-129.395,967.773,-1000.000,-121.582,-132.812
1692210148.083,-109.375,967.773,-1000.000,-105.957,98.145
1692210148.087,-101.562,967.773,-1000.000,-106.934,151.855
1692210148.091,-90.820,967.773,-1000.000,-117.188,-5.371
1692210148.094,-84.473,967.773,-1000.000,-104.980,-163.574
1692210148.098,-76.660,967.773,-1000.000,-74.219,73.730
1692210148.102,-49.316,967.285,-1000.000,-52.734,220.703
1692210148.106,-45.898,967.285,-1000.000,-71.777,-159.668
1692210148.110,-50.781,967.285,-1000.000,-80.078,-237.793
1692210148.112,-49.316,967.773,-1000.000,-57.129,-82.031
1692210148.116,-32.227,967.285,-1000.000,-29.297,-101.562
1692210148.120,-6.348,967.773,-1000.000,-17.578,-205.566
1692210148.124,-5.859,967.773,-1000.000,-30.762,-167.969
1692210148.128,-17.090,967.773,-1000.000,-28.809,-60.547
1692210148.132,-21.484,967.773,-1000.000,-13.672,-56.641
1692210148.136,-20.020,967.773,-1000.000,-10.742,-38.574
1692210148.139,-1.953,967.773,-1000.000,2.441,48.828
1692210148.143,-1.953,967.773,-1000.000,3.906,215.332
1692210148.147,-11.719,967.773,-1000.000,-7.324,68.848
1692210148.151,-16.113,968.262,-1000.000,-5.371,-212.402
1692210148.155,-10.742,967.773,-1000.000,13.672,-98.633
1692210148.188,0.000,967.773,-1000.000,21.973,26.855
1692210148.192,-0.488,968.262,-1000.000,6.836,-96.680
1692210148.196,-15.137,967.773,-1000.000,-12.695,-173.340
1692210148.200,-21.973,967.773,-1000.000,-8.789,83.984
1692210148.204,-10.742,967.773,-1000.000,13.672,206.055
1692210148.208,-9.766,967.773,-1000.000,14.160,-41.504
1692210148.212,-12.207,967.773,-1000.000,-4.883,-129.395
1692210148.215,-24.414,968.262,-1000.000,-21.484,82.520
1692210148.219,-31.738,965.820,-1000.000,-14.648,263.184
1692210148.223,-21.973,970.703,-1000.000,-0.488,-19.531
1692210148.227,-8.789,951.172,-1000.000,10.254,-111.328
1692210148.231,-2.930,897.461,-1000.000,3.906,-58.594
1692210148.202,-13.672,865.723,-1000.000,-16.113,-90.820
1692210148.206,-22.461,840.820,-1000.000,-24.414,-162.109
1692210148.210,-19.043,793.457,-1000.000,-10.254,-102.539
1692210148.214,-2.930,725.586,-1000.000,5.371,-31.738
1692210148.218,-1.953,658.691,-1000.000,-4.883,-71.777
1692210148.222,-27.832,621.582,-1000.000,-20.508,-101.562
1692210148.226,-38.574,586.426,-1000.000,-26.367,-17.090
1692210148.229,-42.480,560.059,-998.535,-13.184,98.145
1692210148.233,-42.480,537.109,-1000.000,4.395,29.297
1692210148.237,-33.691,477.539,-982.910,0.488,-103.516
1692210148.241,-47.363,434.570,-908.203,-20.996,8.789
1692210148.245,-64.453,421.387,-831.055,-36.133,133.301
1692210148.247,-53.711,436.035,-777.832,-17.578,-60.547
1692210148.251,-28.320,445.801,-725.586,2.441,-114.258
1692210148.255,-23.926,418.457,-671.875,-2.930,47.852
1692210148.259,-30.273,404.297,-646.484,-11.230,473.633
1692210148.263,-38.086,394.531,-616.699,-28.320,359.863
1692210148.267,-29.297,413.086,-552.246,-20.996,-106.445
1692210148.271,-19.043,419.434,-550.781,2.930,139.160
1692210148.274,-14.648,380.859,-639.160,3.906,351.074
1692210148.278,-8.789,382.324,-710.938,-9.277,-63.965
1692210148.282,-25.879,391.113,-737.793,-22.461,-258.789
1692210148.286,-28.809,401.367,-738.281,-7.324,-93.750
1692210148.290,-10.254,418.945,-692.871,15.137,-91.309
1692210148.294,-7.324,416.504,-644.531,9.766,-170.410
1692210148.298,-15.137,407.715,-601.562,-10.742,-126.953
1692210148.302,-23.438,415.039,-529.297,-20.996,-98.633
1692210148.306,-29.785,413.086,-447.266,-14.160,-135.742
1692210148.310,-22.949,408.203,-385.254,-0.488,-162.109
1692210148.314,-13.672,376.953,-345.703,10.742,34.668
1692210148.318,-21.484,329.102,-318.359,0.000,372.070
1692210148.321,-38.574,316.895,-287.109,-25.879,150.879
1692210148.325,-48.340,304.688,-249.023,-31.738,-222.656
1692210148.329,-37.598,281.738,-225.586,-0.977,-72.754
1692210148.333,-17.578,267.578,-204.102,18.066,71.289
1692210148.337,-7.324,261.719,-129.883,0.000,-104.980
1692210148.352,-17.578,277.832,-57.129,-20.996,-183.105
1692210148.356,-31.250,301.270,-9.277,-16.113,-3.906
1692210148.360,-19.531,307.129,82.520,7.324,74.219
1692210148.364,-0.977,291.016,222.168,6.836,-27.344
1692210148.368,-6.836,281.738,346.680,-12.207,-88.379
1692210148.372,-23.926,254.395,395.020,-23.926,67.383
1692210148.376,-34.180,211.426,398.438,-23.926,406.738
1692210148.379,-23.926,191.406,402.832,-10.742,129.395
1692210148.383,-11.230,148.926,439.941,0.000,-139.648
1692210148.387,-7.324,119.629,499.512,-8.789,-84.473
1692210148.391,-20.508,119.629,552.246,-31.250,-124.023
1692210148.395,-37.598,122.070,599.609,-39.551,-236.328
1692210148.385,-41.016,122.559,638.672,-24.414,-126.953
1692210148.389,-27.832,117.676,647.949,-6.348,80.566
1692210148.393,-10.254,109.375,635.254,-10.742,-59.570
1692210148.397,-24.414,106.445,612.793,-35.645,-173.828
1692210148.401,-50.293,112.305,584.473,-39.551,-83.496
1692210148.405,-44.434,125.000,569.336,-17.090,33.203
1692210148.409,-26.855,167.480,565.918,-6.836,49.316
1692210148.412,-22.461,184.082,532.715,-16.602,-85.938
1692210148.416,-24.902,151.855,557.617,-30.273,-67.383
1692210148.420,-32.715,126.953,701.172,-37.109,204.102
1692210148.424,-30.762,109.863,779.785,-30.273,118.652
1692210148.428,-9.766,88.379,761.230,-6.836,-78.125
1692210148.442,-6.348,59.082,740.723,1.953,-36.621
1692210148.446,-17.090,44.922,748.535,-17.090,-41.992
1692210148.450,-22.949,66.406,773.438,-25.879,-63.477
1692210148.454,-29.297,68.848,754.883,-20.020,-59.082
1692210148.458,-23.438,32.227,734.375,-2.930,125.000
1692210148.462,-20.020,-27.832,871.094,0.000,361.816
1692210148.466,-25.879,-57.129,978.516,-20.996,122.070
1692210148.469,-32.227,-57.617,962.891,-32.715,-191.406
1692210148.473,-41.016,-81.055,966.797,-22.949,-6.836
1692210148.477,-28.320,-96.191,968.262,-0.488,140.625
1692210148.481,-10.254,-88.379,967.773,3.418,-90.332
1692210148.485,-20.996,-103.027,967.773,-22.949,-120.117
1692210148.502,-41.504,-120.605,967.285,-49.805,-98.633
1692210148.506,-47.363,-114.258,967.285,-49.316,-154.297
1692210148.510,-26.855,-110.352,967.285,-21.484,-201.660
1692210148.514,-12.695,-141.602,967.773,-7.812,-124.512
1692210148.518,-20.996,-204.590,965.332,-27.832,-26.367
1692210148.522,-31.250,-230.469,969.727,-42.480,-33.203
1692210148.526,-34.668,-230.469,952.637,-33.203,-9.277
1692210148.529,-20.996,-250.488,872.559,-21.484,23.926
1692210148.533,-14.160,-278.320,785.645,-9.766,308.594
1692210148.537,-21.973,-295.410,727.051,-19.531,225.098
1692210148.541,-31.250,-270.996,670.410,-46.875,-165.527
1692210148.545,-36.133,-231.445,598.145,-45.410,-115.234
1692210148.532,-27.344,-209.473,527.832,-17.578,-55.176
1692210148.536,-15.137,-195.801,460.938,-5.371,-103.027
1692210148.540,-12.695,-174.805,414.551,-8.789,-105.957
1692210148.544,-35.645,-163.574,401.855,-20.996,92.773
1692210148.548,-55.664,-168.457,392.090,-30.273,125.000
1692210148.552,-46.387,-179.199,380.859,-17.090,-7.812
1692210148.556,-30.273,-169.922,367.676,-4.395,-72.754
1692210148.559,-36.133,-141.602,338.867,-19.531,-29.785
1692210148.563,-44.922,-124.023,308.594,-44.434,81.543
1692210148.567,-42.480,-121.582,291.504,-53.223,-86.426
1692210148.571,-28.809,-123.535,270.996,-36.133,-214.355
1692210148.575,-14.648,-122.070,246.094,-9.277,65.430
1692210148.595,-21.484,-109.863,242.676,-8.301,343.750
1692210148.599,-24.414,-94.727,242.188,-27.832,-2.930
1692210148.603,-22.949,-131.836,232.910,-38.574,-202.148
1692210148.607,-24.902,-152.344,239.258,-23.438,-101.074
1692210148.611,-14.648,-126.465,244.629,-12.207,-80.566
1692210148.615,-12.695,-120.605,247.559,-16.602,-67.383
1692210148.619,-39.062,-131.836,254.883,-36.621,-77.148
1692210148.622,-61.523,-123.535,256.836,-47.852,149.414
1692210148.626,-44.434,-107.422,244.629,-27.344,97.656
1692210148.630,-21.484,-83.984,230.469,-2.930,-184.082
1692210148.634,-13.672,-73.730,236.816,9.277,-34.668
1692210148.638,-7.812,-97.656,245.605,3.418,13.672
1692210148.622,-11.719,-104.492,258.789,-11.719,-153.809
1692210148.626,-7.812,-115.723,284.180,1.465,-157.715
1692210148.630,-9.277,-151.855,275.879,16.113,3.418
1692210148.634,33.203,-142.090,292.480,58.105,128.418
1692210148.638,151.855,-122.559,357.910,170.410,-37.598
1692210148.642,214.355,-120.605,357.910,241.699,-41.016
1692210148.646,59.082,-178.223,295.898,96.191,86.426
1692210148.649,-124.512,-258.301,216.797,-94.727,-13.184
1692210148.653,20.996,-290.527,297.363,38.086,-97.656
1692210148.657,266.113,-186.523,537.109,264.648,-102.539
1692210148.661,295.410,-84.473,821.777,297.852,64.453
1692210148.665,138.672,-140.137,977.051,162.109,443.359
1692210148.670,89.844,-260.742,960.449,105.469,258.789
1692210148.674,215.332,-156.738,966.309,218.750,-19.043
1692210148.678,15.137,43.457,968.262,-22.949,-11.719
1692210148.682,-280.273,53.223,967.773,-348.633,-134.766
1692210148.686,-284.668,193.848,967.773,-350.586,-250.488
1692210148.690,-110.352,487.793,967.773,-190.430,-130.859
1692210148.694,170.898,837.402,967.773,81.543,162.598
1692210148.697,201.172,979.980,967.773,97.168,29.785
1692210148.701,167.480,957.520,967.773,40.527,-268.555
1692210148.705,210.449,967.773,967.773,102.539,-146.973
1692210148.709,60.059,967.773,967.773,-34.668,-78.125
1692210148.713,-7.812,967.773,967.773,-102.051,-137.207
1692210148.712,-117.676,967.773,967.285,-203.613,-96.191
1692210148.716,-38.574,967.773,967.773,-131.836,-56.641
1692210148.720,114.258,967.773,967.773,7.324,-101.562
1692210148.724,94.727,967.773,967.773,-12.695,-75.195
1692210148.728,421.875,967.773,967.773,357.910,54.688
1692210148.732,337.891,967.773,967.773,263.672,186.035
1692210148.736,-113.281,967.285,967.773,-263.672,506.836
1692210148.739,-102.051,967.773,968.262,-265.625,291.992
1692210148.743,-205.078,967.773,966.309,-341.309,-197.266
1692210148.747,-339.844,967.773,961.914,-464.355,-171.387
1692210148.751,-255.859,967.285,976.074,-382.812,-102.051
1692210148.755,-167.969,967.773,841.309,-295.898,-143.066
1692210148.772,-143.555,967.773,621.582,-265.137,-120.605
1692210148.776,-125.000,967.773,512.695,-225.586,-26.855
1692210148.780,-104.004,967.773,340.332,-201.172,-18.066
1692210148.784,-74.707,967.773,166.016,-189.453,-59.082
1692210148.788,-55.664,967.285,13.184,-179.688,-15.137
1692210148.792,-60.547,967.285,-179.199,-198.242,47.363
1692210148.796,-74.219,967.773,-266.113,-215.332,-6.348
1692210148.799,-122.559,967.773,-297.852,-258.789,-13.672
1692210148.803,-119.141,967.773,-310.547,-255.371,-11.719
1692210148.807,-78.125,967.773,-296.875,-223.633,220.703
1692210148.811,-95.215,967.773,-325.684,-245.117,132.324
1692210148.815,-97.168,967.773,-355.957,-225.586,-181.641
1692210148.817,-75.195,967.773,-360.352,-177.246,-71.289
1692210148.821,-45.898,967.773,-367.188,-136.230,-18.066
1692210148.825,-51.758,967.773,-388.184,-140.137,-83.984
1692210148.829,-91.797,967.773,-419.922,-187.500,-83.008
1692210148.833,-104.980,967.773,-425.781,-197.266,116.211
1692210148.837,-103.027,967.773,-409.180,-189.453,220.703
1692210148.841,-51.270,967.773,-396.484,-151.855,83.496
1692210148.844,-19.043,967.773,-367.676,-125.488,-114.258
1692210148.848,-30.273,967.285,-307.617,-120.117,50.781
1692210148.852,-106.934,967.285,-314.941,-181.641,326.660
1692210148.856,-163.086,967.773,-389.160,-240.723,-8.301
1692210148.860,-47.852,967.773,-368.164,-110.352,-180.664
1692210148.877,59.082,967.773,-279.297,-13.184,-104.004
1692210148.881,-21.484,967.773,-311.035,-118.164,-98.145
1692210148.885,-90.332,967.773,-335.938,-182.129,-162.109
1692210148.889,-78.613,967.285,-287.598,-169.922,-117.676
1692210148.893,-108.398,966.309,-279.297,-206.543,-24.414
1692210148.897,-120.605,967.285,-265.137,-227.051,-48.828
1692210148.901,-95.703,930.176,-230.957,-217.285,-84.473
1692210148.904,-89.355,849.121,-221.191,-210.449,-58.105
1692210148.908,-17.578,836.426,-142.090,-105.957,166.504
1692210148.912,18.555,789.062,-121.094,-63.477,89.355
1692210148.916,-42.480,689.941,-151.367,-152.344,-98.145
1692210148.920,-38.574,684.082,-132.324,-169.434,59.570
1692210148.907,-41.504,638.184,-157.227,-174.316,65.918
1692210148.911,-53.711,562.500,-124.023,-165.527,-96.191
1692210148.915,28.320,577.148,-74.219,-77.148,-113.281
1692210148.919,48.340,552.246,-75.684,-56.641,20.020
1692210148.923,-49.805,443.848,-90.820,-151.855,71.777
1692210148.927,-90.820,423.828,-79.102,-194.336,24.902
1692210148.931,-89.844,426.270,-78.125,-183.105,-11.230
1692210148.934,-56.152,429.199,-103.027,-135.254,32.715
1692210148.938,49.316,385.254,-60.547,-40.039,16.602
1692210148.942,68.848,326.660,11.230,-30.273,-132.812
1692210148.946,2.930,292.480,-58.594,-80.566,-163.086
1692210148.950,-2.930,309.082,-65.918,-87.402,125.977
1692210148.955,-79.590,335.449,-44.434,-177.246,220.215
1692210148.959,-158.203,245.605,-74.707,-271.973,-11.230
1692210148.963,-166.016,190.918,-96.191,-295.410,-82.031
1692210148.967,-142.090,233.398,-87.402,-271.973,-103.516
1692210148.971,-118.164,266.113,-55.176,-240.234,-70.312
1692210148.975,-51.270,282.715,-62.988,-167.480,-65.918
1692210148.979,-0.977,318.848,-53.223,-113.770,16.602
1692210148.982,-33.691,298.340,-17.090,-151.367,244.629
1692210148.986,-72.266,276.855,-2.441,-192.383,93.750
1692210148.990,-114.258,237.305,-31.250,-224.121,-202.637
1692210148.994,-70.312,227.539,-0.488,-166.992,-124.023
1692210148.998,-60.547,233.887,-8.301,-152.832,-25.879
1692210148.997,-53.223,236.328,-1.465,-144.531,-87.891
1692210149.001,-45.410,263.184,34.180,-127.930,-159.180
1692210149.005,-73.730,274.414,-12.207,-142.090,-80.078
1692210149.009,-73.242,259.277,-19.531,-125.977,10.742
1692210149.013,-108.398,191.895,-22.949,-166.016,-41.016
1692210149.017,-119.629,164.062,-21.484,-182.129,-33.203
1692210149.021,-104.980,172.852,-20.508,-165.039,159.668
1692210149.024,-79.102,189.941,25.879,-127.930,504.883
1692210149.028,-91.309,186.523,9.766,-127.930,262.207
1692210149.032,-91.309,176.270,-28.809,-134.766,-181.152
1692210149.036,-102.051,169.922,-20.996,-151.855,-176.758
1692210149.040,-122.070,185.059,-34.180,-182.617,-200.195
1692210149.044,-88.867,186.035,-19.043,-155.762,-257.324
1692210149.048,-87.891,155.762,-23.438,-117.676,-214.844
1692210149.052,-65.918,182.129,-10.254,-79.102,-72.266
1692210149.056,-63.965,168.457,0.000,-102.539,-69.336
1692210149.060,-122.070,104.980,-37.109,-175.781,-123.047
1692210149.064,-151.855,103.027,-35.156,-188.477,-54.688
1692210149.068,-78.125,176.270,12.207,-89.355,228.516
1692210149.071,-66.406,157.227,-10.742,-81.055,194.336
1692210149.075,-126.953,98.633,-55.664,-157.715,-105.957
1692210149.079,-117.676,114.258,-44.922,-156.250,-77.148
1692210149.083,-125.000,104.004,-43.945,-159.668,-34.668
1692210149.087,-97.168,115.723,-33.203,-128.906,-130.371
1692210149.102,-35.645,129.883,-5.371,-68.359,-165.039
1692210149.106,-9.277,146.973,21.484,-42.969,3.418
1692210149.110,-88.867,110.352,-0.977,-120.117,103.516
1692210149.114,-169.434,45.410,-50.781,-193.359,-112.305
1692210149.118,-92.773,74.707,-25.391,-110.352,-139.648
1692210149.122,-53.223,93.750,-14.648,-59.570,182.617
1692210149.126,-96.191,57.129,-32.227,-99.609,572.266
1692210149.129,-99.609,37.109,-16.602,-124.023,173.340
1692210149.133,-84.473,77.148,-8.789,-113.770,-167.480
1692210149.137,-28.320,134.277,39.551,-44.434,24.902
1692210149.141,-41.992,75.195,22.461,-57.617,4.883
1692210149.145,-110.840,39.062,-41.504,-142.578,-130.859
1692210149.134,-98.633,197.266,-20.996,-129.883,-125.488
1692210149.138,-84.473,291.992,11.719,-102.539,-105.469
1692210149.142,-96.191,310.059,2.441,-109.375,-148.438
1692210149.146,-100.098,314.941,-17.090,-106.445,-150.879
1692210149.150,-84.961,291.992,-27.344,-84.473,-76.172
1692210149.154,-68.359,268.555,-33.203,-72.266,66.406
1692210149.158,-14.648,300.781,20.020,-31.250,51.758
1692210149.161,-29.785,309.570,13.672,-51.270,-139.160
1692210149.165,-82.520,298.828,-32.227,-102.051,-97.656
1692210149.169,-79.590,287.598,-17.578,-83.984,228.027
1692210149.173,-108.887,243.652,-26.367,-117.188,107.422
1692210149.177,-123.535,248.047,-28.320,-153.320,-167.969
1692210149.192,-77.148,302.246,-7.324,-106.445,-52.734
1692210149.196,-62.988,290.527,-23.438,-85.938,-12.207
1692210149.200,-119.629,208.008,-73.730,-144.043,-125.000
1692210149.204,-122.070,212.891,-58.105,-153.809,-141.113
1692210149.208,-105.469,213.379,-16.602,-135.742,24.414
1692210149.212,-98.633,171.387,-12.207,-114.258,240.723
1692210149.216,0.488,218.262,72.754,-19.043,52.246
1692210149.219,-14.648,211.426,63.477,-47.363,-163.574
1692210149.223,-143.066,136.230,-36.621,-157.715,74.219
1692210149.227,-152.832,155.762,-30.762,-156.738,196.289
1692210149.231,-140.625,164.062,-17.090,-158.203,-142.090
1692210149.235,-121.094,157.227,23.438,-133.301,-157.227
1692210149.239,-98.633,145.508,23.926,-103.516,-64.941
1692210149.243,-52.246,159.668,42.969,-70.801,-35.645
1692210149.247,-3.906,168.457,91.309,-36.133,-34.180
1692210149.251,-81.543,96.680,25.879,-110.352,-115.234
1692210149.255,-136.719,75.684,-16.602,-147.461,-11.719
1692210149.259,-83.008,95.215,31.738,-80.566,75.195
1692210149.263,-48.340,96.191,59.082,-65.918,-36.133
1692210149.266,-64.453,100.098,42.480,-103.027,-52.734
1692210149.270,-84.961,89.844,27.344,-108.887,170.410
1692210149.274,-86.426,96.191,12.695,-108.398,69.336
1692210149.278,-27.344,140.625,46.875,-55.664,-139.648
1692210149.282,-8.301,131.836,41.016,-41.016,-16.113
1692210149.282,-8.301,115.234,16.113,-55.664,-6.348
1692210149.286,-46.875,86.426,22.461,-97.656,-142.090
1692210149.290,-126.465,28.809,-16.113,-172.363,-189.941
1692210149.294,-92.285,27.832,11.719,-132.812,24.902
1692210149.298,-4.395,58.105,78.125,-40.527,195.312
1692210149.302,-12.207,57.617,53.711,-56.641,24.902
1692210149.306,-98.145,12.207,-30.273,-155.762,-83.984
1692210149.309,-90.820,11.719,-2.930,-136.230,171.875
1692210149.313,-32.715,56.641,69.824,-58.105,480.469
1692210149.317,-41.992,52.734,40.039,-76.172,181.641
1692210149.321,-67.383,24.902,8.789,-120.605,-167.480
1692210149.325,-64.453,47.363,34.180,-113.281,-155.273
1692210149.329,-78.613,49.805,12.695,-118.652,-195.312
1692210149.333,-62.012,44.922,-0.977,-96.191,-199.707
1692210149.337,-28.809,51.270,13.672,-66.406,-119.141
1692210149.341,-38.086,31.250,22.461,-74.707,-67.871
1692210149.345,-72.266,12.207,25.879,-103.516,-88.379
1692210149.349,-66.406,18.555,18.066,-88.867,-93.750
1692210149.353,0.488,61.035,50.781,-2.930,-60.059
1692210149.356,-9.766,56.641,46.875,0.977,332.031
1692210149.360,-53.711,35.156,36.133,-48.828,355.469
1692210149.364,-28.809,56.641,56.152,-36.133,-150.879
1692210149.368,-37.598,44.434,36.133,-51.758,-166.992
1692210149.372,-48.828,28.320,56.152,-62.988,-81.055
1692210149.372,26.855,62.012,98.145,17.090,-73.730
1692210149.376,33.691,61.523,83.008,14.648,-64.453
1692210149.380,-40.527,-5.371,33.203,-70.312,-76.172
1692210149.384,-69.824,-15.137,-0.977,-84.961,-27.344
1692210149.388,-75.684,12.207,35.645,-89.844,-12.207
1692210149.392,-71.289,6.836,66.895,-84.473,22.949
1692210149.396,-72.754,-14.648,42.969,-73.730,140.137
1692210149.399,-76.172,0.000,30.762,-81.543,346.680
1692210149.403,-47.363,20.996,72.754,-66.406,99.609
1692210149.407,-25.391,19.531,65.918,-52.734,-177.246
1692210149.411,-43.945,-9.277,17.578,-78.613,-21.484
1692210149.415,8.301,-2.441,63.477,-31.250,-30.762
1692210149.419,17.578,18.555,85.449,-14.160,-190.918
1692210149.423,-102.539,-22.461,9.766,-114.258,-179.199
1692210149.427,-124.512,-17.090,15.137,-131.348,-114.258
1692210149.431,-65.430,15.137,44.922,-83.496,-118.652
1692210149.435,-27.832,3.418,45.410,-55.664,-147.461
1692210149.439,-22.949,22.949,46.875,-52.246,-72.266
1692210149.443,0.000,101.074,87.891,-13.184,257.324
1692210149.446,-16.602,65.430,87.402,-18.066,156.250
1692210149.450,-64.453,-14.648,57.617,-77.637,-175.293
1692210149.454,-81.543,7.812,54.199,-107.422,-84.961
1692210149.458,-106.445,20.020,43.457,-136.230,-34.180
1692210149.462,-97.656,20.996,56.152,-127.441,-110.840
1692210149.463,-78.613,10.742,59.570,-102.539,-122.559
1692210149.467,-42.480,24.902,74.707,-44.434,-0.488
1692210149.471,-29.297,28.320,83.496,-26.367,87.402
1692210149.475,-52.246,10.254,73.730,-60.059,-58.105
1692210149.479,-68.848,7.324,63.477,-79.102,-93.262
1692210149.483,-71.777,-17.090,47.363,-85.938,89.844
1692210149.487,-62.988,-32.227,26.855,-70.801,467.285
1692210149.490,-42.480,-4.883,26.855,-51.758,205.566
1692210149.494,-45.410,-11.230,30.273,-61.523,-158.691
1692210149.498,-65.430,-26.367,27.344,-88.867,-105.957
1692210149.502,-35.156,2.441,55.176,-61.035,-155.273
1692210149.506,-34.180,-17.578,51.270,-50.781,-183.105
1692210149.522,-47.852,-44.434,34.180,-61.035,-154.297
1692210149.526,-60.059,-48.340,11.719,-79.102,-121.582
1692210149.530,-67.871,-32.715,2.441,-105.469,-71.777
1692210149.534,-54.688,-17.578,36.621,-85.449,-97.168
1692210149.538,-40.527,-28.320,48.828,-55.664,-118.652
1692210149.542,-22.949,-32.227,32.227,-33.691,159.668
1692210149.546,-5.859,-35.645,53.223,-18.555,201.660
1692210149.549,-19.043,-53.223,41.016,-41.016,-90.820
1692210149.553,-61.035,-66.406,-4.883,-71.777,-110.840
1692210149.557,-42.969,-39.551,40.039,-43.457,44.922
1692210149.561,42.969,-0.488,67.383,20.508,-51.270
1692210149.565,36.621,-23.926,35.156,11.719,-155.762
1692210149.567,-33.691,-51.758,46.387,-63.477,-85.449
1692210149.571,-58.105,-47.852,54.199,-95.703,-43.457
1692210149.575,-81.543,-47.363,27.344,-89.355,-59.570
1692210149.579,-71.777,-40.039,12.207,-59.570,-24.414
1692210149.583,-41.016,-32.227,12.207,-57.617,191.895
1692210149.587,-35.156,-32.227,1.953,-66.895,303.711
1692210149.591,-43.457,-40.527,2.441,-67.383,125.488
1692210149.594,-28.320,-36.133,28.320,-56.641,-45.410
1692210149.598,28.320,4.883,82.031,5.859,92.773
1692210149.602,-3.906,-20.020,60.547,-22.949,232.910
1692210149.606,-73.242,-63.965,-38.574,-95.703,-119.629
1692210149.610,-8.301,-7.812,-12.695,-43.945,-215.332
1692210149.613,7.812,-14.160,52.246,-19.531,-69.336
1692210149.617,-18.555,-43.945,53.711,-31.738,-81.055
1692210149.621,-37.598,-57.617,12.695,-65.430,-136.230
1692210149.625,-39.062,-41.016,11.230,-67.871,-125.488
1692210149.629,-23.438,-17.578,29.297,-39.062,-108.887
1692210149.633,1.465,3.906,26.367,1.465,-20.020
1692210149.637,-16.113,17.578,35.156,-12.695,19.043
1692210149.640,-87.402,-37.598,8.301,-91.797,1.953
1692210149.644,-98.633,-45.410,15.137,-105.957,221.191
1692210149.648,-82.520,-31.738,28.809,-98.145,115.723
1692210149.652,-55.176,-13.184,29.785,-73.242,-179.199
1692210149.656,-28.320,-7.812,30.762,-33.691,-49.316
1692210149.657,-19.043,-8.301,37.598,-12.695,146.484
1692210149.661,-20.508,-1.465,20.996,-32.715,-35.645
1692210149.665,-51.270,-17.090,5.371,-65.430,-207.031
1692210149.669,-64.453,-18.555,21.484,-59.082,-47.852
1692210149.673,2.930,29.785,60.547,4.395,25.879
1692210149.677,15.625,27.832,42.480,8.301,5.371
1692210149.681,-31.738,-20.020,-5.371,-54.688,-21.484
1692210149.684,-55.176,-8.789,17.090,-68.848,97.168
1692210149.688,-68.359,11.719,29.785,-65.430,315.430
1692210149.692,-50.781,9.277,24.902,-46.387,70.312
1692210149.696,-35.645,8.301,22.461,-35.645,-112.793
1692210149.700,-21.973,17.090,9.766,-34.668,-90.820
1692210149.704,-38.086,10.254,4.395,-43.945,-117.188
1692210149.708,-58.594,-6.836,4.395,-53.223,-190.430
1692210149.712,-19.043,20.996,18.555,-0.488,-138.184
1692210149.716,-4.883,26.855,-7.324,25.879,-2.930
1692210149.720,-28.320,-25.879,-43.945,-16.602,-16.113
1692210149.724,-55.176,-52.734,-31.738,-56.152,-41.016
1692210149.728,-94.238,-29.785,-14.648,-82.031,16.113
1692210149.731,-91.309,-4.883,0.488,-73.242,262.695
1692210149.735,-57.617,-11.719,-0.977,-50.781,169.434
1692210149.739,-43.945,-27.832,-23.438,-44.922,-158.691
1692210149.743,-49.805,-28.320,-16.113,-52.734,-96.680
1692210149.747,-25.879,-13.672,16.602,-25.391,-35.645
1692210149.762,12.207,1.465,34.668,20.996,-50.781
1692210149.766,17.090,-1.465,11.230,29.785,-124.023
1692210149.770,18.066,0.488,-23.926,25.391,-58.594
1692210149.774,-45.410,-32.715,-51.758,-51.758,32.227
1692210149.778,-94.238,-39.551,-25.391,-103.027,-101.074
1692210149.782,-65.430,-20.996,6.348,-71.777,-112.305
1692210149.786,-60.059,-47.852,2.441,-56.152,133.789
1692210149.789,-64.453,-62.012,-7.812,-56.152,445.801
1692210149.793,-29.785,-26.855,19.531,-35.645,110.352
1692210149.797,-5.859,-0.977,23.926,-20.508,-203.125
1692210149.801,12.207,-10.254,7.812,8.789,-120.605
1692210149.805,28.320,-50.293,27.832,50.781,-108.887
1692210149.795,-43.457,-74.707,4.395,-30.273,-116.211
1692210149.799,-87.402,-31.250,-5.371,-88.379,-135.254
1692210149.803,-76.660,-15.137,8.301,-77.148,-62.988
1692210149.807,-79.590,-33.203,3.906,-76.172,-96.191
1692210149.811,-64.941,-41.016,3.418,-58.594,-208.496
1692210149.815,-0.488,-15.137,29.785,-1.465,-48.828
1692210149.819,36.621,-15.625,31.738,19.531,168.457
1692210149.822,38.086,-11.230,34.180,21.973,13.672
1692210149.826,60.059,14.160,71.289,53.223,-147.461
1692210149.830,6.836,-29.297,30.762,2.441,-62.500
1692210149.834,-78.125,-57.129,-32.715,-69.336,202.637
1692210149.838,-76.172,-43.945,-29.785,-74.219,77.637
1692210149.837,-72.754,-39.551,-4.395,-76.172,-178.711
1692210149.841,-61.035,-33.203,18.555,-54.199,-127.441
1692210149.845,-7.812,-19.043,39.062,4.883,-95.703
1692210149.849,18.066,-16.602,59.570,22.949,-74.707
1692210149.853,-1.953,-25.879,46.875,-16.602,-97.168
1692210149.857,-38.574,-34.180,11.719,-62.012,76.660
1692210149.861,-47.852,-34.668,17.090,-57.129,489.258
1692210149.864,-36.133,-21.484,39.551,-33.203,275.879
1692210149.868,-11.719,-30.273,39.062,-25.879,-90.332
1692210149.872,-10.254,-29.785,29.297,-25.391,-0.977
1692210149.876,-25.391,-17.090,30.273,-31.250,-7.324
1692210149.880,-37.109,-20.508,20.508,-44.434,-183.594
1692210149.897,-28.320,-18.555,-1.953,-37.109,-158.691
1692210149.901,-9.766,-20.020,13.184,-25.391,-64.941
1692210149.905,-13.672,-20.508,34.668,-26.855,-88.867
1692210149.909,-24.902,-21.973,35.156,-31.250,-180.176
1692210149.913,-26.367,-32.227,29.297,-47.363,-180.176
1692210149.917,-15.137,-26.855,31.738,-22.461,18.555
1692210149.921,0.977,-22.949,30.762,16.602,37.109
1692210149.924,-5.371,-51.270,11.230,4.395,-75.684
1692210149.928,19.531,-43.457,30.762,11.719,-57.129
1692210149.932,18.555,-32.227,26.855,11.230,235.840
1692210149.936,-25.879,-40.039,-16.113,-19.043,196.289
1692210149.940,-14.648,-27.832,-15.137,-2.930,-83.008
1692210149.942,16.113,-12.207,25.879,25.879,-52.246
1692210149.946,8.789,-23.438,35.645,4.883,-75.195
1692210149.950,-10.742,-48.340,20.996,-30.762,-171.875
1692210149.954,-4.395,-41.992,25.391,-13.672,-121.582
1692210149.958,6.836,-49.805,30.273,9.766,94.727
1692210149.962,-1.953,-55.176,41.016,5.859,206.543
1692210149.966,-31.250,-50.781,25.391,-20.020,57.129
1692210149.969,-57.129,-61.523,9.766,-46.875,-158.203
1692210149.973,-46.387,-62.500,26.367,-29.297,-12.695
1692210149.977,-18.555,-59.570,33.691,4.883,197.754
1692210149.981,5.859,-64.453,22.949,12.207,-61.035
1692210149.985,22.949,-59.570,21.484,14.648,-156.738
1692210149.987,24.902,-36.621,36.621,35.156,-47.363
1692210149.991,3.906,-52.246,37.109,30.762,-87.891
1692210149.995,15.625,-53.711,54.688,52.734,-137.695
1692210149.999,31.250,-64.941,54.199,75.684,-73.242
1692210150.003,16.113,-71.289,24.902,43.457,-12.207
1692210150.007,-6.836,-52.734,30.762,7.324,-32.227
1692210150.011,-57.617,-111.816,10.254,-31.738,-34.668
1692210150.014,-62.500,-135.742,-11.230,-30.762,-36.621
1692210150.018,-27.832,-131.836,-4.395,-0.977,174.805
1692210150.022,3.418,-115.723,22.461,18.555,100.098
1692210150.026,28.320,-97.656,30.762,22.949,-171.875
1692210150.030,32.227,-84.961,-6.836,23.926,-91.309
1692210150.032,28.809,-85.449,-8.789,35.645,40.527
1692210150.036,28.320,-115.723,26.855,42.969,29.297
1692210150.040,61.035,-94.238,67.871,73.242,-116.699
1692210150.044,49.316,-78.125,62.012,68.848,64.941
1692210150.048,-60.547,-131.348,-18.555,-38.086,259.766
1692210150.052,-60.547,-112.793,-22.949,-44.434,40.527
1692210150.056,-22.949,-85.449,-5.371,-15.625,-55.664
1692210150.059,-18.555,-81.543,0.488,-16.113,125.488
1692210150.063,-18.066,-78.613,6.836,-20.020,152.832
1692210150.067,-20.020,-77.637,3.418,-30.762,-164.062
1692210150.071,-15.625,-78.613,9.277,-13.672,-213.867
1692210150.075,-5.859,-82.520,13.672,16.602,-77.148
1692210150.079,-2.930,-83.008,11.230,22.949,-92.285
1692210150.083,-4.883,-81.055,10.742,2.441,-159.180
1692210150.087,-9.766,-78.613,17.090,-9.277,-169.434
1692210150.091,-16.113,-80.078,16.602,0.000,-101.562
1692210150.095,-6.348,-86.426,9.277,17.578,-79.590
1692210150.099,-5.371,-89.355,1.953,9.277,-103.516
1692210150.103,-18.066,-86.914,0.977,-12.695,-65.918
1692210150.106,-20.508,-87.891,10.254,-13.672,246.094
1692210150.110,-25.879,-97.656,3.906,-13.672,209.961
1692210150.114,-3.418,-95.703,-6.836,6.836,-182.617
1692210150.118,25.391,-93.262,0.977,39.062,-96.680
1692210150.122,4.883,-104.492,7.324,21.484,21.973
1692210150.122,-20.508,-106.934,1.953,-14.648,-57.617
1692210150.126,-25.391,-107.910,-1.465,0.977,-136.719
1692210150.130,-6.836,-120.605,3.906,33.203,-83.984
1692210150.134,5.371,-124.512,0.488,31.250,3.418
1692210150.138,-1.465,-125.977,5.859,22.461,-39.551
1692210150.142,-16.113,-131.836,10.742,17.578,-48.828
1692210150.146,-18.066,-138.184,7.324,19.043,138.672
1692210150.149,-6.348,-146.484,6.836,39.551,510.742
1692210150.153,0.977,-151.367,5.859,43.457,311.035
1692210150.157,4.395,-157.227,9.766,38.574,-125.000
1692210150.161,-16.113,-168.457,13.184,26.855,-142.090
1692210150.165,-31.738,-183.105,13.184,27.832,-136.719
1692210150.182,-20.020,-191.895,10.254,48.340,-159.668
1692210150.186,-1.953,-201.660,8.789,62.500,-131.348
1692210150.190,-10.742,-212.402,5.371,48.340,-68.848
1692210150.194,-22.461,-218.750,0.977,36.133,-80.566
1692210150.198,-20.508,-228.516,-2.930,45.410,-132.324
1692210150.202,-2.930,-235.352,-19.043,64.941,1.953
1692210150.206,20.020,-244.629,-31.738,84.961,375.977
1692210150.209,18.555,-270.996,-39.062,84.473,280.762
1692210150.213,20.996,-300.293,-54.199,68.848,-128.418
1692210150.217,18.555,-329.102,-72.266,61.035,-119.629
1692210150.221,9.277,-342.285,-92.285,85.449,-32.715
1692210150.225,37.598,-354.980,-99.121,111.328,-104.492
1692210150.228,60.059,-520.020,-93.750,106.934,-74.707
1692210150.232,53.711,-509.766,-96.191,101.562,127.930
1692210150.236,39.551,-518.066,-97.168,80.566,291.016
1692210150.239,34.180,-527.832,-100.098,59.570,-62.012
1692210150.243,37.109,-545.410,-106.934,70.801,-212.402
1692210150.247,47.363,-572.754,-108.887,100.586,94.238
1692210150.251,46.875,-603.027,-110.352,90.820,416.016
1692210150.255,44.434,-634.277,-111.816,62.988,64.453
1692210150.272,41.504,-675.293,-116.211,50.293,-193.359
1692210150.276,38.086,-698.242,-113.281,61.523,-134.766
1692210150.280,41.016,-703.125,-109.375,81.543,-130.859
1692210150.284,48.340,-698.730,-110.352,91.797,-150.391
1692210150.288,57.129,-683.105,-103.516,83.984,-105.957
1692210150.292,41.992,-678.711,-101.562,49.316,117.676
1692210150.296,29.297,-695.312,-108.398,44.434,133.301
1692210150.299,38.086,-699.219,-118.164,60.547,-117.188
1692210150.303,36.621,-692.871,-126.953,66.406,-96.191
1692210150.307,33.691,-698.730,-120.117,52.246,-23.438
1692210150.311,32.715,-691.895,-106.934,29.785,-133.301
1692210150.315,29.785,-672.852,-108.398,41.504,-172.363
1692210150.317,49.316,-654.785,-114.746,68.848,7.324
1692210150.321,50.781,-631.836,-111.816,80.078,378.418
1692210150.325,47.363,-601.074,-112.793,64.453,157.715
1692210150.329,53.223,-570.312,-111.816,49.805,-164.062
1692210150.333,40.527,-552.246,-106.934,50.781,45.898
1692210150.337,47.363,-537.109,-111.328,55.176,210.449
1692210150.341,60.547,-512.207,-113.281,68.359,73.242
1692210150.344,70.312,-514.648,-111.816,78.125,-104.004
1692210150.348,49.316,-525.391,-103.027,40.527,32.715
1692210150.352,1.465,-511.230,-92.773,4.883,156.738
1692210150.356,3.418,-495.117,-97.656,32.715,-156.250
1692210150.360,32.715,-472.656,-100.586,67.871,-120.117
1692210150.363,34.668,-449.707,-92.773,61.523,-57.129
1692210150.367,18.066,-439.453,-87.402,39.551,-151.367
1692210150.371,8.301,-428.711,-82.031,25.879,-196.777
1692210150.375,18.555,-417.969,-82.520,46.387,-125.000
1692210150.379,30.273,-411.621,-86.426,62.988,36.621
1692210150.383,33.203,-402.832,-83.984,53.711,98.145
1692210150.387,24.902,-401.855,-81.055,31.738,-28.320
1692210150.390,10.254,-402.344,-81.055,23.926,-134.766
1692210150.394,13.672,-397.461,-80.078,38.574,112.305
1692210150.398,32.715,-399.414,-86.914,42.969,96.191
1692210150.402,41.016,-395.996,-86.426,42.480,-163.574
1692210150.406,26.855,-379.395,-81.543,35.156,-94.727
1692210150.407,4.395,-363.770,-104.980,24.414,-66.895
1692210150.411,1.465,-345.215,-110.840,35.645,-135.742
1692210150.415,21.973,-326.660,-94.238,64.941,-110.840
1692210150.419,41.992,-318.359,-93.750,77.637,13.672
1692210150.423,40.527,-303.223,-83.008,56.641,9.766
1692210150.427,16.602,-295.898,-81.055,34.668,-49.805
1692210150.431,-1.465,-304.199,-90.332,22.461,-17.578
1692210150.434,2.441,-301.758,-83.496,29.297,162.109
1692210150.438,6.836,-290.039,-82.520,47.852,479.492
1692210150.442,3.418,-279.297,-85.449,29.297,174.805
1692210150.446,14.160,-275.879,-78.613,15.625,-213.867
1692210150.450,17.578,-269.043,-83.496,33.691,-158.203
1692210150.454,11.230,-261.719,-96.680,43.457,-134.766
1692210150.458,33.691,-243.164,-74.219,52.734,-138.184
1692210150.462,35.645,-235.352,-60.547,50.781,-133.301
1692210150.466,9.277,-241.699,-66.406,23.438,-117.188
1692210150.470,0.977,-234.375,-61.523,22.461,-92.773
1692210150.474,15.137,-227.539,-62.012,48.828,9.277
1692210150.478,27.344,-228.516,-62.500,56.152,29.297
1692210150.481,28.809,-229.980,-63.965,47.852,179.688
1692210150.485,15.625,-236.328,-68.848,29.297,153.809
1692210150.489,17.578,-240.723,-52.246,38.086,-136.719
1692210150.493,39.551,-225.098,-26.855,75.684,-63.477
1692210150.497,37.598,-203.125,-41.504,68.359,90.332
1692210150.497,29.297,-187.012,-52.734,49.316,-44.434
1692210150.501,15.137,-194.336,-35.645,28.809,-169.922
1692210150.505,5.371,-203.613,-29.785,20.508,-133.789
1692210150.509,20.996,-205.078,-31.250,42.969,34.668
1692210150.513,34.668,-212.891,-40.039,62.012,45.410
1692210150.517,25.391,-217.773,-51.758,46.875,-85.938
1692210150.521,0.977,-209.961,-43.945,20.508,104.492
1692210150.524,-18.066,-199.707,-27.832,18.555,413.086
1692210150.528,-3.906,-201.660,-32.715,30.762,127.441
1692210150.532,25.391,-204.102,-43.945,43.457,-150.879
1692210150.536,29.297,-205.566,-35.156,40.039,-65.430
1692210150.540,7.812,-210.449,-28.320,17.090,-51.758
1692210150.544,-11.719,-213.867,-39.062,6.836,-124.512
1692210150.548,-13.184,-205.566,-41.504,24.414,-141.113
1692210150.552,5.859,-192.383,-30.273,44.922,30.273
1692210150.556,26.367,-187.012,-19.531,46.875,18.066
1692210150.560,29.785,-182.129,-22.949,35.156,-126.465
1692210150.564,3.418,-181.152,-35.645,20.508,-55.664
1692210150.568,-9.277,-169.434,-24.414,40.527,185.547
1692210150.571,16.113,-148.438,-12.695,54.688,129.883
1692210150.575,16.113,-140.625,-38.086,29.297,-163.086
1692210150.579,3.906,-127.441,-43.457,21.484,-113.770
1692210150.583,6.348,-110.840,-34.668,19.531,-75.195
1692210150.587,13.672,-104.492,-38.086,27.832,-160.156
1692210150.603,44.434,-104.004,-29.297,75.195,-175.781
1692210150.607,47.852,-105.469,-21.484,80.078,-11.230
1692210150.611,7.324,-105.957,-29.785,17.578,61.035
1692210150.615,-34.180,-94.727,-32.715,-27.344,-15.137
1692210150.619,-62.500,-92.285,-33.203,-33.203,-23.926
1692210150.623,-55.176,-93.750,-35.645,-22.461,51.758
1692210150.627,-47.363,-88.867,-37.109,-16.602,419.922
1692210150.630,-55.664,-83.008,-42.480,-39.062,273.438
1692210150.634,-69.824,-80.078,-41.016,-55.664,-147.949
1692210150.638,-77.637,-92.773,-35.156,-51.270,-162.598
1692210150.642,-57.129,-102.051,-37.109,-21.484,-100.586
1692210150.646,-16.602,-91.309,-24.902,3.906,-124.512
1692210150.634,-51.758,-112.305,-53.223,-42.480,-162.598
1692210150.638,-100.586,-137.207,-84.473,-83.984,-157.227
1692210150.642,-93.262,-142.578,-72.266,-69.824,-145.020
1692210150.646,-59.570,-139.160,-61.035,-32.227,-118.652
1692210150.650,-31.250,-121.582,-46.387,-3.418,-72.754
1692210150.654,-53.223,-128.418,-45.410,-5.859,55.176
1692210150.658,-64.941,-131.836,-46.387,-23.926,58.105
1692210150.661,-50.781,-126.465,-38.086,-31.250,-112.793
1692210150.665,-39.551,-131.348,-41.504,-5.859,-144.531
1692210150.669,-30.762,-128.418,-44.434,17.090,248.535
1692210150.673,-21.484,-119.141,-39.551,12.207,263.672
1692210150.677,-18.555,-118.652,-36.133,-9.277,-111.328
1692210150.692,-18.066,-112.305,-42.969,-13.184,-102.051
1692210150.696,-0.977,-104.492,-47.852,14.160,-62.500
1692210150.700,13.672,-100.098,-41.016,43.945,-83.496
1692210150.704,13.184,-98.633,-33.691,36.133,-95.703
1692210150.708,10.254,-114.258,-25.391,19.043,111.816
1692210150.712,-9.277,-141.113,-41.992,10.254,208.984
1692210150.716,-2.930,-130.371,-41.992,21.484,-26.855
1692210150.719,20.996,-107.422,-10.254,43.945,-47.363
1692210150.723,0.488,-119.141,-8.301,35.156,119.629
1692210150.727,-13.672,-128.418,-15.625,25.879,258.789
1692210150.731,-4.395,-123.535,-14.160,22.461,-30.762
1692210150.735,1.465,-129.395,-17.578,35.645,-206.055
1692210150.738,17.090,-136.230,-26.367,64.453,-131.836
1692210150.742,14.648,-123.535,-25.391,45.898,-127.930
1692210150.746,-8.789,-88.379,-21.973,13.672,-147.949
1692210150.750,-22.949,-47.363,-19.531,6.348,-116.211
1692210150.754,-24.902,-51.758,-16.602,13.184,-53.711
1692210150.758,-0.488,-131.348,-19.531,30.273,48.828
1692210150.762,7.324,-183.594,-17.578,29.785,45.898
1692210150.765,-8.789,-201.660,-20.508,14.160,-68.359
1692210150.769,-12.695,-199.219,-23.438,13.672,183.594
1692210150.773,-10.742,-183.594,-21.484,16.113,193.848
1692210150.777,2.930,-185.059,-28.809,32.227,-163.086
1692210150.781,21.484,-177.246,-26.367,48.828,-61.523
1692210150.782,25.879,-165.527,-25.391,32.227,33.203
1692210150.786,9.766,-166.504,-24.414,0.488,-109.863
1692210150.790,-9.277,-166.504,-15.625,8.301,-151.855
1692210150.794,2.441,-164.551,-20.020,34.668,-53.711
1692210150.798,29.785,-166.016,-21.484,40.527,26.855
1692210150.802,22.461,-169.434,-17.090,18.066,-1.465
1692210150.806,3.906,-162.109,-8.301,1.953,-52.734
1692210150.809,-3.906,-158.203,-9.277,15.137,56.152
1692210150.813,-3.418,-154.785,-17.090,31.250,269.531
1692210150.817,19.531,-145.996,-7.812,36.621,16.113
1692210150.821,14.648,-148.438,-6.348,18.555,-141.602
1692210150.825,-7.324,-146.484,-16.602,-1.465,-108.887
1692210150.829,-1.953,-140.625,-16.113,13.184,-178.223
1692210150.833,16.113,-131.836,-9.277,53.223,-188.477
1692210150.837,22.949,-112.305,-5.371,64.941,-133.789
1692210150.841,28.809,-95.215,-10.254,54.688,-63.965
1692210150.845,31.738,-92.773,-10.742,34.668,-96.191
1692210150.849,14.160,-76.172,-6.836,15.137,-85.449
1692210150.853,9.277,-65.918,-4.883,30.762,12.695
1692210150.856,28.320,-72.266,-1.953,60.547,241.699
1692210150.860,34.180,-70.801,-5.859,56.641,93.262
1692210150.864,16.602,-77.637,-2.930,28.320,-203.613
1692210150.868,-2.441,-90.332,2.930,20.020,-104.004
1692210150.872,3.418,-101.074,-11.719,41.504,-52.734
1692210150.888,34.180,-111.816,-11.230,71.289,-86.426
1692210150.892,37.109,-133.301,8.789,63.965,-137.695
1692210150.896,10.254,-140.625,12.695,26.367,-24.414
1692210150.900,-3.418,-146.484,5.859,20.020,68.359
1692210150.904,13.672,-121.582,0.977,46.387,-66.406
1692210150.908,22.949,31.738,-8.301,51.758,-22.949
1692210150.912,15.137,145.020,-9.277,39.551,178.711
1692210150.915,-1.953,136.230,-1.953,22.949,397.949
1692210150.919,-13.184,120.605,0.000,2.930,154.785
1692210150.923,12.207,115.723,2.441,14.648,-141.602
1692210150.927,32.715,97.168,3.418,43.945,-65.918
1692210150.931,16.113,73.730,-3.418,55.176,-83.496
1692210150.919,-9.766,63.965,-1.953,26.367,-148.438
1692210150.923,-18.555,44.922,6.836,2.441,-107.910
1692210150.927,-18.066,27.344,0.488,8.789,-40.039
1692210150.931,1.953,21.484,1.465,37.109,-52.246
1692210150.935,13.672,3.906,11.230,52.246,-57.129
1692210150.939,11.719,-0.488,11.230,40.039,52.734
1692210150.943,6.348,-2.441,7.324,20.996,149.902
1692210150.946,-5.859,-20.020,-6.348,15.625,-54.688
1692210150.950,19.531,-32.715,-1.953,57.617,-202.637
1692210150.954,39.551,-39.062,-5.859,75.195,-80.566
1692210150.958,14.160,-42.969,-3.906,38.574,315.918
1692210150.962,-12.207,-56.641,8.301,3.418,241.211
1692210150.962,-16.113,-70.312,5.859,11.230,-134.277
1692210150.966,9.277,-81.543,13.672,44.922,-61.035
1692210150.970,8.789,-96.191,-8.301,42.480,-75.195
1692210150.974,-13.672,-111.816,-14.160,10.254,-10.742
1692210150.978,-18.555,-119.141,8.301,-4.395,-63.965
1692210150.982,-22.949,-126.953,2.930,4.395,41.504
1692210150.986,-8.301,-136.719,-3.418,32.227,389.648
1692210150.989,12.207,-148.926,7.324,46.387,169.434
1692210150.993,-0.977,-147.461,7.324,16.113,-149.902
1692210150.997,-20.020,-143.555,-1.953,-3.906,-65.918
1692210151.001,-11.230,-149.902,4.395,-3.418,-21.973
1692210151.005,5.859,-146.973,11.230,9.277,-209.473
1692210151.009,0.488,-145.508,-4.883,17.578,-187.988
1692210151.013,-2.441,-149.414,-5.859,5.371,-127.930
1692210151.017,-0.977,-148.438,-2.441,1.465,-124.023
1692210151.021,-7.812,-144.043,-3.418,3.906,-153.320
1692210151.025,-5.859,-145.020,-3.418,17.578,-117.188
1692210151.029,7.812,-143.066,-1.953,37.109,29.297
1692210151.033,12.695,-143.066,5.371,34.668,54.199
1692210151.036,-1.465,-144.531,-11.719,18.555,-91.797
1692210151.040,-10.254,-181.152,-28.320,0.488,-146.484
1692210151.044,7.812,-246.094,-7.812,31.738,295.410
1692210151.048,31.738,-275.391,12.207,71.777,250.488
1692210151.052,29.297,-262.207,14.648,55.664,-161.133
1692210151.067,6.348,-234.863,17.090,29.297,-32.227
1692210151.071,-4.395,-238.770,15.625,15.137,-7.812
1692210151.075,-5.859,-249.512,7.324,15.625,-122.070
1692210151.079,5.859,-240.234,1.953,38.574,-35.156
1692210151.083,14.160,-220.703,0.488,57.129,165.527
1692210151.087,6.348,-213.379,9.277,38.574,240.234
1692210151.091,-5.371,-213.379,15.625,26.367,10.254
1692210151.094,-16.602,-216.309,5.859,30.273,-194.824
1692210151.098,-10.742,-213.379,-1.465,37.109,17.090
1692210151.102,3.906,-205.078,1.953,33.691,177.246
1692210151.106,-3.418,-200.195,3.906,0.000,-128.906
1692210151.110,-8.301,-193.359,-2.441,-15.137,-123.535
1692210151.112,-16.602,-186.035,-1.465,-8.301,41.016
1692210151.116,0.977,-172.363,16.602,17.578,-45.410
1692210151.120,18.066,-156.250,21.484,32.227,-146.973
1692210151.124,0.977,-142.578,17.090,16.602,-116.211
1692210151.128,-12.207,-128.906,15.625,2.441,-104.980
1692210151.132,-11.230,-127.930,16.602,13.184,18.066
1692210151.136,-9.766,-133.789,12.207,30.273,46.387
1692210151.139,0.977,-130.859,1.953,34.668,-26.855
1692210151.143,4.395,-132.324,-1.953,28.320,225.098
1692210151.147,-3.418,-133.301,-9.766,7.812,109.863
1692210151.151,-10.254,-127.441,-13.672,1.953,-220.215
1692210151.155,1.953,-125.000,-0.977,27.832,-104.980
1692210151.158,20.020,-121.094,2.930,39.062,-40.039
1692210151.162,14.160,-116.211,-4.395,29.785,-93.262
1692210151.166,5.859,-113.281,1.953,22.461,-85.449
1692210151.170,2.930,-115.234,1.953,21.484,91.309
1692210151.174,-1.953,-129.883,-10.254,34.668,244.629
1692210151.178,11.719,-137.207,-17.090,46.875,35.156
1692210151.182,28.809,-137.695,-10.742,46.387,-124.023
1692210151.185,4.883,-125.000,-5.371,35.156,67.383
1692210151.189,-8.301,-101.074,-6.836,25.391,164.551
1692210151.193,-11.230,-104.492,-7.324,23.438,-124.023
1692210151.197,-19.043,-116.699,-3.906,36.133,-174.316
1692210151.201,-3.418,-114.746,8.301,35.645,-107.910
1692210151.204,11.719,-112.793,8.301,7.324,-168.457
1692210151.208,-6.836,-117.188,2.930,-17.578,-216.797
1692210151.212,-17.090,-116.211,11.230,-13.184,-130.859
1692210151.216,-5.371,-114.258,11.719,10.742,-12.207
1692210151.220,4.883,-120.117,1.953,21.973,-11.719
1692210151.224,2.930,-121.582,-5.371,4.883,12.695
1692210151.228,4.883,-120.605,2.930,-17.090,64.941
1692210151.231,10.254,-119.629,15.137,2.441,323.242
1692210151.235,19.043,-110.352,2.441,30.273,292.969
1692210151.239,47.852,-98.145,10.742,41.992,-100.586
1692210151.243,44.434,-100.586,19.043,43.945,-112.305
1692210151.247,-8.301,-113.770,-3.418,5.371,-79.102
1692210151.247,-28.809,-109.863,4.883,-10.742,-154.785
1692210151.251,-23.926,-106.445,13.672,5.371,-104.492
1692210151.255,-20.508,-104.492,17.090,2.930,31.738
1692210151.259,-14.648,-104.492,17.090,-7.324,69.336
1692210151.263,-21.484,-100.586,11.230,-9.277,-8.301
1692210151.267,-33.691,-92.773,1.465,-4.395,9.277
1692210151.271,-20.508,-101.074,0.977,9.277,152.344
1692210151.274,-0.977,-95.215,11.719,32.715,465.820
1692210151.278,5.859,-86.426,14.648,24.414,297.852
1692210151.282,-15.137,-96.680,2.441,-17.578,-161.133
1692210151.286,-26.855,-104.492,-8.789,-18.066,-210.449
1692210151.290,-9.766,-100.586,-3.906,8.789,-206.055
1692210151.294,0.488,-94.727,3.906,14.160,-161.133
1692210151.298,-0.488,-99.609,0.977,3.418,-122.559
1692210151.302,-21.484,-106.445,0.000,-19.531,-131.348
1692210151.306,-28.320,-102.539,8.301,-23.926,-154.297
1692210151.310,-15.625,-96.680,6.836,-4.395,-132.812
1692210151.314,-6.836,-103.516,9.766,13.184,-68.359
1692210151.318,-3.418,-114.258,9.766,9.766,242.676
1692210151.321,-20.508,-129.395,-1.465,-23.926,222.168
1692210151.325,-22.949,-145.996,5.859,-28.320,-169.434
1692210151.329,-8.301,-144.531,9.277,4.395,-110.840
1692210151.333,10.254,-129.395,6.348,36.621,-4.395
1692210151.337,17.578,-121.094,20.020,38.086,-107.422
1692210151.337,-7.324,-132.324,15.137,-1.953,-182.617
1692210151.341,-31.250,-145.508,0.977,-27.832,-103.027
1692210151.345,-13.672,-126.465,12.207,-1.465,-2.441
1692210151.349,9.766,-107.910,22.949,24.414,10.254
1692210151.353,13.672,-109.375,8.301,11.230,-51.270
1692210151.357,13.672,-107.422,-6.836,-0.488,88.867
1692210151.361,-1.953,-109.863,0.977,5.859,443.848
1692210151.364,-1.953,-119.629,0.488,8.301,166.016
1692210151.368,18.066,-122.070,6.836,21.973,-203.613
1692210151.372,19.531,-128.906,20.508,26.855,-157.715
1692210151.376,0.000,-132.324,21.484,-1.465,-94.238
1692210151.380,-13.184,-115.723,31.250,-8.789,-146.973
1692210151.385,-15.137,-116.699,20.020,-4.395,-164.062
1692210151.389,-5.371,-115.723,3.418,4.883,54.688
1692210151.393,6.348,-109.375,9.766,8.789,90.332
1692210151.397,-5.371,-103.027,8.789,-6.836,-129.395
1692210151.401,-23.926,-86.914,-1.953,-15.137,-145.020
1692210151.405,-36.621,-92.285,-9.766,-19.043,-13.184
1692210151.409,-25.879,-91.797,-2.441,-9.766,64.453
1692210151.412,3.906,-84.961,15.625,11.719,3.906
1692210151.416,0.488,-87.891,5.859,1.953,-99.121
1692210151.420,-23.438,-105.957,-8.301,-16.602,87.891
1692210151.424,-24.414,-113.281,1.465,-10.742,67.871
1692210151.428,0.977,-71.777,26.367,23.438,-116.699
1692210151.443,14.160,-65.430,29.297,36.133,-2.441
1692210151.447,5.371,-88.867,9.277,8.301,-8.789
1692210151.451,-18.066,-79.590,7.324,-19.531,-116.211
1692210151.455,-27.832,-68.359,8.301,-17.090,-65.918
1692210151.459,-6.348,-73.242,11.230,18.066,119.141
1692210151.463,14.160,-71.289,11.230,40.527,434.082
1692210151.467,20.508,-66.895,3.418,31.738,222.168
1692210151.470,9.766,-65.430,14.648,24.414,-156.250
1692210151.474,5.371,-64.941,25.391,25.391,-107.910
1692210151.478,3.418,-68.848,14.648,24.414,-59.570
1692210151.482,6.836,-64.453,2.441,28.809,-86.914
1692210151.486,12.207,-42.480,5.371,28.320,-110.840
1692210151.488,-4.883,-32.715,8.789,5.371,13.672
1692210151.492,-21.484,-41.992,0.977,-14.648,23.926
1692210151.496,-15.137,-47.852,6.836,-2.441,-146.484
1692210151.500,-10.742,-41.992,18.066,13.672,-96.191
1692210151.504,0.000,-40.527,11.230,16.602,-50.293
1692210151.508,1.953,-47.852,9.766,-3.906,15.625
1692210151.512,-10.254,-53.711,18.066,-17.090,25.879
1692210151.515,-10.254,-50.293,17.578,3.906,-14.160
1692210151.519,4.883,-52.734,9.277,27.344,277.344
1692210151.523,9.766,-56.152,5.371,30.762,265.625
1692210151.527,1.953,-49.805,-5.371,3.906,-200.684
1692210151.531,-16.113,-55.664,0.977,-9.766,-191.406
1692210151.532,-17.090,-66.406,11.230,-0.488,-86.914
1692210151.536,-8.789,-75.684,12.207,5.859,-134.277
1692210151.540,-8.789,-81.055,10.254,11.230,-125.000
1692210151.544,-9.277,-75.684,7.324,-2.930,96.191
1692210151.548,-16.113,-66.406,13.184,-15.625,145.996
1692210151.552,-31.738,-60.547,9.277,-4.395,-38.574
1692210151.556,-20.508,-64.941,-0.977,7.324,-2.441
1692210151.559,1.465,-67.871,1.953,10.254,227.051
1692210151.563,-10.254,-68.848,3.906,-6.836,519.531
1692210151.567,-22.461,-65.918,2.930,-22.949,199.707
1692210151.571,-13.672,-61.035,2.441,-4.395,-187.500
1692210151.575,0.977,-69.336,-5.371,21.484,-151.855
1692210151.579,0.977,-75.684,-11.719,20.020,-160.156
1692210151.583,-5.371,-81.543,-1.465,6.836,-169.922
1692210151.587,-3.906,-85.449,16.602,-4.395,-128.418
1692210151.591,-14.648,-74.219,20.996,-2.930,-65.430
1692210151.595,-16.602,-68.848,15.625,13.672,-79.102
1692210151.599,-3.906,-71.289,10.254,20.020,-37.109
1692210151.603,-14.648,-75.684,8.301,3.906,22.461
1692210151.606,-39.062,-84.961,8.301,-14.160,203.613
1692210151.610,-39.062,-86.426,8.301,-20.020,129.395
1692210151.614,-22.461,-82.031,14.648,-10.742,-211.914
1692210151.618,-8.789,-85.449,17.578,2.441,-82.520
1692210151.622,-6.348,-94.727,4.395,2.930,113.770
1692210151.622,-20.508,-91.797,-0.977,-13.184,-86.914
1692210151.626,-23.438,-82.520,8.301,-13.184,-184.570
1692210151.630,-19.043,-84.961,2.930,4.395,-93.750
1692210151.634,-9.277,-93.750,-1.953,15.625,32.715
1692210151.638,-2.930,-96.680,2.930,15.625,9.277
1692210151.642,-4.395,-88.867,15.625,-2.441,-51.270
1692210151.646,-6.836,-99.609,15.137,-4.395,165.039
1692210151.649,-4.395,-106.934,6.836,11.719,285.645
1692210151.653,15.137,-94.727,10.254,21.973,0.000
1692210151.657,17.578,-92.773,10.254,14.648,-234.375
1692210151.661,-15.625,-97.168,5.371,-14.648,-11.719
1692210151.665,-23.926,-96.191,1.953,-15.625,66.406
1692210151.670,-6.836,-88.867,9.766,9.766,-102.539
1692210151.674,-1.465,-86.426,12.695,20.996,-92.773
1692210151.678,-3.418,-89.355,10.254,17.578,-5.859
1692210151.682,-10.254,-89.844,10.254,4.883,4.395
1692210151.686,-10.742,-86.426,10.742,-6.836,-157.227
1692210151.690,-18.066,-88.867,0.000,2.930,-81.543
1692210151.694,-16.113,-97.656,-8.301,15.137,307.129
1692210151.697,-4.395,-94.727,4.395,6.836,207.520
1692210151.701,-15.137,-89.844,9.277,-10.742,-162.598
1692210151.705,-18.066,-93.262,7.324,-8.789,-121.094
1692210151.709,-19.531,-101.074,2.930,0.000,-81.543
1692210151.713,-28.809,-103.516,-2.930,5.859,-120.605
1692210151.712,-20.508,-96.191,1.465,14.648,-148.926
1692210151.716,-24.902,-95.703,4.883,-4.395,-112.793
1692210151.720,-49.316,-100.586,3.906,-36.621,-65.430
1692210151.724,-48.340,-98.145,-0.488,-39.062,-43.457
1692210151.728,-26.855,-97.168,-2.930,-19.531,-47.852
1692210151.732,-15.625,-99.121,2.930,-0.488,114.746
1692210151.736,-21.484,-97.168,2.441,-7.812,523.926
1692210151.739,-23.438,-91.797,1.465,-23.926,331.543
1692210151.743,-20.996,-94.238,0.977,-16.602,-190.918
1692210151.747,-12.695,-95.703,-7.812,15.137,-207.031
1692210151.751,5.371,-92.773,-4.883,31.738,-123.047
1692210151.755,3.418,-94.727,-2.441,7.812,-160.645
1692210151.759,-3.418,-95.215,0.488,-9.277,-177.734
1692210151.763,-12.695,-91.797,3.906,-0.977,-165.039
1692210151.767,-13.184,-88.867,-0.977,17.090,-123.047
1692210151.771,-0.488,-90.820,-5.859,28.809,-126.465
1692210151.775,-5.371,-90.332,-5.371,16.113,-113.770
1692210151.779,-12.207,-89.355,-12.207,-2.930,0.488
1692210151.783,-5.859,-92.773,-4.883,0.488,-4.883
1692210151.786,4.395,-93.262,12.695,4.395,-11.230
1692210151.790,-1.465,-100.098,15.625,10.742,-5.371
1692210151.794,-2.930,-109.863,11.719,3.418,247.559
1692210151.798,-1.953,-107.910,10.742,-19.043,188.965
1692210151.802,-13.672,-108.398,10.742,-9.766,-190.430
1692210151.832,-16.113,-113.770,6.836,14.648,-72.754
1692210151.836,-5.371,-111.328,4.883,23.438,-22.461
1692210151.840,-1.465,-107.422,1.465,7.324,-75.195
1692210151.844,-15.625,-103.027,-4.883,-16.602,-93.750
1692210151.848,-28.809,-114.258,-4.395,-18.555,10.254
1692210151.852,-25.879,-132.324,-6.348,0.977,172.363
1692210151.856,-13.184,-130.859,-3.418,16.113,20.996
1692210151.859,-16.602,-125.000,4.395,12.207,-57.129
1692210151.863,-33.203,-124.512,3.906,-2.441,148.926
1692210151.867,-38.574,-126.953,-3.418,-20.020,261.719
1692210151.871,-30.762,-125.488,-5.859,-13.672,-68.359
1692210151.875,-14.160,-124.023,-4.883,17.090,-179.688
1692210151.862,0.000,-126.465,-5.859,16.602,-90.332
1692210151.866,-11.719,-125.488,-9.277,-2.441,-103.027
1692210151.870,-21.973,-119.141,-13.672,-6.836,-166.504
1692210151.874,-8.301,-112.305,-3.418,14.160,-165.039
1692210151.878,1.953,-109.863,0.977,36.133,-78.613
1692210151.882,8.301,-108.398,-5.859,33.691,-22.949
1692210151.886,5.371,-106.445,0.000,14.160,-78.613
1692210151.889,-9.766,-109.375,3.906,0.977,-150.391
1692210151.893,-3.906,-110.840,2.441,8.789,-80.566
1692210151.897,15.625,-108.398,-0.977,29.297,-104.004
1692210151.901,23.438,-109.375,-9.766,36.621,-80.078
1692210151.905,10.742,-112.305,-8.301,16.602,17.578
1692210151.907,-14.648,-110.352,-1.953,2.441,137.207
1692210151.911,-15.137,-111.328,-5.371,8.789,30.762
1692210151.915,5.371,-113.770,-2.441,24.414,-173.828
1692210151.919,7.812,-119.629,0.488,25.391,-14.160
1692210151.923,-1.953,-121.094,-6.348,11.230,338.379
1692210151.927,-5.859,-124.023,-2.930,0.977,222.656
1692210151.931,-6.348,-149.414,13.184,23.438,-146.973
1692210151.934,0.977,-149.902,10.254,42.969,-31.250
1692210151.938,-3.906,-130.371,-10.742,18.555,109.863
1692210151.942,-33.203,-128.418,-19.043,-29.297,-155.273
1692210151.946,-53.711,-135.254,-12.695,-45.898,-259.277
1692210151.950,-57.617,-135.742,-9.277,-43.945,-182.129
1692210151.955,-62.988,-119.629,-21.973,-44.434,-133.789
1692210151.959,-54.199,-109.375,-23.926,-45.898,-145.996
1692210151.963,-60.547,-109.863,-24.902,-65.430,-146.973
1692210151.967,-83.008,-108.887,-34.668,-82.031,-39.062
1692210151.971,-80.078,-110.352,-27.832,-75.195,-18.555
1692210151.975,-73.242,-117.188,-21.484,-67.383,-83.984
1692210151.979,-66.406,-107.910,-21.484,-54.688,-62.500
1692210151.982,-48.828,-98.633,-20.996,-45.898,221.191
1692210151.986,-55.664,-104.980,-17.090,-72.754,155.762
1692210151.990,-71.289,-114.258,-31.250,-88.867,-198.242
1692210151.994,-54.199,-114.258,-40.039,-60.547,-97.656
1692210151.998,-11.719,-103.027,-11.719,-20.508,-26.367
1692210151.997,3.418,-109.375,-15.137,-7.324,-117.188
1692210152.001,-16.113,-125.000,-36.621,-34.180,-142.090
1692210152.005,-28.320,-129.395,-28.809,-47.852,28.320
1692210152.009,-20.020,-131.836,-23.438,-21.973,130.371
1692210152.013,2.930,-128.418,-18.555,1.465,43.457
1692210152.017,12.207,-124.023,-12.207,0.977,82.031
1692210152.021,2.930,-126.953,-8.301,-10.254,173.340
1692210152.024,-7.324,-126.465,-1.465,-11.230,411.621
1692210152.028,-5.859,-126.465,-7.324,1.953,230.469
1692210152.032,-2.930,-132.812,-10.742,16.113,-168.945
1692210152.036,-4.395,-131.836,1.953,19.043,-123.047
1692210152.040,2.930,-127.930,3.418,4.883,-58.594
1692210152.044,-1.953,-127.930,-2.930,-6.836,-98.145
1692210152.048,-0.488,-127.930,3.906,0.488,-86.914
1692210152.052,18.066,-119.141,8.789,25.391,-36.133
1692210152.056,27.832,-123.047,0.488,30.273,-5.371
1692210152.060,20.996,-133.301,-2.441,6.348,-31.738
1692210152.064,0.977,-140.625,-6.836,-5.859,-31.738
1692210152.068,-12.207,-135.742,-4.883,3.906,187.012
1692210152.071,-6.348,-129.883,2.930,26.855,234.863
1692210152.075,3.418,-128.906,-4.395,34.668,-37.598
1692210152.079,6.836,-122.559,-14.648,26.855,-73.242
1692210152.083,-3.906,-128.906,-3.418,9.766,97.168
1692210152.087,-10.742,-133.301,4.883,4.883,48.340
1692210152.087,3.906,-132.324,11.230,21.973,-96.680
1692210152.091,19.531,-126.465,18.555,34.180,-15.625
1692210152.095,20.508,-123.535,20.508,25.879,48.340
1692210152.099,-0.977,-132.324,22.949,11.230,-18.066
1692210152.103,-16.602,-136.719,18.555,5.859,-122.559
1692210152.107,-2.930,-137.695,16.602,23.438,52.246
1692210152.111,16.602,-132.324,20.508,45.410,466.797
1692210152.114,18.555,-123.047,20.020,32.227,195.312
1692210152.118,1.953,-120.117,12.207,11.719,-145.508
1692210152.122,-13.672,-125.488,11.230,9.277,12.695
1692210152.126,-7.324,-128.418,7.324,20.996,98.633
1692210152.130,16.113,-119.141,0.488,36.133,-119.141
1692210152.134,11.230,-111.328,3.906,27.832,-198.730
1692210152.138,-5.859,-111.816,4.883,4.395,-138.672
1692210152.142,-12.695,-115.234,8.789,-9.277,-133.301
1692210152.146,-4.395,-116.699,4.395,4.883,-160.645
1692210152.150,6.836,-115.234,-3.906,29.785,-108.887
1692210152.154,-0.977,-127.930,0.000,22.949,64.941
1692210152.158,-15.625,-135.742,-7.324,0.000,48.340
1692210152.161,-11.230,-115.723,-13.672,3.418,-156.738
1692210152.165,-2.441,-107.422,-10.254,21.484,-120.117
1692210152.169,8.789,-116.211,-16.113,28.320,112.793
1692210152.173,17.090,-116.211,-22.949,22.949,68.359
1692210152.177,14.160,-108.887,-26.367,14.160,-105.469
1692210152.192,14.160,-105.957,-29.785,8.789,-78.613
1692210152.196,23.926,-105.469,-20.020,28.320,26.367
1692210152.200,41.016,-104.492,-8.789,56.152,-22.949
1692210152.204,36.621,-125.000,-20.020,44.922,-26.855
1692210152.208,15.625,-135.254,-9.766,16.602,118.164
1692210152.212,2.441,-125.488,-2.441,-1.465,242.188
1692210152.216,-6.348,-121.582,-15.625,8.789,44.922
1692210152.219,3.418,-114.258,-12.695,29.785,-151.855
1692210152.223,12.207,-118.652,-9.277,30.273,20.020
1692210152.227,5.859,-120.117,-9.277,13.672,133.301
1692210152.231,-6.348,-120.117,-11.719,-4.883,-127.441
1692210152.235,-6.348,-125.977,-9.277,9.766,-134.766
1692210152.239,11.230,-129.395,-9.277,32.715,-35.645
1692210152.243,19.043,-132.324,-3.418,36.621,45.898
1692210152.247,12.695,-125.488,-0.977,18.066,-32.715
1692210152.251,-4.883,-124.512,-4.395,-2.930,-123.047
1692210152.255,-20.996,-135.742,-3.906,3.906,-14.648
1692210152.259,-9.277,-127.930,-3.906,23.926,73.730
1692210152.263,2.441,-119.141,-6.348,28.320,46.875
1692210152.266,-7.324,-130.371,-7.812,12.695,-57.617
1692210152.270,-17.090,-143.066,-10.742,-1.953,127.441
1692210152.274,-27.344,-131.836,-10.254,-8.789,84.473
1692210152.278,-10.742,-120.117,-2.930,0.977,-156.250
1692210152.282,14.648,-120.117,-4.883,18.066,-44.434
1692210152.282,12.695,-114.258,-10.742,18.066,-33.203
1692210152.286,-5.371,-121.582,-4.883,-6.348,-156.738
1692210152.290,-14.160,-126.953,-1.953,-11.719,-182.617
1692210152.294,-9.766,-123.047,0.000,5.859,53.711
1692210152.298,10.254,-121.094,4.883,18.555,146.973
1692210152.302,22.461,-121.582,-2.930,20.996,52.246
1692210152.306,13.672,-120.605,-6.348,9.277,-49.316
1692210152.309,-2.441,-116.699,-9.766,0.977,5.371
1692210152.313,-0.977,-117.676,-10.254,16.602,378.906
1692210152.317,22.461,-119.141,-1.953,45.898,201.172
1692210152.321,20.020,-116.211,-2.930,36.621,-181.152
1692210152.325,1.465,-117.188,-5.859,5.371,-142.090
1692210152.329,-7.324,-114.746,0.977,-0.488,-150.879
1692210152.333,-12.695,-113.281,5.371,12.695,-201.660
1692210152.337,-0.488,-113.281,3.906,22.949,-133.301
1692210152.341,9.766,-111.328,-6.836,21.973,-70.312
1692210152.345,3.906,-105.957,-5.859,14.160,-77.148
1692210152.349,-16.602,-104.004,-5.859,2.441,-97.168
1692210152.353,-30.273,-112.305,-11.719,7.324,-62.012
1692210152.356,-20.996,-119.141,-12.207,32.227,359.375
1692210152.360,-1.465,-113.770,-9.277,30.762,350.098
1692210152.364,2.930,-104.980,-7.812,2.930,-169.434
1692210152.368,-20.020,-107.422,-12.207,-17.578,-200.195
1692210152.372,-26.855,-104.980,-1.953,-4.883,-106.934
1692210152.372,-9.766,-101.562,-1.465,10.742,-125.977
1692210152.376,0.977,-107.422,-6.348,4.395,-138.672
1692210152.380,-11.230,-108.887,-3.418,-3.418,-114.258
1692210152.384,-25.391,-111.328,0.000,-8.789,42.480
1692210152.388,-21.484,-115.234,3.418,1.465,39.062
1692210152.392,-2.441,-119.141,15.137,17.578,-74.219
1692210152.396,11.719,-112.793,25.391,27.832,202.148
1692210152.399,3.906,-107.910,20.020,21.484,458.984
1692210152.403,-6.836,-107.910,18.066,7.812,159.668
1692210152.407,0.488,-110.840,17.090,17.090,-157.227
1692210152.411,11.719,-104.492,14.160,42.480,-54.688
1692210152.415,25.391,-93.262,27.832,46.387,-19.043
1692210152.419,22.949,-101.562,32.227,22.949,-151.367
1692210152.423,-2.930,-110.840,24.902,-2.930,-171.387
1692210152.427,-25.391,-108.887,12.207,-12.207,-179.199
1692210152.431,-11.719,-110.840,7.812,11.719,-136.719
1692210152.435,0.000,-107.910,3.906,28.320,-78.613
1692210152.439,-8.301,-94.238,1.953,10.742,9.277
1692210152.443,-3.906,-88.867,6.836,0.977,243.164
1692210152.446,-16.113,-95.215,-5.371,0.488,151.855
1692210152.450,-19.531,-97.656,-13.672,0.977,-144.043
1692210152.454,2.441,-97.168,3.418,18.066,-104.980
1692210152.458,10.254,-85.449,24.902,29.785,-61.035
1692210152.462,-11.230,-83.984,16.113,13.672,-49.316
1692210152.463,-28.809,-94.727,2.930,-4.395,-96.191
1692210152.467,-22.461,-98.145,1.465,8.789,-129.883
1692210152.471,-12.695,-99.609,-6.836,19.043,-40.527
1692210152.475,-15.625,-96.191,-8.301,8.789,-30.762
1692210152.479,-29.297,-98.633,-0.488,-11.719,-99.121
1692210152.483,-41.992,-105.957,-4.395,-30.273,51.758
1692210152.487,-35.156,-100.586,-14.160,-8.301,496.094
1692210152.490,-14.160,-94.727,-10.742,22.461,225.586
1692210152.494,-3.418,-99.121,-7.324,11.719,-170.410
1692210152.498,-12.695,-94.238,-10.254,0.977,-157.715
1692210152.502,-20.508,-95.215,-10.742,3.906,-147.949
1692210152.506,-14.648,-105.469,-5.859,-2.441,-152.832
1692210152.522,-1.953,-94.238,4.395,11.230,-176.758
1692210152.526,2.930,-83.984,4.395,14.648,-47.852
1692210152.530,-4.395,-90.820,-4.395,-6.836,29.785
1692210152.534,-16.602,-98.633,-3.906,-15.625,-159.180
1692210152.538,-18.555,-95.703,-4.395,-0.488,-217.285
1692210152.542,-1.953,-89.844,-6.836,26.855,221.191
1692210152.546,7.324,-90.332,-5.371,25.879,326.660
1692210152.549,0.000,-91.309,-9.277,-2.930,-82.520
1692210152.553,-10.254,-99.121,-10.742,-18.555,-175.293
1692210152.557,-8.301,-95.703,1.953,-8.789,-50.781
1692210152.561,6.348,-82.520,4.883,9.766,-80.566
1692210152.565,22.949,-87.891,-2.930,14.160,-162.598
1692210152.567,14.648,-96.191,0.488,1.465,-43.945
1692210152.571,-5.859,-94.238,1.953,-19.531,-30.273
1692210152.575,-9.766,-96.191,0.977,-8.301,-82.031
1692210152.579,1.465,-102.539,-1.953,15.625,-67.871
1692210152.583,18.555,-104.980,-10.742,26.855,110.352
1692210152.587,13.672,-101.562,-8.301,18.555,338.379
1692210152.591,-19.043,-91.309,-1.953,-8.789,79.102
1692210152.594,-39.551,-87.402,-13.184,-24.902,-143.066
1692210152.598,-23.438,-99.121,-20.996,-13.672,60.547
1692210152.602,-11.719,-99.609,-3.906,4.883,195.312
1692210152.606,-15.137,-95.703,0.000,-6.836,-83.984
1692210152.610,-23.438,-97.168,-8.789,-25.391,-178.711
1692210152.613,-29.297,-98.145,-0.977,-21.484,-116.211
1692210152.617,-20.508,-99.609,4.395,-2.930,-114.258
1692210152.621,-12.695,-98.633,2.441,6.348,-147.461
1692210152.625,-13.672,-103.516,1.465,-5.859,-90.820
1692210152.629,-30.273,-112.305,-1.465,-21.484,-34.180
1692210152.633,-38.086,-107.422,-2.441,-15.625,-49.316
1692210152.637,-22.461,-96.680,2.441,12.207,-47.363
1692210152.640,-3.906,-98.633,1.953,23.438,1.953
1692210152.644,-0.977,-101.074,-2.441,15.137,286.621
1692210152.648,-15.137,-97.168,2.930,-0.977,298.340
1692210152.652,-15.137,-96.680,-2.930,-13.184,-146.973
1692210152.656,-4.883,-96.680,-10.254,9.277,-171.875
1692210152.657,6.348,-91.797,-2.441,34.668,-20.996
1692210152.661,12.207,-95.703,4.395,31.250,-56.152
1692210152.665,3.906,-100.098,6.836,13.672,-141.113
1692210152.669,-6.836,-97.168,0.977,-4.395,-12.695
1692210152.673,0.977,-96.680,-5.859,2.930,54.199
1692210152.677,19.531,-96.680,-2.441,25.879,-7.812
1692210152.681,15.137,-84.961,-3.418,15.625,-6.348
1692210152.684,-1.465,-67.383,-5.371,-9.277,96.680
1692210152.688,-11.719,-60.059,-3.418,-11.719,341.309
1692210152.692,-0.488,-61.035,-2.930,5.859,146.484
1692210152.696,0.488,-66.406,-7.324,20.508,-143.555
1692210152.700,-9.277,-73.730,-12.207,15.625,-52.734
1692210152.704,-15.137,-78.125,-3.906,-6.836,-22.461
1692210152.708,-40.527,-83.984,-0.488,-31.738,-137.207
1692210152.712,-41.016,-88.379,-0.488,-21.484,-135.742
1692210152.716,-14.648,-78.125,-0.977,8.301,-54.688
1692210152.720,0.000,-69.336,-3.906,17.090,-6.836
1692210152.724,-12.207,-87.402,-2.930,-8.789,16.602
1692210152.728,-25.391,-104.492,-5.371,-27.344,-3.906
1692210152.731,-32.227,-107.422,-3.418,-15.625,222.656
1692210152.735,-22.461,-98.145,2.441,2.441,173.340
1692210152.739,-5.371,-86.914,0.977,4.883,-153.320
1692210152.743,-13.672,-83.008,3.906,-9.766,-112.305
1692210152.747,-37.598,-87.402,3.906,-30.273,-12.207
1692210152.747,-41.504,-90.820,-3.906,-24.414,-56.152
1692210152.751,-33.203,-86.914,-14.160,-7.812,-152.832
1692210152.755,-23.926,-83.984,-11.230,5.371,-18.066
1692210152.759,-16.113,-93.262,-2.441,4.395,127.930
1692210152.763,-24.902,-99.609,2.930,-15.625,1.953
1692210152.767,-23.438,-91.797,5.371,-18.066,-72.266
1692210152.771,-8.789,-92.773,-1.953,10.742,137.695
1692210152.774,-1.953,-97.168,-4.395,29.785,445.801
1692210152.778,10.254,-95.215,3.906,24.414,187.500
1692210152.782,9.766,-94.727,7.324,7.812,-160.645
1692210152.786,-9.766,-95.703,0.488,-6.836,-125.488
1692210152.790,-9.277,-96.191,-0.488,10.742,-91.309
1692210152.795,9.277,-94.727,3.906,30.273,-132.324
1692210152.799,1.465,-101.562,0.000,13.184,-125.000
1692210152.803,-23.438,-109.375,-11.230,-22.949,-32.227
1692210152.807,-30.762,-108.398,-16.113,-34.180,-73.730
1692210152.811,-29.297,-110.352,-11.230,-9.277,-149.414
1692210152.815,-26.855,-111.328,-8.789,8.789,-83.008
1692210152.819,-16.113,-115.234,-5.371,9.277,359.375
1692210152.822,-22.949,-114.258,0.977,-11.230,339.844
1692210152.826,-34.668,-106.445,2.930,-25.879,-159.668
1692210152.830,-40.527,-104.980,6.836,-13.184,-113.770
1692210152.834,-34.180,-108.887,7.812,8.301,12.695
1692210152.838,-25.391,-111.816,-2.930,4.883,-78.613
1692210152.837,-36.621,-110.840,-9.766,-23.438,-140.625
1692210152.841,-52.734,-113.281,-10.254,-38.574,-87.891
1692210152.845,-45.410,-110.840,-7.324,-22.949,-68.359
1692210152.849,-24.414,-104.492,-2.441,-2.441,4.395
1692210152.853,-24.414,-111.816,-11.719,-11.230,46.387
1692210152.857,-40.039,-110.840,-19.043,-29.297,10.254
1692210152.861,-41.504,-95.215,-4.883,-30.273,387.695
1692210152.864,-32.227,-99.609,-1.953,-21.484,360.352
1692210152.868,-22.949,-113.281,-5.371,-13.184,-110.840
1692210152.872,-24.414,-115.234,-1.465,-17.090,-163.574
1692210152.876,-33.203,-112.793,-0.488,-28.320,-152.344
1692210152.880,-46.387,-114.746,0.977,-37.598,-166.016
1692210152.884,-49.805,-113.770,-1.953,-32.227,-141.602
1692210152.888,-22.949,-109.375,-11.719,-8.301,-71.289
1692210152.892,-11.230,-106.445,-9.766,2.930,-56.152
1692210152.896,-22.461,-97.656,-2.441,-6.836,-134.277
1692210152.900,-29.785,-95.703,2.930,-25.879,-175.293
1692210152.904,-32.715,-105.469,3.418,-27.344,1.465
1692210152.908,-26.367,-111.328,-3.418,-8.301,65.430
1692210152.911,-17.578,-114.258,-0.488,0.488,-10.254
1692210152.915,-19.531,-111.328,1.465,-12.207,-78.125
1692210152.919,-27.832,-109.375,-5.371,-26.855,144.531
1692210152.923,-30.273,-110.840,-4.883,-34.668,148.438
1692210152.927,-20.508,-111.328,3.418,-11.719,-177.246
1692210152.942,-8.789,-104.492,9.766,7.812,-107.910
1692210152.946,-5.371,-102.051,0.977,-7.324,-34.668
1692210152.950,-20.020,-108.887,-6.836,-22.461,-133.301
1692210152.954,-34.180,-109.863,-4.883,-21.484,-122.070
1692210152.958,-28.809,-112.305,-1.953,-1.953,127.930
1692210152.962,-24.902,-115.234,-2.930,7.324,264.648
1692210152.966,-23.438,-107.422,1.465,-6.348,47.363
1692210152.969,-34.668,-105.469,5.859,-31.250,-162.109
1692210152.973,-46.387,-111.328,3.418,-35.156,3.906
1692210152.977,-41.504,-110.840,4.395,-14.160,160.156
1692210152.981,-30.762,-107.422,3.906,2.930,-65.918
1692210152.985,-22.461,-107.422,2.930,3.418,-146.973
1692210153.002,-33.691,-110.840,-7.324,-11.719,-15.625
1692210153.006,-44.434,-104.492,-8.789,-14.648,-25.391
1692210153.010,-36.133,-97.168,0.977,0.000,-166.992
1692210153.014,-20.020,-101.074,2.441,13.672,-103.516
1692210153.018,-12.207,-105.957,0.977,7.812,-9.766
1692210153.022,-29.297,-106.445,-4.883,-12.207,-30.273
1692210153.026,-39.062,-104.004,-2.930,-17.090,-106.445
1692210153.029,-25.391,-101.562,8.789,-3.906,-86.914
1692210153.033,-15.625,-104.980,5.859,18.066,195.312
1692210153.037,-17.090,-104.004,1.953,15.137,166.992
1692210153.041,-20.020,-91.309,-2.930,-17.578,-170.410
1692210153.045,-21.484,-89.844,-8.789,-26.367,-110.840
1692210153.032,-23.926,-96.680,-14.648,-12.207,-39.551
1692210153.036,-5.371,-95.215,-6.348,7.324,-120.117
1692210153.040,12.207,-98.633,-0.977,16.113,-162.598
1692210153.044,4.395,-98.145,-4.883,0.000,55.176
1692210153.048,-9.766,-93.750,0.488,-16.602,236.816
1692210153.052,-25.879,-100.586,-5.371,-13.672,-9.277
1692210153.056,-21.973,-102.051,-13.184,11.719,-111.816
1692210153.059,-7.324,-95.703,-3.906,18.555,-20.508
1692210153.063,-12.695,-100.586,8.789,-8.301,-81.055
1692210153.067,-29.785,-107.910,5.371,-30.273,-183.594
1692210153.071,-34.180,-100.098,-1.953,-27.344,-216.309
1692210153.075,-29.785,-98.145,-1.465,-2.930,55.176
1692210153.080,-18.555,-99.121,-0.488,3.906,271.973
1692210153.084,-17.090,-99.121,0.488,-16.602,-30.762
1692210153.088,-40.527,-102.051,-6.348,-34.668,-113.281
1692210153.092,-45.410,-108.398,-13.672,-34.180,-27.344
1692210153.096,-28.809,-111.328,-11.719,-9.766,-33.203
1692210153.100,-14.160,-102.539,-4.883,3.906,-46.387
1692210153.104,-12.207,-95.215,1.465,-6.836,87.402
1692210153.107,-33.691,-103.027,-3.906,-25.391,314.941
1692210153.111,-44.434,-104.980,-11.230,-30.762,143.555
1692210153.115,-28.809,-99.121,-15.137,-11.719,-214.844
1692210153.119,-6.836,-102.051,-9.277,6.836,-149.902
1692210153.123,-8.301,-103.516,1.953,3.418,-79.590
1692210153.122,-21.973,-99.121,1.465,-18.555,-166.016
1692210153.126,-28.320,-89.355,9.766,-21.484,-201.172
1692210153.130,-26.367,-92.773,6.348,-11.230,-123.535
1692210153.134,-27.344,-108.887,-12.695,-12.695,-26.367
1692210153.138,-28.809,-108.887,-6.348,-16.113,21.973
1692210153.142,-33.691,-102.051,-1.465,-30.273,-9.277
1692210153.146,-38.574,-100.586,-3.906,-34.180,119.141
1692210153.149,-35.645,-95.215,-2.930,-15.137,468.262
1692210153.153,-20.508,-90.332,-4.395,0.000,502.441
1692210153.157,-16.602,-91.309,1.465,-2.441,466.797
1692210153.161,-28.809,-96.680,4.883,-24.902,127.441
1692210153.165,-37.598,-97.168,1.465,-39.551,-266.602
1692210153.168,-33.691,-95.703,-3.418,-28.809,-230.469
1692210153.172,-20.020,-97.168,-0.488,-11.719,-245.117
1692210153.176,-15.625,-98.145,7.324,-4.395,-6.348
1692210153.180,-25.391,-97.656,5.371,-20.996,64.941
1692210153.184,-36.621,-96.191,-2.930,-40.039,-215.332
1692210153.188,-29.297,-94.727,-3.418,-28.809,-107.422
1692210153.192,-13.672,-92.773,-0.488,0.000,266.602
1692210153.195,-10.742,-87.891,4.395,0.977,266.113
1692210153.199,-19.043,-85.938,4.883,-19.043,-135.254
1692210153.203,-33.691,-84.473,3.418,-31.250,-245.605
1692210153.207,-37.598,-94.727,0.488,-20.508,-92.773
1692210153.211,-26.855,-102.539,-10.254,-6.836,-130.859
1692210153.212,-16.113,-98.145,-10.742,-13.184,-210.449
1692210153.216,-34.180,-98.633,-0.977,-37.598,-156.738
1692210153.220,-49.805,-103.516,-1.465,-46.387,-119.141
1692210153.224,-42.480,-104.492,-3.418,-29.785,-94.727
1692210153.228,-36.621,-105.469,-3.906,-22.461,-150.391
1692210153.232,-22.461,-104.492,1.953,-14.648,43.945
1692210153.236,-29.297,-103.027,-0.488,-14.160,485.840
1692210153.239,-41.016,-95.703,-13.672,-28.320,187.012
1692210153.243,-39.551,-92.285,-9.766,-22.949,-216.309
1692210153.247,-33.691,-97.656,1.953,4.395,-101.074
1692210153.251,-18.066,-94.238,6.348,7.812,-36.621
1692210153.255,-16.602,-97.656,4.883,-11.230,-152.344
1692210153.272,-32.715,-104.492,-0.977,-25.879,-211.914
1692210153.276,-42.969,-103.027,-8.301,-29.785,-80.566
1692210153.280,-34.668,-105.957,-5.371,-21.484,-28.809
1692210153.284,-16.113,-105.469,2.930,-1.465,-151.855
1692210153.288,-15.625,-98.145,1.953,-6.836,-85.449
1692210153.292,-27.832,-96.191,1.953,-33.203,35.645
1692210153.296,-37.109,-97.656,1.465,-35.156,-42.480
1692210153.299,-36.133,-100.098,-8.301,-17.578,-127.930
1692210153.303,-30.762,-94.727,-6.348,-13.184,-107.422
1692210153.307,-29.297,-93.750,1.465,-22.949,97.168
1692210153.311,-37.109,-93.262,-8.301,-37.109,28.809
1692210153.315,-46.875,-92.773,-15.137,-51.270,-205.566
1692210153.317,-44.434,-97.656,-14.648,-42.969,-13.672
1692210153.321,-26.855,-94.238,-17.090,-20.508,192.383
1692210153.325,-28.320,-97.656,-17.578,-23.926,3.418
1692210153.329,-32.227,-100.586,-8.301,-40.039,-54.688
1692210153.333,-35.645,-94.727,-10.742,-45.410,153.809
1692210153.337,-39.551,-94.727,-25.879,-34.180,280.273
1692210153.341,-30.273,-86.426,-21.973,-19.531,105.957
1692210153.344,-22.949,-81.543,-9.277,-19.531,-108.398
1692210153.348,-34.668,-90.820,-6.348,-34.668,-50.781
1692210153.352,-62.500,-95.215,-9.277,-53.223,94.238
1692210153.356,-57.617,-100.586,-11.230,-44.922,-113.281
1692210153.360,-42.480,-100.586,-16.113,-18.066,-173.828
1692210153.362,-26.855,-88.379,-13.184,-12.207,-111.816
1692210153.366,-29.785,-89.355,-5.859,-26.855,-96.191
1692210153.370,-44.922,-93.262,4.883,-42.480,-66.406
1692210153.374,-39.062,-84.961,7.324,-34.180,-10.254
1692210153.378,-38.086,-88.379,-7.812,-18.555,50.293
1692210153.382,-37.109,-96.680,-13.672,-23.438,115.723
1692210153.386,-41.016,-98.633,-1.953,-44.922,19.043
1692210153.389,-47.852,-98.633,-4.395,-57.617,-154.785
1692210153.393,-50.293,-95.703,-8.301,-44.434,107.910
1692210153.397,-45.410,-97.656,-2.441,-33.203,188.965
1692210153.401,-25.879,-100.098,-1.953,-23.438,-126.953
1692210153.405,-32.227,-105.469,-1.465,-24.414,-83.984
1692210153.422,-59.570,-112.305,-10.742,-54.688,-52.734
1692210153.426,-68.848,-116.699,-15.625,-66.895,-108.887
1692210153.430,-55.664,-117.676,-13.184,-49.805,-152.832
1692210153.434,-39.062,-110.352,-3.906,-27.344,9.277
1692210153.438,-34.180,-109.863,-1.953,-27.344,121.094
1692210153.442,-39.062,-110.352,-8.789,-49.805,0.000
1692210153.446,-39.062,-103.027,-6.836,-45.898,-30.273
1692210153.449,-27.832,-100.586,-8.301,-20.508,119.141
1692210153.453,-16.113,-100.586,-9.277,-1.953,429.688
1692210153.457,-14.160,-105.469,-14.160,-5.371,138.672
1692210153.461,-14.160,-108.398,-9.277,-8.301,-218.750
1692210153.465,-9.277,-92.773,-3.906,-14.160,-216.797
1692210153.453,-18.555,-79.590,-12.207,-27.832,-194.824
1692210153.457,-27.344,-91.309,-15.137,-24.414,-171.875
1692210153.461,-23.926,-98.145,-16.602,-22.461,-148.926
1692210153.465,-39.551,-101.074,-15.625,-43.457,-157.227
1692210153.469,-52.734,-105.957,-9.766,-56.152,-171.875
1692210153.473,-46.387,-103.027,-0.488,-40.527,-82.031
1692210153.477,-37.109,-102.539,-2.441,-23.926,20.508
1692210153.480,-38.086,-103.516,-5.371,-26.855,108.398
1692210153.484,-45.410,-98.145,-2.441,-34.668,55.176
1692210153.488,-47.363,-100.098,-4.883,-39.551,-65.918
1692210153.492,-42.969,-101.074,-8.301,-27.344,-76.172
1692210153.496,-27.832,-97.656,0.977,0.977,300.781
1692210153.497,-9.277,-96.680,1.953,2.930,313.477
1692210153.501,-16.602,-94.238,-1.953,-13.184,-101.562
1692210153.505,-32.715,-97.168,3.418,-31.250,-121.582
1692210153.509,-44.922,-103.027,0.000,-29.297,-30.762
1692210153.513,-41.992,-104.980,-2.930,-10.254,-45.410
1692210153.517,-25.879,-104.492,-3.418,-12.207,-90.332
1692210153.521,-39.062,-105.469,-6.348,-35.645,84.961
1692210153.524,-48.828,-104.492,-9.766,-48.340,407.227
1692210153.528,-42.969,-96.680,-6.348,-39.551,175.781
1692210153.532,-35.156,-99.121,-6.836,-28.809,-152.832
1692210153.536,-26.855,-102.539,-9.766,-26.367,-15.625
1692210153.540,-32.715,-108.398,-11.230,-41.016,-59.082
1692210153.544,-37.598,-112.305,-14.160,-51.758,-166.016
1692210153.548,-35.645,-103.516,-12.207,-36.133,-152.832
1692210153.552,-31.250,-101.074,-18.555,-23.438,-105.957
1692210153.556,-32.227,-105.957,-19.043,-26.367,-68.359
1692210153.560,-34.180,-102.539,-10.254,-35.156,-108.398
1692210153.564,-43.457,-101.562,-10.254,-52.246,-50.781
1692210153.568,-51.270,-106.934,-5.859,-39.551,303.711
1692210153.571,-33.691,-103.516,-6.348,-12.207,272.461
1692210153.575,-21.973,-102.051,-8.301,-11.719,-131.348
1692210153.579,-30.273,-108.398,-5.371,-31.738,-122.559
1692210153.583,-45.410,-104.004,-6.348,-47.852,-83.496
1692210153.587,-49.316,-102.539,-6.836,-40.527,-181.641
1692210153.602,-35.645,-107.422,-6.348,-18.555,-171.875
1692210153.606,-25.879,-104.492,-8.789,-6.836,-33.203
1692210153.610,-31.738,-98.633,-11.230,-12.695,-7.324
1692210153.614,-37.109,-103.027,-4.883,-19.531,-82.520
1692210153.618,-43.945,-110.840,-9.766,-27.344,-143.066
1692210153.622,-44.922,-109.863,-12.207,-21.484,11.230
1692210153.626,-32.715,-104.004,-5.859,-3.418,400.879
1692210153.629,-30.762,-103.516,-12.207,-20.996,153.320
1692210153.633,-39.062,-109.375,-12.207,-46.875,-251.465
1692210153.637,-50.781,-112.305,-5.371,-45.898,-239.746
1692210153.641,-51.270,-114.746,-4.395,-30.762,-219.727
1692210153.645,-33.203,-111.328,-4.883,-13.672,-214.355
1692210153.634,-26.367,-104.004,-3.418,-20.996,-188.965
1692210153.638,-36.621,-103.516,0.000,-48.340,-114.258
1692210153.642,-45.410,-105.957,1.465,-48.828,-126.953
1692210153.646,-46.387,-114.258,1.953,-35.645,-161.133
1692210153.650,-34.180,-125.488,3.906,-23.438,-109.863
