timestamps,TP9,AF7,AF8,TP10,Right AUX
1689610501.735,-42.969,-29.785,-38.086,-44.434,-188.965
1689610501.739,-41.504,-29.297,-34.668,-35.156,-23.926
1689610501.743,-37.598,-35.156,-31.738,-37.109,71.289
1689610501.747,-38.574,-40.527,-33.691,-42.480,-97.168
1689610501.751,-41.992,-36.621,-31.250,-43.945,-150.391
1689610501.755,-35.645,-31.250,-38.086,-46.875,28.320
1689610501.759,-31.738,-33.691,-41.504,-41.504,104.492
1689610501.762,-33.691,-36.621,-30.273,-28.809,-57.617
1689610501.766,-24.902,-34.180,-24.414,-22.949,-145.508
1689610501.770,-23.438,-34.180,-27.832,-19.043,66.895
1689610501.774,-26.855,-33.691,-25.879,-20.996,96.191
1689610501.778,-33.691,-27.832,-22.949,-30.762,-154.785
1689610501.795,-32.715,-27.832,-26.367,-29.297,14.160
1689610501.799,-31.250,-32.227,-32.227,-33.203,190.918
1689610501.803,-34.180,-35.645,-35.645,-44.434,76.172
1689610501.807,-41.016,-39.062,-33.691,-44.922,-179.688
1689610501.811,-36.133,-26.855,-29.297,-31.250,-143.555
1689610501.815,-28.320,-25.879,-25.391,-23.926,265.137
1689610501.819,-32.715,-33.203,-27.344,-27.832,185.547
1689610501.822,-41.016,-30.762,-31.738,-36.133,-190.430
1689610501.826,-46.387,-33.203,-33.203,-41.016,-145.996
1689610501.830,-49.316,-31.738,-33.203,-38.574,22.461
1689610501.834,-50.781,-26.367,-32.227,-34.668,-100.098
1689610501.838,-48.828,-34.668,-32.227,-36.133,-140.625
1689610501.839,-43.945,-36.621,-32.227,-37.109,-113.770
1689610501.843,-39.062,-30.273,-26.367,-37.109,-152.832
1689610501.847,-41.992,-39.062,-22.461,-34.180,-186.035
1689610501.851,-37.109,-33.203,-22.949,-27.344,-143.555
1689610501.855,-31.738,-25.391,-29.297,-31.250,-63.965
1689610501.859,-31.250,-29.297,-32.715,-26.367,-17.578
1689610501.863,-35.645,-27.344,-30.762,-24.902,-15.137
1689610501.866,-36.133,-26.855,-30.762,-32.715,-81.055
1689610501.870,-36.133,-23.438,-23.438,-29.297,104.492
1689610501.874,-35.645,-34.180,-24.414,-26.855,298.340
1689610501.878,-40.527,-37.598,-35.645,-35.645,-23.926
1689610501.882,-45.410,-22.949,-30.273,-38.086,-159.180
1689610501.885,-41.504,-22.949,-26.855,-39.551,-33.203
1689610501.889,-36.621,-25.879,-38.574,-47.363,-38.574
1689610501.893,-30.762,-28.809,-39.551,-45.898,-102.539
1689610501.897,-30.273,-35.156,-29.297,-43.457,-95.215
1689610501.901,-28.320,-34.180,-28.320,-46.875,-36.133
1689610501.905,-31.250,-24.902,-32.715,-43.457,-16.113
1689610501.909,-30.762,-21.484,-28.320,-35.645,-28.809
1689610501.912,-25.391,-27.832,-30.273,-33.203,24.902
1689610501.916,-28.809,-23.438,-34.668,-31.738,344.727
1689610501.920,-30.762,-24.414,-34.668,-28.809,178.711
1689610501.924,-25.391,-32.227,-31.250,-33.203,-252.441
1689610501.928,-28.809,-30.273,-29.297,-30.273,-176.270
1689610501.929,-35.156,-27.344,-29.785,-29.297,-94.238
1689610501.933,-34.668,-30.273,-29.785,-38.574,-138.184
1689610501.937,-35.645,-30.273,-29.785,-46.875,-155.273
1689610501.941,-35.156,-31.738,-33.691,-42.480,-88.379
1689610501.945,-36.621,-34.668,-29.785,-38.086,-44.922
1689610501.949,-37.598,-34.668,-27.832,-41.992,-26.367
1689610501.953,-38.574,-34.668,-27.832,-45.410,-5.371
1689610501.956,-39.551,-36.621,-26.367,-43.945,144.043
1689610501.960,-33.203,-33.691,-25.391,-38.086,200.195
1689610501.964,-28.809,-38.574,-26.367,-40.039,-86.426
1689610501.968,-31.738,-44.922,-30.762,-38.574,-166.504
1689610501.972,-31.738,-37.109,-33.691,-39.062,-41.504
1689610501.989,-27.344,-37.109,-32.715,-47.852,27.832
1689610501.993,-32.715,-37.109,-31.250,-51.758,-91.309
1689610501.997,-33.203,-34.668,-34.180,-49.316,-177.246
1689610502.001,-29.785,-40.039,-31.250,-42.969,-10.742
1689610502.005,-30.762,-37.598,-28.320,-44.434,-25.391
1689610502.009,-15.625,-32.715,-33.203,-39.551,-85.449
1689610502.013,-10.254,-38.086,-29.785,-26.367,58.594
1689610502.016,-28.320,-37.109,-21.973,-26.855,225.098
1689610502.020,-36.133,-35.645,-16.602,-30.762,28.320
1689610502.024,-41.504,-43.457,-14.160,-35.645,-186.523
1689610502.028,-41.016,-44.434,-17.090,-37.598,-119.141
1689610502.032,-35.645,-44.922,-16.113,-27.344,-167.480
1689610502.020,-41.016,-49.316,-16.113,-24.414,-146.484
1689610502.024,-38.574,-39.551,-19.043,-26.855,-148.926
1689610502.028,-24.414,-35.156,-21.973,-23.926,11.230
1689610502.032,-30.273,-40.039,-17.578,-18.555,115.234
1689610502.036,-46.875,-41.016,-16.602,-23.438,-97.656
1689610502.040,-45.410,-46.387,-22.461,-26.367,-36.621
1689610502.044,-45.898,-45.898,-17.578,-24.902,148.438
1689610502.047,-48.340,-46.387,-13.184,-21.973,95.703
1689610502.051,-40.039,-52.734,-18.066,-20.020,-97.656
1689610502.055,-32.227,-42.480,-23.926,-20.508,-260.254
1689610502.059,-33.203,-38.086,-30.762,-19.043,-22.949
1689610502.063,-37.598,-45.410,-32.227,-24.414,103.027
1689610502.064,-37.598,-44.434,-26.855,-27.344,-87.891
1689610502.068,-32.227,-36.133,-24.414,-27.832,-86.426
1689610502.072,-39.551,-36.621,-27.832,-32.227,73.730
1689610502.076,-48.340,-36.621,-30.273,-32.715,62.988
1689610502.080,-39.551,-35.156,-28.320,-37.109,-180.176
1689610502.084,-30.762,-36.621,-32.715,-35.645,-62.988
1689610502.088,-36.133,-38.574,-39.551,-31.250,396.484
1689610502.091,-40.039,-34.180,-36.133,-36.621,251.465
1689610502.095,-37.598,-36.133,-29.297,-41.992,-281.738
1689610502.099,-37.109,-36.621,-34.180,-42.480,-215.820
1689610502.103,-35.156,-27.832,-40.527,-40.527,-85.938
1689610502.107,-34.180,-27.344,-33.691,-44.434,-136.719
1689610502.124,-39.062,-31.738,-32.715,-46.387,-182.129
1689610502.128,-43.457,-37.109,-38.574,-41.504,-136.719
1689610502.132,-39.551,-36.621,-34.180,-37.109,-90.820
1689610502.136,-39.062,-33.203,-35.156,-33.691,-86.426
1689610502.140,-48.828,-33.691,-41.016,-41.992,-91.309
1689610502.144,-46.387,-30.762,-29.297,-41.504,17.090
1689610502.148,-37.598,-32.715,-24.414,-33.691,17.578
1689610502.151,-43.945,-34.180,-32.227,-38.086,-77.637
1689610502.155,-42.480,-34.668,-33.203,-39.062,-107.910
1689610502.159,-35.645,-36.621,-29.785,-30.273,35.645
1689610502.163,-41.504,-31.250,-27.832,-34.668,71.289
1689610502.167,-40.039,-27.344,-31.250,-45.898,-131.348
1689610502.169,-33.203,-27.344,-32.227,-41.016,-83.008
1689610502.173,-32.227,-25.879,-34.668,-35.645,244.629
1689610502.177,-30.762,-29.297,-38.086,-39.551,268.555
1689610502.181,-33.203,-32.715,-35.645,-46.875,-90.820
1689610502.185,-41.992,-32.715,-32.227,-42.969,-164.062
1689610502.189,-39.551,-32.227,-29.785,-33.203,-96.191
1689610502.193,-26.855,-32.227,-23.926,-25.879,-43.457
1689610502.196,-19.043,-30.762,-21.484,-20.020,9.766
1689610502.200,-31.250,-29.785,-24.902,-22.461,-4.883
1689610502.204,-42.969,-33.203,-25.879,-29.297,229.980
1689610502.208,-38.574,-33.203,-24.414,-28.809,120.117
1689610502.212,-33.691,-31.738,-27.344,-27.344,-236.328
1689610502.214,-34.668,-33.691,-32.715,-33.203,-128.906
1689610502.218,-33.203,-34.668,-33.203,-34.180,-71.289
1689610502.222,-44.434,-35.645,-30.273,-36.133,-160.156
1689610502.226,-47.852,-36.133,-24.902,-39.062,-147.949
1689610502.230,-31.738,-35.156,-23.438,-28.320,-50.781
1689610502.234,-36.621,-43.945,-23.926,-28.809,-23.926
1689610502.238,-31.250,-53.223,-23.926,-22.461,4.395
1689610502.241,-18.555,-43.457,-30.762,-20.020,-109.375
1689610502.245,-31.250,-24.414,-35.645,-39.551,72.754
1689610502.249,-46.875,-19.043,-41.016,-46.875,193.848
1689610502.253,-52.734,-22.949,-47.363,-50.781,-64.453
1689610502.257,-52.246,-24.902,-49.805,-57.617,-78.125
1689610502.259,-53.223,-23.438,-50.781,-58.594,-23.438
1689610502.263,-53.223,-17.090,-49.316,-58.594,-67.871
1689610502.267,-51.270,-14.160,-44.434,-59.082,-180.664
1689610502.271,-47.852,-20.996,-44.434,-59.082,-150.391
1689610502.275,-37.109,-22.461,-41.016,-51.758,123.535
1689610502.279,-34.668,-19.531,-33.203,-48.340,172.852
1689610502.283,-37.109,-21.484,-31.250,-48.340,-83.984
1689610502.286,-31.738,-23.438,-33.691,-43.457,-115.723
1689610502.290,-30.762,-23.438,-41.016,-41.504,63.965
1689610502.294,-39.062,-30.762,-41.016,-40.039,-49.805
1689610502.298,-36.621,-31.250,-38.086,-39.062,-236.816
1689610502.302,-39.551,-20.996,-36.133,-35.156,-68.359
1689610502.304,-41.016,-18.066,-33.203,-32.715,84.961
1689610502.308,-35.156,-21.973,-37.109,-31.250,-51.758
1689610502.312,-27.344,-25.391,-39.551,-30.273,-138.184
1689610502.316,-25.879,-20.020,-30.273,-28.320,-8.789
1689610502.320,-37.109,-23.438,-26.855,-33.691,8.301
1689610502.324,-32.715,-29.297,-28.809,-41.016,-96.191
1689610502.328,-20.508,-24.902,-28.320,-32.715,-54.199
1689610502.331,-24.414,-21.484,-32.715,-30.762,129.883
1689610502.335,-24.902,-22.949,-32.715,-41.504,233.398
1689610502.339,-23.438,-22.949,-31.250,-42.969,-78.613
1689610502.343,-33.691,-24.902,-32.227,-34.668,-187.500
1689610502.347,-31.738,-25.391,-32.715,-27.832,-21.484
1689610502.349,-21.484,-25.391,-29.785,-23.926,41.992
1689610502.353,-21.973,-26.855,-21.973,-26.367,-126.953
1689610502.357,-31.250,-25.879,-24.414,-30.273,-183.105
1689610502.361,-33.691,-25.879,-28.320,-30.273,161.133
1689610502.365,-30.273,-28.809,-24.414,-30.273,129.883
1689610502.369,-24.902,-32.227,-24.414,-25.879,-44.922
1689610502.373,-22.461,-25.879,-29.297,-23.926,60.059
1689610502.376,-27.832,-20.996,-26.367,-29.785,125.488
1689610502.380,-33.691,-25.879,-28.320,-36.133,-38.574
1689610502.384,-36.133,-34.668,-31.250,-34.668,-243.652
1689610502.388,-38.574,-32.227,-34.668,-30.273,-164.551
1689610502.392,-38.574,-25.879,-36.621,-33.203,-128.906
1689610502.394,-39.551,-27.344,-33.203,-37.109,-157.715
1689610502.398,-41.016,-32.715,-31.738,-38.086,-165.527
1689610502.402,-43.457,-35.645,-28.809,-34.668,-110.840
1689610502.406,-43.945,-34.668,-26.855,-28.809,-75.195
1689610502.410,-41.016,-38.086,-26.367,-33.691,-83.496
1689610502.414,-39.551,-38.574,-25.879,-38.574,-95.703
1689610502.418,-40.527,-34.180,-25.879,-35.156,175.293
1689610502.421,-40.039,-31.250,-28.320,-30.762,343.750
1689610502.425,-36.621,-33.691,-27.344,-32.227,-33.691
1689610502.429,-37.109,-35.645,-25.391,-34.668,-149.414
1689610502.433,-37.109,-33.203,-29.785,-38.086,-81.543
1689610502.437,-40.527,-33.691,-29.297,-39.062,-163.574
1689610502.439,-43.945,-34.668,-22.949,-30.273,-84.961
1689610502.443,-43.945,-35.156,-26.855,-31.250,28.809
1689610502.447,-41.016,-34.668,-29.297,-38.086,-2.441
1689610502.451,-37.109,-30.762,-19.531,-33.203,-79.102
1689610502.455,-31.250,-31.250,-22.949,-34.668,-191.406
1689610502.459,-25.391,-38.574,-32.715,-37.598,-91.797
1689610502.463,-28.809,-41.016,-28.809,-29.297,418.945
1689610502.466,-25.879,-32.227,-22.949,-21.973,353.516
1689610502.470,-24.902,-26.855,-24.902,-40.039,-110.352
1689610502.474,-32.227,-28.809,-28.809,-45.898,-35.156
1689610502.478,-38.086,-25.879,-29.297,-33.691,-4.883
1689610502.482,-35.645,-26.367,-27.344,-34.180,-152.832
1689610502.484,-35.645,-33.203,-28.809,-38.086,-177.246
1689610502.488,-44.434,-40.527,-31.738,-48.828,-136.719
1689610502.492,-51.758,-40.039,-28.809,-54.688,-171.387
1689610502.496,-50.781,-36.621,-26.855,-46.875,-216.309
1689610502.500,-44.434,-34.180,-27.344,-37.109,-181.641
1689610502.504,-33.203,-35.645,-20.996,-32.227,-28.809
1689610502.508,-34.668,-37.109,-20.020,-41.504,72.754
1689610502.511,-37.109,-39.551,-30.762,-55.176,-34.180
1689610502.515,-32.715,-43.945,-30.762,-52.246,-144.043
1689610502.519,-36.133,-33.691,-28.320,-41.992,122.070
1689610502.523,-33.203,-28.320,-34.180,-46.387,244.629
1689610502.527,-32.715,-31.250,-36.133,-53.711,-41.992
1689610502.544,-31.738,-28.320,-28.320,-50.781,-54.688
1689610502.548,-30.762,-33.203,-26.855,-48.828,183.105
1689610502.552,-32.227,-33.691,-29.297,-35.645,103.516
1689610502.556,-38.086,-37.598,-33.203,-23.926,-164.062
1689610502.560,-36.133,-38.574,-34.180,-30.273,-136.719
1689610502.564,-34.180,-25.391,-31.250,-34.180,-29.785
1689610502.568,-37.109,-21.484,-30.762,-39.062,-65.430
1689610502.571,-37.109,-23.438,-29.297,-45.898,-177.734
1689610502.575,-38.086,-26.855,-27.344,-37.109,-40.039
1689610502.579,-29.297,-29.297,-28.320,-29.297,42.480
1689610502.583,-33.203,-31.250,-27.832,-34.180,-77.637
1689610502.587,-49.805,-30.273,-38.086,-65.430,-198.242
1689610502.589,-54.199,-23.926,-39.551,-68.359,-5.859
1689610502.593,-47.363,-24.902,-30.762,-56.641,369.629
1689610502.597,-37.109,-21.484,-32.715,-61.523,61.523
1689610502.601,-33.203,-22.461,-33.203,-59.570,-186.035
1689610502.605,-33.691,-29.785,-35.645,-55.664,-101.074
1689610502.609,-41.016,-23.438,-28.320,-47.363,-61.523
1689610502.613,-33.203,-19.043,-20.508,-34.668,-60.059
1689610502.616,-24.902,-24.902,-26.855,-39.062,-183.105
1689610502.620,-35.645,-33.203,-31.738,-49.316,13.184
1689610502.624,-40.527,-29.297,-32.227,-41.992,185.059
1689610502.628,-38.574,-24.414,-28.320,-33.203,-104.492
1689610502.632,-32.715,-30.762,-26.855,-31.250,-102.539
1689610502.634,-25.879,-30.273,-26.367,-27.344,84.473
1689610502.638,-30.762,-26.367,-23.926,-25.391,-11.230
1689610502.642,-38.574,-32.715,-25.391,-30.762,-194.336
1689610502.646,-41.016,-30.273,-27.344,-29.785,-93.750
1689610502.650,-40.039,-20.508,-34.180,-22.461,154.785
1689610502.654,-35.156,-20.508,-36.621,-20.508,163.574
1689610502.658,-39.551,-21.484,-31.738,-33.203,-55.664
1689610502.661,-42.480,-21.484,-27.832,-35.645,-135.254
1689610502.665,-32.715,-23.926,-22.461,-26.367,101.562
1689610502.669,-24.414,-24.902,-23.438,-33.203,40.527
1689610502.673,-18.555,-21.973,-20.996,-34.180,-143.066
1689610502.677,-25.391,-21.484,-19.043,-27.832,-107.910
1689610502.679,-33.203,-21.973,-24.414,-41.016,-150.391
1689610502.683,-35.156,-22.949,-28.809,-44.434,-201.660
1689610502.687,-33.691,-27.344,-29.785,-35.645,-165.527
1689610502.691,-24.902,-26.367,-29.785,-41.992,-69.824
1689610502.695,-20.020,-29.297,-33.203,-46.387,-84.961
1689610502.699,-32.227,-36.133,-34.180,-41.016,-80.078
1689610502.703,-34.668,-36.621,-37.109,-40.039,-75.684
1689610502.706,-30.273,-31.738,-39.551,-36.133,157.227
1689610502.710,-23.438,-21.973,-34.668,-17.578,391.602
1689610502.714,-18.066,-18.555,-26.855,-19.531,14.160
1689610502.718,-26.855,-22.949,-28.320,-28.809,-216.309
1689610502.722,-26.855,-26.855,-32.227,-27.344,-145.508
1689610502.724,-25.879,-29.785,-25.391,-17.090,-0.488
1689610502.728,-18.066,-28.809,-22.949,-14.160,-24.414
1689610502.732,-19.043,-28.320,-34.180,-16.113,-125.000
1689610502.736,-31.738,-33.203,-32.715,-17.578,-17.578
1689610502.740,-28.320,-35.645,-32.715,-39.062,-64.941
1689610502.744,-28.320,-36.133,-35.156,-45.898,-135.254
1689610502.748,-18.066,-34.180,-30.762,-26.855,20.508
1689610502.751,-16.602,-31.250,-31.738,-22.949,243.164
1689610502.755,-27.344,-31.738,-22.461,-26.855,95.215
1689610502.759,-25.879,-29.785,-15.137,-24.414,-222.656
1689610502.763,-23.926,-32.227,-21.973,-17.090,-100.586
1689610502.767,-20.996,-37.598,-23.438,-7.812,71.777
1689610502.769,-21.484,-38.086,-20.508,-9.277,-112.793
1689610502.773,-26.367,-30.762,-26.855,-22.949,-220.215
1689610502.777,-33.691,-30.273,-30.273,-42.480,-104.492
1689610502.781,-33.203,-33.203,-28.809,-45.898,-40.039
1689610502.785,-30.762,-33.691,-30.273,-34.180,-75.195
1689610502.789,-29.297,-31.250,-25.879,-32.715,-78.125
1689610502.793,-25.879,-34.180,-24.902,-38.574,248.535
1689610502.796,-29.297,-34.180,-26.855,-24.414,351.562
1689610502.800,-52.246,-29.785,-23.926,-32.715,-59.082
1689610502.804,-67.871,-40.039,-16.602,-52.734,-154.785
1689610502.808,-81.055,-46.387,-16.602,-59.570,-75.195
1689610502.812,-89.355,-42.480,-21.484,-72.266,-84.473
1689610502.814,-95.215,-41.504,-18.555,-84.961,-104.980
1689610502.818,-97.656,-44.922,-18.555,-93.262,-118.652
1689610502.822,-94.238,-44.922,-23.438,-85.938,109.863
1689610502.826,-90.332,-41.992,-20.508,-74.707,179.199
1689610502.830,-84.473,-37.598,-20.508,-72.754,-162.109
1689610502.834,-73.242,-29.785,-25.879,-73.730,-151.367
1689610502.838,-61.523,-27.344,-30.273,-69.336,172.852
1689610502.841,-63.477,-33.203,-29.297,-50.781,84.473
1689610502.845,-59.082,-33.691,-31.250,-40.039,-175.293
1689610502.849,-54.199,-29.297,-32.715,-49.316,-114.258
1689610502.853,-43.945,-24.414,-30.762,-59.082,-106.445
1689610502.857,-38.086,-26.367,-32.227,-54.199,-176.270
1689610502.860,-41.016,-33.203,-30.762,-42.480,-181.641
1689610502.864,-40.527,-31.738,-30.273,-32.715,31.738
1689610502.868,-40.527,-30.273,-26.855,-34.180,70.312
1689610502.872,-41.016,-34.668,-20.996,-43.457,-199.707
1689610502.876,-40.039,-33.203,-20.996,-41.504,-193.848
1689610502.880,-33.203,-34.180,-30.762,-35.156,123.535
1689610502.884,-31.738,-37.109,-40.039,-28.320,209.961
1689610502.887,-40.039,-40.527,-32.227,-35.645,-38.574
1689610502.891,-39.551,-37.109,-27.344,-46.387,-184.082
1689610502.895,-36.133,-31.738,-30.273,-32.715,-49.316
1689610502.899,-30.762,-29.785,-25.391,-27.832,26.855
1689610502.903,-17.090,-25.391,-20.996,-24.414,-97.168
1689610502.919,-19.531,-23.926,-21.484,-19.043,-72.266
1689610502.923,-22.949,-19.531,-25.391,-31.738,183.594
1689610502.927,-22.461,-17.090,-23.438,-41.504,162.109
1689610502.931,-25.879,-29.297,-20.508,-38.086,-146.484
1689610502.935,-24.414,-27.832,-27.344,-26.855,-102.051
1689610502.939,-24.414,-22.949,-25.391,-22.949,227.539
1689610502.943,-26.367,-22.461,-22.461,-25.879,166.016
1689610502.946,-25.879,-19.531,-24.902,-30.762,-175.293
1689610502.950,-24.414,-22.461,-22.949,-21.973,-110.840
1689610502.954,-19.531,-25.391,-23.926,-13.184,65.918
1689610502.958,-17.090,-25.391,-22.949,-20.508,-54.199
1689610502.962,-27.344,-24.414,-23.926,-26.367,-138.184
1689610502.964,-30.273,-27.832,-25.391,-28.809,-37.109
1689610502.968,-25.879,-29.297,-26.367,-25.391,3.418
1689610502.972,-30.762,-28.320,-29.785,-20.020,-102.051
1689610502.976,-24.414,-27.344,-31.250,-20.508,-126.465
1689610502.980,-14.648,-26.367,-27.344,-27.832,-72.266
1689610502.984,-26.367,-27.832,-27.832,-42.969,-54.199
1689610502.988,-32.715,-30.273,-29.785,-43.945,-32.715
1689610502.991,-21.484,-33.691,-28.320,-39.551,-28.809
1689610502.995,-15.137,-34.180,-21.973,-30.273,128.418
1689610502.999,-17.578,-28.320,-20.508,-20.020,263.672
1689610503.003,-11.719,-20.508,-27.832,-23.438,-91.797
1689610503.007,-17.090,-16.113,-22.461,-23.926,-260.254
1689610503.009,-27.832,-24.414,-20.996,-20.996,-21.973
1689610503.013,-26.855,-29.785,-27.344,-18.066,1.465
1689610503.017,-25.879,-27.344,-27.344,-20.020,-194.824
1689610503.021,-27.344,-26.367,-25.879,-20.508,-235.840
1689610503.025,-27.344,-26.367,-28.809,-18.066,-117.188
1689610503.029,-31.738,-29.785,-33.203,-10.742,-9.766
1689610503.033,-36.133,-34.180,-36.133,-9.766,-2.930
1689610503.036,-35.156,-35.156,-41.992,-26.367,-77.637
1689610503.040,-37.109,-35.156,-44.434,-31.738,154.297
1689610503.044,-38.574,-33.203,-40.527,-27.832,121.094
1689610503.048,-37.598,-31.738,-35.645,-39.062,-235.352
1689610503.052,-28.320,-35.645,-34.180,-41.992,-54.199
1689610503.054,-25.879,-34.668,-32.227,-41.504,57.617
1689610503.058,-32.715,-32.715,-28.809,-42.480,-172.363
1689610503.062,-29.785,-29.297,-24.414,-23.926,-197.266
1689610503.066,-24.902,-25.391,-26.855,-22.461,-68.848
1689610503.070,-20.996,-28.320,-29.297,-35.156,-53.711
1689610503.074,-27.832,-30.273,-25.391,-41.504,-56.641
1689610503.078,-36.133,-31.738,-21.484,-41.504,-41.992
1689610503.081,-36.621,-32.227,-26.855,-37.598,117.188
1689610503.085,-39.551,-37.598,-34.668,-40.039,225.098
1689610503.089,-41.504,-40.039,-28.320,-40.039,-30.273
1689610503.093,-37.598,-38.574,-25.391,-38.086,-104.980
1689610503.097,-38.086,-35.645,-31.250,-42.969,-39.551
1689610503.099,-34.668,-32.715,-29.785,-42.969,-40.039
1689610503.103,-27.832,-28.809,-30.273,-28.809,-59.570
1689610503.107,-29.297,-31.738,-29.785,-22.461,-104.004
1689610503.111,-41.016,-35.645,-28.320,-35.156,173.828
1689610503.115,-43.945,-27.832,-30.273,-38.086,161.621
1689610503.119,-37.109,-26.367,-29.297,-35.645,-170.898
1689610503.123,-31.250,-31.250,-29.785,-36.133,-48.828
1689610503.126,-24.414,-33.203,-30.762,-35.156,229.492
1689610503.130,-26.855,-34.668,-36.133,-44.434,93.262
1689610503.134,-30.273,-36.621,-40.527,-52.734,-240.723
1689610503.138,-30.762,-32.227,-33.203,-48.828,-220.215
1689610503.142,-31.250,-28.809,-35.645,-44.922,-129.395
1689610503.145,-31.738,-31.738,-37.109,-42.480,-116.699
1689610503.149,-38.574,-31.738,-36.133,-38.086,-134.766
1689610503.153,-45.898,-39.062,-36.621,-38.086,14.648
1689610503.157,-42.480,-41.016,-33.203,-40.039,24.902
1689610503.161,-36.621,-32.715,-32.715,-42.480,-177.734
1689610503.165,-33.691,-25.879,-27.832,-39.062,-183.594
1689610503.169,-26.367,-22.949,-27.344,-22.461,140.625
1689610503.172,-19.043,-25.391,-31.738,-12.207,273.438
1689610503.176,-8.301,-21.973,-31.250,-13.672,-97.656
1689610503.180,-10.742,-18.555,-30.762,-16.113,-174.316
1689610503.184,-15.625,-14.160,-36.621,-25.879,-87.402
1689610503.188,-13.184,-14.648,-33.203,-22.949,-16.602
1689610503.189,-11.230,-18.555,-25.879,-16.602,-13.672
1689610503.193,-16.113,-21.484,-25.391,-20.020,-86.914
1689610503.197,-18.066,-20.508,-25.879,-9.766,3.418
1689610503.201,-12.207,-19.531,-23.926,4.883,-10.254
1689610503.205,-8.789,-22.461,-23.926,-3.906,-47.852
1689610503.209,-10.742,-23.926,-31.738,-17.090,45.410
1689610503.213,-9.277,-24.902,-33.203,-13.184,291.992
1689610503.216,-16.113,-23.926,-28.320,-17.578,215.820
1689610503.220,-20.020,-23.438,-29.297,-17.578,-190.918
1689610503.224,-15.137,-24.902,-25.391,-10.254,-140.137
1689610503.228,-25.391,-28.320,-27.832,-18.066,-97.168
1689610503.232,-26.855,-27.344,-31.738,-27.832,-204.102
1689610503.251,-20.996,-26.855,-29.297,-24.902,-224.609
1689610503.255,-22.461,-27.832,-31.738,-20.020,-110.840
1689610503.259,-14.160,-28.809,-32.715,-22.949,-40.527
1689610503.263,-18.066,-28.320,-36.133,-34.668,-119.141
1689610503.267,-29.785,-27.832,-35.645,-38.086,-185.547
1689610503.271,-24.414,-26.855,-29.785,-36.621,66.895
1689610503.275,-21.484,-23.926,-30.762,-35.645,76.660
1689610503.278,-18.066,-27.832,-36.621,-39.551,-47.363
1689610503.282,-21.973,-27.344,-37.598,-51.758,-90.332
1689610503.286,-32.227,-23.926,-39.062,-57.129,52.734
1689610503.290,-37.109,-26.855,-36.621,-56.152,159.180
1689610503.294,-35.156,-28.320,-30.762,-41.504,-172.852
1689610503.294,-31.738,-30.273,-31.250,-33.203,-109.863
1689610503.298,-36.621,-32.715,-37.109,-36.133,3.906
1689610503.302,-38.574,-32.227,-35.645,-35.645,-103.516
1689610503.306,-35.645,-34.180,-27.832,-31.738,-197.754
1689610503.310,-38.086,-35.156,-26.367,-20.996,-62.988
1689610503.314,-35.156,-29.297,-23.438,-17.578,178.711
1689610503.318,-23.438,-30.762,-20.996,-20.508,74.707
1689610503.321,-30.762,-29.785,-22.949,-26.855,-57.129
1689610503.325,-41.992,-24.414,-23.926,-42.969,-80.078
1689610503.329,-40.039,-34.180,-27.832,-43.457,310.059
1689610503.333,-39.551,-35.645,-23.926,-31.738,400.391
1689610503.337,-35.156,-37.109,-22.949,-31.738,-83.496
1689610503.339,-31.250,-40.527,-28.809,-37.598,-197.266
1689610503.343,-41.016,-38.574,-24.902,-44.922,-195.801
1689610503.347,-44.922,-38.574,-26.367,-34.668,-227.051
1689610503.351,-38.574,-35.645,-27.344,-25.879,-166.992
1689610503.355,-36.621,-33.203,-23.926,-28.809,-76.660
1689610503.359,-30.273,-34.180,-26.367,-33.203,-17.578
1689610503.363,-25.879,-33.203,-29.785,-33.691,-40.527
1689610503.366,-33.203,-30.273,-21.973,-32.227,-86.426
1689610503.370,-37.598,-29.785,-16.113,-29.785,59.570
1689610503.374,-35.156,-31.250,-20.996,-25.391,196.777
1689610503.378,-30.273,-32.227,-22.461,-31.250,-85.938
1689610503.382,-34.668,-31.250,-27.832,-45.410,-181.641
1689610503.384,-36.621,-31.738,-31.250,-44.922,2.930
1689610503.388,-39.062,-32.715,-31.250,-42.969,50.293
1689610503.392,-38.086,-31.250,-28.320,-46.875,-103.516
1689610503.396,-31.738,-35.645,-26.367,-43.945,-134.277
1689610503.400,-37.109,-35.156,-26.367,-43.457,21.973
1689610503.404,-44.922,-38.574,-30.762,-43.457,110.840
1689610503.408,-48.828,-42.480,-31.738,-42.480,-9.766
1689610503.411,-44.922,-41.992,-30.273,-37.598,-88.379
1689610503.415,-41.992,-42.480,-28.320,-32.227,83.496
1689610503.419,-45.410,-41.992,-27.344,-38.574,-48.340
1689610503.423,-50.293,-41.016,-28.320,-43.945,-259.766
1689610503.427,-44.922,-36.133,-29.297,-47.852,-45.410
1689610503.430,-37.109,-26.367,-33.203,-45.898,121.582
1689610503.434,-39.062,-27.832,-36.133,-37.598,-119.141
1689610503.438,-44.922,-35.156,-38.086,-40.039,-106.934
1689610503.442,-51.270,-34.668,-39.062,-50.781,72.754
1689610503.446,-48.340,-30.762,-33.691,-45.898,3.418
1689610503.450,-41.016,-29.785,-32.715,-30.273,-79.102
1689610503.454,-35.156,-31.250,-32.227,-33.691,-66.406
1689610503.457,-35.156,-31.250,-26.855,-46.387,97.656
1689610503.461,-39.062,-29.297,-24.414,-48.340,194.336
1689610503.465,-42.969,-35.156,-34.668,-53.711,-108.398
1689610503.469,-32.715,-41.016,-39.551,-47.363,-179.199
1689610503.473,-19.043,-36.621,-34.668,-37.109,-69.336
1689610503.474,-28.320,-30.273,-39.062,-41.992,5.859
1689610503.478,-35.645,-33.691,-41.016,-43.945,-123.047
1689610503.482,-29.297,-32.715,-35.156,-35.156,-170.410
1689610503.486,-27.344,-34.668,-32.227,-26.855,49.805
1689610503.490,-19.043,-33.691,-29.297,-21.973,65.430
1689610503.494,-20.508,-26.367,-22.461,-28.320,-59.082
1689610503.498,-28.809,-26.367,-27.344,-37.109,19.531
1689610503.501,-20.996,-25.391,-30.273,-34.180,274.902
1689610503.505,-15.625,-21.973,-27.832,-29.785,123.535
1689610503.509,-17.578,-22.949,-30.273,-29.785,-207.520
1689610503.513,-18.555,-28.320,-32.227,-26.855,-105.469
1689610503.517,-25.879,-28.809,-31.250,-27.832,-4.395
1689610503.519,-29.785,-37.598,-31.738,-32.227,-178.711
1689610503.523,-28.320,-41.504,-30.762,-28.320,-205.078
1689610503.527,-30.762,-31.250,-30.762,-25.391,30.762
1689610503.531,-28.809,-34.180,-30.273,-30.762,117.188
1689610503.535,-31.738,-37.109,-35.156,-40.039,-126.953
1689610503.539,-37.598,-37.109,-40.527,-43.945,-131.348
1689610503.543,-33.203,-36.621,-37.598,-35.645,205.078
1689610503.546,-34.180,-32.227,-32.715,-30.762,316.895
1689610503.550,-30.273,-36.621,-28.320,-32.227,-88.867
1689610503.554,-25.879,-31.738,-28.320,-32.715,-219.238
1689610503.558,-30.762,-21.484,-29.297,-36.133,-95.703
1689610503.562,-32.715,-27.344,-25.879,-34.668,-121.094
1689610503.564,-34.668,-37.109,-24.902,-37.109,-110.352
1689610503.568,-27.832,-34.180,-27.832,-44.922,-83.008
1689610503.572,-31.738,-26.855,-23.926,-41.992,48.828
1689610503.576,-48.340,-28.320,-19.043,-38.574,33.203
1689610503.580,-39.062,-33.203,-24.414,-34.668,-213.379
1689610503.584,-31.738,-28.809,-29.297,-31.250,3.418
1689610503.588,-31.738,-25.879,-29.785,-34.668,240.723
1689610503.591,-34.668,-28.320,-23.438,-34.668,-26.367
1689610503.595,-38.086,-25.879,-17.578,-34.180,-256.348
1689610503.599,-35.645,-29.785,-20.996,-33.691,-90.820
1689610503.603,-38.086,-36.621,-31.738,-34.180,54.688
1689610503.607,-44.922,-42.480,-36.621,-38.574,-78.613
1689610503.610,-40.527,-38.086,-32.227,-35.156,-146.484
1689610503.614,-33.203,-20.508,-28.320,-31.250,-62.500
1689610503.618,-32.715,-19.043,-27.344,-26.855,-44.922
1689610503.622,-36.621,-24.902,-23.926,-22.461,-120.605
1689610503.626,-38.574,-27.832,-23.926,-29.297,-151.855
1689610503.630,-30.273,-21.484,-21.973,-27.344,7.324
1689610503.634,-32.715,-20.508,-19.043,-26.855,69.824
1689610503.637,-34.668,-29.297,-20.020,-26.855,-73.242
1689610503.641,-28.320,-33.691,-22.949,-23.926,-154.297
1689610503.645,-22.461,-28.320,-30.273,-26.367,112.305
1689610503.649,-24.902,-24.902,-36.621,-31.738,166.992
1689610503.653,-34.180,-29.785,-29.785,-35.156,-182.617
1689610503.669,-50.781,-40.527,-23.926,-41.504,-183.105
1689610503.673,-50.293,-37.598,-27.832,-43.457,190.918
1689610503.677,-42.969,-30.273,-29.297,-41.504,133.789
1689610503.681,-45.410,-31.250,-33.203,-39.551,-187.012
1689610503.685,-38.574,-29.785,-29.297,-38.086,-92.773
1689610503.689,-31.250,-26.367,-20.020,-31.250,74.219
1689610503.693,-26.855,-21.484,-19.531,-28.320,41.992
1689610503.696,-24.414,-11.719,-17.578,-21.973,-150.879
1689610503.700,-30.273,-13.672,-14.160,-20.020,-134.277
1689610503.704,-35.156,-19.531,-16.602,-25.879,75.195
1689610503.708,-31.250,-20.996,-17.090,-25.391,-60.547
1689610503.712,-22.949,-18.555,-17.090,-17.090,-217.773
1689610503.714,-24.414,-21.484,-18.555,-16.602,-93.750
1689610503.718,-33.203,-24.902,-19.043,-19.531,-73.730
1689610503.722,-34.180,-23.438,-24.414,-29.785,-86.914
1689610503.726,-39.062,-34.180,-31.250,-33.203,-88.867
1689610503.730,-35.156,-33.203,-28.320,-18.066,39.062
1689610503.734,-26.855,-27.344,-31.250,-12.207,233.887
1689610503.738,-34.180,-28.320,-34.180,-21.484,81.543
1689610503.741,-38.086,-32.715,-34.668,-33.203,-110.840
1689610503.745,-40.039,-34.180,-36.133,-35.645,45.410
1689610503.749,-37.598,-32.227,-31.738,-25.391,261.230
1689610503.753,-36.133,-38.086,-34.180,-25.391,-6.348
1689610503.757,-39.551,-42.969,-34.668,-31.738,-113.770
1689610503.759,-36.621,-41.016,-36.621,-32.715,13.672
1689610503.763,-41.016,-34.668,-30.762,-34.180,-92.285
1689610503.767,-37.598,-28.809,-22.949,-29.785,-224.609
1689610503.771,-25.879,-25.879,-23.926,-22.949,-134.277
1689610503.775,-29.785,-27.832,-25.391,-23.438,10.742
1689610503.779,-37.598,-32.227,-33.203,-31.250,72.266
1689610503.783,-30.762,-35.645,-36.133,-29.297,37.598
1689610503.786,-31.738,-38.574,-37.109,-27.344,-21.973
1689610503.790,-34.668,-37.109,-45.410,-26.367,243.164
1689610503.794,-33.691,-31.250,-47.363,-26.855,188.965
1689610503.798,-33.691,-29.297,-41.016,-33.203,-215.332
1689610503.802,-31.250,-34.180,-34.668,-33.691,-176.758
1689610503.804,-32.227,-39.062,-29.297,-32.227,-120.605
1689610503.808,-28.320,-33.691,-27.832,-32.227,-153.320
1689610503.812,-24.902,-24.414,-30.762,-30.762,-125.000
1689610503.816,-25.879,-22.949,-33.691,-31.738,-86.914
1689610503.820,-28.809,-19.531,-31.738,-35.156,-135.254
1689610503.824,-33.203,-21.484,-29.785,-30.762,-85.938
1689610503.828,-34.668,-25.879,-41.504,-34.180,-59.082
1689610503.831,-36.133,-28.320,-39.551,-40.039,123.535
1689610503.835,-41.016,-32.715,-30.273,-46.387,338.867
1689610503.839,-41.016,-27.832,-30.273,-48.828,-14.648
1689610503.843,-39.551,-22.461,-29.785,-39.062,-208.496
1689610503.847,-29.297,-22.461,-24.414,-22.461,-37.598
1689610503.849,-18.066,-19.043,-18.555,-18.555,39.551
1689610503.853,-15.137,-16.113,-24.414,-22.949,-99.121
1689610503.857,-20.020,-23.438,-26.367,-21.484,-183.594
1689610503.861,-26.367,-22.461,-24.902,-29.785,-41.992
1689610503.865,-20.508,-16.602,-27.344,-27.832,-17.090
1689610503.869,-14.160,-16.602,-31.738,-20.020,-115.723
1689610503.873,-16.602,-11.719,-30.273,-24.414,-6.348
1689610503.876,-27.344,-20.508,-23.438,-28.320,200.195
1689610503.880,-30.762,-24.414,-23.438,-31.250,21.484
1689610503.884,-27.344,-22.461,-29.297,-38.574,-229.004
1689610503.888,-27.832,-27.832,-32.227,-39.551,-2.930
1689610503.892,-26.367,-25.879,-29.785,-34.668,85.938
1689610503.894,-30.273,-24.902,-27.344,-39.551,-147.461
1689610503.898,-30.273,-19.531,-22.461,-35.156,-181.152
1689610503.902,-31.738,-22.461,-22.461,-32.227,-79.590
1689610503.906,-30.762,-34.668,-24.414,-35.645,-95.703
1689610503.910,-33.691,-32.715,-28.809,-33.691,-141.113
1689610503.914,-38.086,-26.367,-31.250,-41.016,-84.961
1689610503.918,-41.016,-26.855,-32.227,-43.945,199.707
1689610503.921,-32.227,-20.020,-33.691,-33.203,260.254
1689610503.925,-29.785,-18.066,-36.621,-32.715,-94.727
1689610503.929,-43.457,-25.391,-27.344,-34.668,-179.688
1689610503.933,-40.039,-33.691,-16.602,-35.156,-119.141
1689610503.937,-39.551,-33.203,-20.508,-41.992,-94.727
1689610503.940,-39.062,-30.273,-23.926,-33.691,-72.266
1689610503.944,-37.109,-33.203,-20.508,-21.484,-79.102
1689610503.948,-31.738,-29.297,-17.578,-19.043,146.973
1689610503.952,-26.855,-28.809,-20.508,-27.832,189.453
1689610503.956,-25.879,-23.438,-19.531,-30.762,-167.480
1689610503.960,-25.879,-24.414,-20.508,-20.996,-113.770
1689610503.964,-21.973,-35.645,-22.461,-16.602,207.520
1689610503.967,-28.809,-28.809,-23.438,-24.414,60.059
1689610503.971,-39.551,-24.902,-30.273,-31.250,-228.027
1689610503.975,-25.879,-24.414,-30.273,-29.785,-150.391
1689610503.979,-10.742,-19.531,-26.855,-26.367,-96.191
1689610503.983,-14.648,-18.555,-25.879,-22.949,-159.180
1689610503.984,-23.926,-21.484,-32.715,-30.762,-89.844
1689610503.988,-27.344,-21.973,-35.156,-38.086,-36.621
1689610503.992,-26.367,-24.414,-28.809,-40.039,-103.027
1689610503.996,-29.785,-30.762,-30.273,-34.668,-88.867
1689610504.000,-36.133,-30.273,-31.250,-29.785,-106.445
1689610504.004,-42.969,-38.574,-31.250,-31.250,171.875
1689610504.008,-41.504,-42.480,-31.738,-29.785,354.980
1689610504.011,-33.691,-30.273,-33.203,-33.203,-107.910
1689610504.015,-30.762,-34.668,-32.715,-36.133,-274.414
1689610504.019,-26.367,-32.715,-25.391,-27.832,-12.695
1689610504.023,-32.715,-20.508,-22.461,-33.203,20.020
1689610504.027,-34.668,-19.531,-29.297,-45.898,-138.672
1689610504.044,-32.227,-23.926,-25.879,-46.387,-70.312
1689610504.048,-39.062,-21.973,-24.902,-40.039,116.211
1689610504.052,-38.574,-24.414,-30.273,-37.598,40.527
1689610504.056,-33.691,-30.762,-26.855,-40.527,-141.602
1689610504.060,-35.645,-29.297,-30.273,-41.992,-77.148
1689610504.064,-39.551,-37.109,-32.227,-39.062,20.020
1689610504.068,-38.086,-37.109,-26.855,-29.785,-46.875
1689610504.071,-42.969,-28.320,-24.414,-24.902,-90.332
1689610504.075,-40.039,-29.785,-27.832,-28.320,1.953
1689610504.079,-40.039,-26.855,-28.320,-31.250,309.570
1689610504.083,-49.316,-24.414,-24.902,-33.203,157.227
1689610504.087,-47.363,-26.855,-25.879,-34.180,-174.316
1689610504.089,-40.039,-30.273,-25.879,-33.203,-80.078
1689610504.093,-35.156,-33.203,-28.809,-31.738,-47.852
1689610504.097,-36.133,-28.320,-31.250,-36.621,-52.246
1689610504.101,-38.086,-29.297,-31.738,-36.621,-137.695
1689610504.105,-37.109,-32.715,-32.715,-33.203,-148.438
1689610504.109,-36.621,-37.109,-38.574,-40.039,3.906
1689610504.113,-23.438,-37.109,-43.457,-35.156,96.191
1689610504.116,-18.066,-31.250,-36.621,-36.621,-44.434
1689610504.120,-26.367,-29.297,-34.180,-50.781,110.840
1689610504.124,-31.738,-26.855,-35.156,-45.410,333.984
1689610504.128,-31.250,-29.785,-37.598,-39.551,-10.254
1689610504.132,-28.320,-30.762,-41.016,-40.039,-107.422
1689610504.134,-28.809,-31.738,-27.344,-35.156,61.035
1689610504.138,-38.086,-35.645,-18.555,-36.621,-46.387
1689610504.142,-44.434,-34.180,-29.297,-43.945,-231.934
1689610504.146,-41.504,-32.227,-31.250,-42.480,-195.801
1689610504.150,-41.504,-32.715,-31.738,-36.621,-13.184
1689610504.154,-37.109,-31.738,-36.133,-37.598,-19.531
1689610504.158,-44.434,-34.180,-40.039,-46.875,-100.586
1689610504.161,-48.828,-38.086,-39.551,-43.457,-47.852
1689610504.165,-42.480,-39.062,-41.504,-35.645,161.133
1689610504.169,-39.551,-34.668,-44.922,-33.691,83.008
1689610504.173,-29.785,-30.273,-37.598,-29.297,-107.422
1689610504.177,-20.508,-31.738,-34.180,-30.273,15.625
1689610504.179,-23.438,-29.785,-32.227,-34.180,-3.418
1689610504.183,-29.785,-28.320,-33.203,-28.320,-191.895
1689610504.187,-22.949,-27.832,-36.621,-25.879,-185.059
1689610504.191,-21.484,-31.250,-37.598,-32.715,-54.199
1689610504.195,-40.527,-39.062,-39.551,-45.898,-99.609
1689610504.199,-43.457,-39.062,-37.598,-50.781,-150.879
1689610504.203,-34.668,-37.598,-38.574,-41.504,-83.496
1689610504.206,-33.691,-41.992,-38.574,-32.715,130.859
1689610504.210,-32.227,-35.645,-34.668,-29.785,233.887
1689610504.214,-27.832,-26.367,-29.297,-37.598,-62.988
1689610504.218,-27.344,-17.578,-30.273,-41.504,-144.043
1689610504.222,-31.250,-15.625,-32.227,-38.574,-70.801
1689610504.225,-33.203,-24.902,-31.250,-37.109,-6.348
1689610504.229,-37.109,-32.715,-32.227,-34.668,71.777
1689610504.233,-41.992,-28.809,-27.832,-36.621,-6.836
1689610504.237,-43.945,-30.762,-20.996,-44.922,92.285
1689610504.241,-41.016,-32.227,-22.949,-40.527,117.188
1689610504.245,-38.086,-30.762,-34.180,-36.621,-149.414
1689610504.249,-37.109,-37.598,-32.227,-37.109,-79.102
1689610504.252,-39.062,-43.945,-20.996,-39.062,191.895
1689610504.256,-40.039,-33.691,-20.508,-40.039,15.625
1689610504.260,-33.691,-20.996,-24.414,-34.668,-263.184
1689610504.264,-33.203,-21.973,-20.020,-24.414,-166.016
1689610504.268,-27.832,-29.297,-18.066,-20.996,-117.676
1689610504.269,-28.320,-33.691,-23.926,-30.273,-136.719
1689610504.273,-29.297,-33.691,-29.297,-34.668,-134.766
1689610504.277,-23.926,-26.855,-29.785,-35.645,-117.188
1689610504.281,-19.531,-24.414,-29.785,-32.715,-41.016
1689610504.285,-25.391,-29.785,-33.691,-24.414,-62.988
1689610504.289,-39.551,-27.832,-35.645,-31.738,-45.898
1689610504.293,-37.598,-27.344,-30.273,-41.016,191.895
1689610504.296,-38.086,-30.273,-28.809,-36.621,268.066
1689610504.300,-40.039,-28.809,-32.227,-38.086,-29.297
1689610504.304,-34.668,-30.273,-36.133,-41.504,-216.797
1689610504.308,-35.156,-35.156,-32.715,-42.480,-30.273
1689610504.312,-45.898,-34.668,-27.832,-47.363,-32.227
1689610504.314,-51.270,-29.785,-28.320,-44.434,-167.969
1689610504.318,-50.781,-30.273,-31.738,-42.969,-134.277
1689610504.322,-49.316,-37.109,-32.715,-40.527,-1.465
1689610504.326,-41.504,-35.645,-29.785,-36.133,-12.695
1689610504.330,-35.645,-35.645,-32.227,-36.621,-172.852
1689610504.334,-35.645,-36.133,-30.762,-39.551,-46.387
1689610504.338,-30.273,-31.738,-24.902,-31.738,126.465
1689610504.341,-29.785,-31.738,-21.973,-22.461,49.805
1689610504.345,-32.227,-33.203,-22.949,-27.344,-144.531
1689610504.349,-39.551,-32.227,-22.949,-37.109,-104.980
1689610504.353,-44.434,-29.297,-22.949,-41.504,-7.324
1689610504.357,-39.551,-32.227,-27.344,-42.969,-83.496
1689610504.359,-32.715,-36.133,-26.367,-40.039,-151.855
1689610504.363,-28.809,-32.227,-20.020,-33.203,15.625
1689610504.367,-39.551,-34.180,-23.438,-31.250,184.570
1689610504.371,-45.898,-36.621,-28.809,-36.133,-84.473
1689610504.375,-43.945,-32.715,-27.832,-38.086,-240.723
1689610504.379,-36.621,-34.668,-30.273,-31.738,19.043
1689610504.383,-28.809,-33.691,-27.344,-27.832,150.879
1689610504.386,-33.691,-33.203,-22.949,-30.273,-80.078
1689610504.390,-50.293,-29.785,-30.273,-31.738,-142.578
1689610504.394,-51.758,-28.809,-28.809,-31.738,148.926
1689610504.398,-40.039,-32.715,-31.738,-31.738,215.820
1689610504.402,-35.156,-27.344,-30.762,-29.785,-124.023
1689610504.419,-38.086,-34.668,-26.855,-38.574,-141.113
1689610504.423,-44.434,-35.156,-28.320,-45.898,77.637
1689610504.427,-42.480,-33.203,-26.855,-42.480,-13.184
1689610504.431,-35.156,-32.715,-26.367,-40.527,-211.426
1689610504.435,-27.344,-27.832,-24.902,-32.227,-92.773
1689610504.439,-30.273,-34.180,-28.320,-28.809,86.426
1689610504.443,-34.180,-35.645,-33.691,-36.621,5.859
1689610504.446,-37.598,-28.809,-33.691,-46.875,-164.551
1689610504.450,-41.016,-31.250,-27.832,-46.387,-115.723
1689610504.454,-36.621,-31.250,-29.297,-35.156,136.719
1689610504.458,-32.227,-27.344,-33.691,-38.086,38.086
1689610504.462,-33.203,-31.738,-33.203,-44.434,-176.758
1689610504.464,-36.133,-33.203,-34.668,-43.457,-72.266
1689610504.468,-31.250,-34.180,-37.598,-35.156,-18.066
1689610504.472,-29.785,-30.762,-31.738,-27.832,-90.332
1689610504.476,-34.180,-25.391,-27.832,-28.809,-167.480
1689610504.480,-32.715,-32.227,-29.785,-37.598,-59.082
1689610504.484,-38.086,-29.785,-31.738,-46.387,73.730
1689610504.488,-44.434,-32.227,-37.109,-42.969,-41.992
1689610504.491,-35.156,-36.133,-35.156,-37.598,-124.023
1689610504.495,-27.344,-29.297,-38.086,-32.227,56.641
1689610504.499,-31.250,-23.926,-43.457,-36.133,186.523
1689610504.503,-34.180,-27.344,-44.922,-42.969,-133.301
1689610504.507,-28.320,-31.250,-40.527,-31.738,-212.891
1689610504.510,-24.414,-25.879,-44.922,-25.391,-18.555
1689610504.514,-20.508,-31.738,-38.086,-23.926,39.551
1689610504.518,-21.484,-37.109,-27.344,-25.391,-95.703
1689610504.522,-28.809,-27.344,-26.855,-28.809,-151.855
1689610504.526,-32.227,-23.926,-30.762,-26.855,46.875
1689610504.530,-29.785,-23.926,-38.086,-28.809,133.301
1689610504.534,-21.484,-27.832,-31.738,-26.855,-58.594
1689610504.537,-22.461,-34.180,-26.855,-26.855,-104.980
1689610504.541,-31.250,-31.250,-27.344,-29.297,126.465
1689610504.545,-33.203,-26.855,-30.762,-33.203,54.688
1689610504.549,-27.832,-32.227,-33.203,-33.691,-155.273
1689610504.553,-28.320,-35.645,-36.621,-34.180,-29.297
1689610504.556,-37.109,-32.227,-39.551,-43.457,-78.125
1689610504.560,-41.504,-31.738,-38.574,-46.875,-177.246
1689610504.564,-34.180,-29.297,-36.133,-30.762,-164.551
1689610504.568,-35.645,-33.203,-31.250,-24.902,-41.504
1689610504.572,-35.645,-32.715,-29.297,-30.273,92.285
1689610504.576,-29.297,-33.203,-28.320,-36.133,52.734
1689610504.580,-37.598,-39.062,-30.273,-45.898,-62.500
1689610504.583,-41.016,-34.668,-33.691,-40.527,43.457
1689610504.587,-33.203,-27.832,-36.133,-33.203,275.879
1689610504.591,-32.715,-26.855,-32.715,-31.738,-11.719
1689610504.595,-32.227,-26.367,-26.367,-32.715,-161.621
1689610504.599,-35.645,-29.297,-26.855,-41.016,-47.852
1689610504.614,-41.504,-26.855,-24.414,-38.086,6.348
1689610504.618,-35.645,-21.973,-27.832,-26.855,-55.176
1689610504.622,-35.156,-28.809,-33.691,-29.297,-149.902
1689610504.626,-37.109,-27.344,-28.320,-32.715,-44.434
1689610504.630,-31.250,-23.926,-25.391,-31.250,-58.105
1689610504.634,-38.574,-36.133,-26.367,-35.156,-87.891
1689610504.638,-40.527,-38.574,-23.926,-26.855,-7.324
1689610504.641,-26.855,-28.320,-22.949,-13.672,388.672
1689610504.645,-35.156,-28.809,-32.715,-32.227,475.098
1689610504.649,-46.875,-28.320,-37.598,-53.223,-67.871
1689610504.653,-44.434,-21.973,-35.156,-50.293,-223.145
1689610504.657,-44.922,-22.461,-33.203,-39.551,-124.023
1689610504.644,-40.039,-25.879,-33.691,-33.691,-135.742
1689610504.648,-33.203,-22.461,-33.203,-29.785,-138.672
1689610504.652,-27.832,-22.461,-30.273,-31.250,-56.152
1689610504.656,-33.691,-29.297,-32.715,-40.527,-70.312
1689610504.660,-36.133,-31.250,-31.250,-39.551,-146.973
1689610504.664,-31.250,-29.785,-30.273,-31.738,-55.176
1689610504.668,-30.762,-30.762,-30.762,-33.691,50.781
1689610504.671,-31.250,-31.738,-29.785,-40.527,-35.156
1689610504.675,-32.227,-28.809,-30.762,-38.574,-95.215
1689610504.679,-38.086,-23.438,-29.785,-36.621,-113.281
1689610504.683,-31.738,-24.902,-28.320,-29.297,56.641
1689610504.687,-21.484,-24.414,-29.785,-19.043,244.629
1689610504.689,-20.508,-20.996,-34.668,-29.297,-64.941
1689610504.693,-18.066,-20.508,-38.574,-42.480,-211.426
1689610504.697,-25.391,-18.066,-32.715,-40.039,-69.336
1689610504.701,-34.668,-21.484,-35.156,-37.109,-54.688
1689610504.705,-30.762,-28.320,-39.062,-42.969,-183.594
1689610504.709,-25.879,-28.809,-34.180,-36.621,-78.125
1689610504.713,-30.273,-28.809,-36.133,-33.203,147.949
1689610504.716,-34.668,-28.809,-37.598,-42.480,21.973
1689610504.720,-31.250,-31.250,-36.621,-41.992,-208.008
1689610504.724,-32.715,-32.227,-34.668,-36.133,-64.941
1689610504.728,-33.691,-34.180,-32.227,-36.133,42.480
1689610504.732,-25.391,-37.109,-29.785,-36.621,-96.191
1689610504.734,-23.438,-38.086,-28.320,-31.250,-168.457
1689610504.738,-28.320,-28.320,-33.203,-22.461,-51.758
1689610504.742,-28.320,-21.973,-36.621,-19.531,83.984
1689610504.746,-37.109,-28.809,-32.715,-24.902,-52.246
1689610504.750,-47.363,-25.391,-30.762,-31.738,-180.664
1689610504.754,-36.133,-24.902,-32.227,-36.621,18.555
1689610504.758,-31.738,-25.391,-29.785,-41.016,174.805
1689610504.761,-30.762,-21.973,-25.391,-33.203,-71.777
1689610504.765,-25.391,-23.926,-25.879,-37.598,-176.758
1689610504.769,-30.273,-25.391,-29.297,-48.828,-80.078
1689610504.773,-37.598,-23.438,-29.785,-42.480,-40.527
1689610504.777,-33.691,-21.484,-32.227,-40.527,-81.055
1689610504.794,-33.691,-27.344,-38.574,-44.434,-95.215
1689610504.798,-36.621,-32.715,-34.668,-39.551,264.160
1689610504.802,-35.645,-31.738,-25.391,-37.598,425.293
1689610504.806,-36.133,-26.367,-32.227,-42.480,-92.773
1689610504.810,-34.668,-24.414,-40.039,-43.457,-231.445
1689610504.814,-38.086,-31.738,-27.344,-39.062,12.695
1689610504.818,-41.504,-34.180,-17.578,-34.180,-6.348
1689610504.821,-34.180,-25.879,-20.996,-37.598,-212.891
1689610504.825,-38.574,-24.414,-29.297,-40.527,-189.941
1689610504.829,-44.434,-27.344,-28.320,-39.062,44.434
1689610504.833,-26.855,-29.297,-21.484,-28.809,-70.312
1689610504.837,-18.555,-21.973,-20.508,-13.672,-228.027
1689610504.839,-26.855,-23.438,-19.531,-20.508,-97.168
1689610504.843,-34.180,-27.344,-20.508,-35.645,-70.312
1689610504.847,-34.668,-26.367,-24.414,-40.039,-180.176
1689610504.851,-26.855,-25.879,-27.344,-24.414,-143.066
1689610504.855,-17.578,-27.832,-27.344,-10.254,60.547
1689610504.859,-30.273,-33.691,-21.484,-23.926,25.879
1689610504.863,-53.223,-32.227,-19.043,-43.457,-74.707
1689610504.866,-42.969,-35.156,-22.461,-34.180,-121.094
1689610504.870,-35.645,-42.969,-24.902,-29.297,49.316
1689610504.874,-35.645,-41.016,-22.461,-29.297,274.902
1689610504.878,-30.273,-38.574,-22.949,-28.809,-60.059
1689610504.882,-33.203,-35.156,-30.762,-36.133,-204.590
1689610504.884,-30.762,-34.180,-29.297,-31.250,-20.020
1689610504.888,-21.973,-32.715,-28.320,-23.438,-20.508
1689610504.892,-15.625,-26.855,-27.832,-16.602,-123.535
1689610504.896,-20.020,-33.203,-27.832,-21.973,-55.664
1689610504.900,-26.367,-36.133,-31.250,-27.832,37.598
1689610504.904,-29.297,-30.273,-31.250,-26.367,-12.207
1689610504.908,-20.508,-27.344,-29.785,-23.926,-31.250
1689610504.911,-21.973,-28.809,-31.738,-31.250,30.762
1689610504.915,-30.762,-31.250,-32.227,-32.715,313.477
1689610504.919,-35.156,-27.832,-32.715,-30.273,292.969
1689610504.923,-29.785,-23.438,-31.250,-26.855,-130.371
1689610504.927,-20.020,-25.879,-25.879,-18.555,-130.859
1689610504.944,-19.531,-26.367,-27.344,-20.020,-63.965
1689610504.948,-24.414,-31.738,-23.438,-27.832,-133.789
1689610504.952,-27.344,-33.203,-24.902,-35.156,-193.848
1689610504.956,-22.461,-22.949,-27.344,-30.762,-153.320
1689610504.960,-20.508,-23.926,-28.809,-24.902,-96.680
1689610504.964,-16.113,-28.320,-32.227,-23.926,36.133
1689610504.968,-19.043,-34.668,-27.832,-24.414,24.902
1689610504.971,-31.250,-36.133,-30.762,-24.902,90.820
1689610504.975,-28.320,-29.297,-37.598,-24.414,194.824
1689610504.979,-22.949,-29.297,-31.250,-25.879,-58.594
1689610504.983,-21.973,-26.367,-24.414,-26.367,-111.328
1689610504.987,-23.438,-26.367,-26.367,-32.715,19.043
1689610504.974,-34.668,-31.250,-24.902,-42.969,118.164
1689610504.978,-37.598,-29.785,-26.367,-49.316,-33.203
1689610504.982,-35.645,-25.879,-26.367,-40.527,-167.969
1689610504.986,-30.762,-22.461,-27.344,-29.785,5.371
1689610504.990,-28.809,-21.973,-27.832,-34.668,46.387
1689610504.994,-37.598,-24.414,-24.414,-43.945,-103.516
1689610504.998,-42.480,-25.391,-21.973,-42.969,-54.688
1689610505.001,-40.527,-23.926,-21.973,-36.621,30.273
1689610505.005,-43.457,-22.461,-22.461,-37.598,-85.449
1689610505.009,-42.969,-22.949,-19.531,-36.133,-190.430
1689610505.013,-50.293,-27.344,-21.973,-41.992,-163.086
1689610505.017,-60.547,-33.691,-26.855,-48.828,162.109
1689610505.019,-50.781,-39.551,-26.367,-41.016,87.891
1689610505.023,-35.645,-28.320,-34.668,-44.434,-223.633
1689610505.027,-47.363,-13.184,-39.551,-66.406,-17.090
1689610505.031,-59.570,-17.090,-35.645,-72.754,19.043
1689610505.035,-51.758,-21.973,-29.785,-60.059,-177.246
1689610505.039,-41.992,-22.949,-24.902,-43.457,-112.305
1689610505.043,-37.109,-20.508,-28.809,-39.062,203.125
1689610505.046,-30.762,-21.973,-30.273,-29.785,307.129
1689610505.050,-12.695,-19.531,-32.715,-19.043,-88.867
1689610505.054,-0.977,-17.090,-34.668,-12.695,-205.566
1689610505.058,11.719,-14.648,-34.668,0.977,-133.789
1689610505.062,28.320,-13.184,-36.621,14.648,-125.000
1689610505.065,38.574,-14.648,-32.715,35.645,-21.484
1689610505.069,46.875,-7.324,-34.180,53.223,-45.898
1689610505.073,62.500,-2.441,-40.527,56.152,166.016
1689610505.077,69.336,-5.859,-43.457,62.012,159.180
1689610505.081,76.172,-7.324,-41.016,80.566,-238.281
1689610505.085,92.773,-7.324,-34.668,99.609,-99.121
1689610505.089,103.516,-7.812,-28.320,110.352,219.727
1689610505.092,104.492,-4.395,-29.785,107.910,0.488
1689610505.096,105.469,-6.348,-35.645,103.027,-265.625
1689610505.100,108.398,-8.789,-24.902,115.234,-149.902
1689610505.104,106.934,-6.348,-22.461,119.629,-50.293
1689610505.108,109.863,-4.395,-31.250,118.164,-90.820
1689610505.109,115.723,0.000,-30.273,118.164,-129.395
1689610505.113,106.934,1.465,-28.809,113.770,-101.074
1689610505.117,101.074,-0.488,-32.227,112.305,-73.242
1689610505.121,101.562,-3.906,-35.156,115.723,-124.023
1689610505.125,90.332,-2.930,-34.668,113.281,-106.934
1689610505.129,72.754,-0.488,-34.668,93.750,185.547
1689610505.133,57.617,-6.348,-33.691,81.543,332.031
1689610505.136,52.734,-8.301,-29.785,85.449,-25.879
1689610505.140,50.293,-3.418,-31.738,82.031,-222.168
1689610505.144,42.969,-6.836,-29.785,69.824,44.434
1689610505.148,32.715,-12.207,-27.344,49.805,30.273
1689610505.152,18.066,-16.113,-29.785,39.551,-229.004
1689610505.169,18.066,-20.508,-28.320,46.875,-166.992
1689610505.173,23.438,-26.367,-29.785,41.504,22.461
1689610505.177,13.184,-27.344,-36.621,20.508,-2.441
1689610505.181,12.207,-20.996,-36.133,13.184,-207.031
1689610505.185,15.625,-20.996,-29.297,14.160,-142.578
1689610505.189,4.883,-25.391,-29.297,13.184,82.520
1689610505.193,-0.488,-27.344,-23.438,23.926,113.281
1689610505.196,3.418,-32.227,-17.578,29.785,42.480
1689610505.200,-1.953,-35.645,-19.043,23.438,-48.340
1689610505.204,-18.066,-36.133,-17.090,19.043,152.344
1689610505.208,-17.090,-32.715,-16.113,14.160,87.891
1689610505.212,-4.883,-23.926,-18.066,4.883,-208.008
1689610505.215,-5.371,-20.996,-19.531,-0.977,-147.461
1689610505.219,-13.672,-20.996,-23.438,-0.488,-155.762
1689610505.223,-17.578,-19.531,-30.762,-13.184,-253.906
1689610505.227,-18.555,-20.508,-26.855,-12.207,-217.773
1689610505.231,-19.043,-22.461,-28.320,-5.859,-129.395
1689610505.235,-10.254,-24.414,-32.227,-12.207,-48.828
1689610505.239,-11.719,-25.391,-30.762,-21.484,-12.695
1689610505.242,-22.461,-23.438,-27.344,-25.879,-192.871
1689610505.246,-19.043,-22.461,-27.832,-19.043,-25.879
1689610505.250,-18.066,-22.949,-28.320,-16.113,230.957
1689610505.254,-17.578,-23.438,-26.367,-19.531,-9.766
1689610505.258,-15.137,-21.484,-28.320,-26.367,-231.445
1689610505.259,-23.926,-22.949,-27.344,-28.809,102.539
1689610505.263,-29.297,-26.367,-23.926,-29.785,184.082
1689610505.267,-25.879,-22.461,-25.879,-30.273,-205.078
1689610505.271,-19.043,-25.879,-27.344,-25.879,-156.738
1689610505.275,-27.832,-30.273,-26.367,-30.762,-111.816
1689610505.279,-35.645,-26.855,-27.832,-41.016,-95.215
1689610505.283,-27.344,-25.391,-32.715,-47.363,-76.172
1689610505.286,-28.809,-25.391,-33.691,-41.016,-15.137
1689610505.290,-28.320,-23.926,-31.250,-28.809,129.883
1689610505.294,-29.785,-22.949,-27.344,-28.320,28.809
1689610505.298,-30.762,-24.902,-27.344,-33.203,-172.852
1689610505.302,-31.250,-30.273,-30.762,-28.809,-90.820
1689610505.304,-37.109,-34.668,-28.320,-26.855,148.438
1689610505.308,-37.109,-30.762,-32.227,-30.273,-16.113
1689610505.312,-31.250,-25.879,-30.762,-21.973,-91.797
1689610505.316,-29.297,-24.902,-25.391,-21.973,-15.625
1689610505.320,-34.668,-30.762,-25.879,-26.855,-83.008
1689610505.324,-32.227,-27.832,-23.926,-22.461,-85.938
1689610505.328,-21.973,-22.461,-19.043,-12.207,-69.824
1689610505.331,-17.578,-26.855,-20.996,-12.207,156.738
1689610505.335,-13.672,-28.320,-23.926,-20.996,223.633
1689610505.339,-19.531,-26.367,-22.461,-26.367,-184.570
1689610505.343,-21.973,-25.391,-25.879,-26.855,-217.773
1689610505.347,-25.879,-24.414,-31.738,-22.949,-68.359
1689610505.350,-27.344,-20.020,-32.715,-22.949,-6.836
1689610505.354,-28.320,-16.602,-34.180,-39.062,-82.031
1689610505.358,-30.273,-17.578,-35.156,-48.828,-183.105
1689610505.362,-30.762,-19.043,-32.715,-37.598,185.059
1689610505.366,-31.250,-23.926,-31.738,-29.297,217.285
1689610505.370,-22.949,-24.902,-28.809,-29.785,-10.742
1689610505.374,-16.113,-21.973,-25.879,-33.203,3.418
1689610505.377,-20.996,-16.602,-30.273,-34.180,115.234
1689610505.381,-20.996,-16.113,-32.227,-40.527,14.648
1689610505.385,-16.602,-18.555,-33.203,-35.156,-223.633
1689610505.389,-21.973,-20.996,-33.203,-21.484,-125.000
1689610505.393,-22.949,-20.996,-31.250,-24.902,-108.887
1689610505.394,-28.809,-20.020,-31.250,-20.996,-197.754
1689610505.398,-33.203,-22.949,-31.250,-19.043,-221.191
1689610505.402,-30.762,-21.484,-22.949,-19.531,-28.809
1689610505.406,-26.367,-25.879,-21.973,-8.301,42.480
1689610505.410,-24.414,-28.809,-26.855,-14.648,-120.117
1689610505.414,-35.645,-28.320,-26.855,-27.344,-133.301
1689610505.418,-40.527,-33.203,-23.438,-20.508,185.059
1689610505.421,-37.109,-33.691,-25.391,-18.555,465.820
1689610505.425,-22.461,-33.203,-23.438,-18.066,91.309
1689610505.429,-15.137,-27.344,-23.926,-17.090,-163.086
1689610505.433,-23.926,-17.578,-28.320,-23.926,-70.312
1689610505.437,-32.715,-16.113,-23.438,-21.973,-93.262
1689610505.469,-37.109,-24.902,-19.043,-12.695,-59.082
1689610505.473,-29.297,-28.320,-23.926,-18.066,-32.227
1689610505.477,-31.738,-21.484,-32.227,-28.809,16.113
1689610505.481,-39.062,-24.902,-30.273,-33.203,-48.828
1689610505.485,-28.320,-21.484,-27.832,-37.598,-266.602
1689610505.489,-23.926,-21.484,-32.715,-36.133,-94.238
1689610505.493,-27.832,-23.926,-30.273,-28.320,252.930
1689610505.496,-27.832,-22.949,-27.344,-33.203,88.379
1689610505.500,-27.832,-22.949,-34.668,-44.434,-217.773
1689610505.504,-30.273,-23.926,-35.156,-41.016,-121.582
1689610505.508,-30.273,-22.949,-32.227,-38.086,0.488
1689610505.512,-22.949,-25.391,-36.133,-38.574,-58.105
1689610505.484,-20.020,-34.668,-34.180,-32.227,-170.898
1689610505.488,-28.320,-33.691,-39.062,-40.039,-75.195
1689610505.492,-33.203,-30.273,-44.434,-46.387,104.492
1689610505.496,-25.879,-25.879,-38.086,-37.598,-10.742
1689610505.500,-21.484,-22.461,-32.227,-27.832,12.695
1689610505.504,-21.484,-31.250,-33.203,-27.344,147.461
1689610505.508,-21.484,-34.668,-25.391,-32.715,174.316
1689610505.511,-35.645,-29.297,-25.879,-35.156,12.207
1689610505.515,-31.250,-29.785,-30.273,-26.855,-121.094
1689610505.519,-25.391,-27.832,-32.715,-26.367,57.129
1689610505.523,-33.691,-23.926,-32.227,-30.273,173.828
1689610505.527,-25.391,-20.020,-31.738,-37.109,5.371
1689610505.544,-23.438,-19.043,-36.133,-43.457,-31.738
1689610505.548,-25.879,-18.555,-34.668,-32.227,200.195
1689610505.552,-22.949,-17.090,-33.203,-24.902,491.699
1689610505.556,-20.996,-20.508,-35.156,-27.344,138.672
1689610505.560,-28.809,-27.832,-38.574,-32.227,-194.336
1689610505.564,-30.273,-32.715,-40.039,-41.016,-76.660
1689610505.568,-30.273,-28.809,-37.109,-39.062,-81.055
1689610505.571,-27.832,-27.832,-35.156,-26.367,-173.828
1689610505.575,-27.832,-30.273,-33.203,-23.438,-134.277
1689610505.579,-30.762,-26.855,-34.668,-27.344,85.449
1689610505.583,-21.484,-19.043,-39.062,-32.227,-81.055
1689610505.587,-24.414,-15.625,-35.156,-32.227,-294.434
1689610505.589,-29.785,-20.508,-39.062,-27.344,-70.801
1689610505.593,-25.879,-27.832,-36.621,-23.926,45.410
1689610505.597,-25.391,-27.344,-27.832,-21.973,-135.742
1689610505.601,-29.785,-20.508,-28.320,-25.879,-215.820
1689610505.605,-40.039,-23.438,-28.320,-28.320,-124.512
1689610505.609,-43.945,-30.762,-25.391,-25.879,-19.043
1689610505.613,-34.668,-32.715,-23.926,-29.297,-39.062
1689610505.616,-27.832,-24.902,-24.414,-37.109,-94.727
1689610505.620,-31.738,-25.879,-21.973,-36.621,54.199
1689610505.624,-37.109,-34.668,-20.996,-37.109,174.805
1689610505.628,-33.691,-26.367,-22.461,-35.645,-108.887
1689610505.632,-25.879,-20.996,-22.461,-25.879,-105.469
1689610505.634,-24.414,-26.367,-21.973,-32.227,40.527
1689610505.638,-24.414,-19.531,-19.043,-37.109,-81.543
1689610505.642,-24.902,-16.602,-20.996,-35.645,-188.477
1689610505.646,-23.926,-22.949,-25.879,-37.109,-124.023
1689610505.650,-25.391,-28.320,-26.855,-29.785,116.699
1689610505.654,-22.461,-28.809,-29.785,-30.273,205.078
1689610505.658,-19.531,-23.926,-28.320,-45.410,-51.758
1689610505.661,-33.203,-26.367,-26.367,-48.340,-144.043
1689610505.665,-38.574,-35.645,-33.203,-45.410,116.211
1689610505.669,-34.668,-34.180,-32.715,-41.016,60.059
1689610505.673,-35.645,-29.785,-26.855,-38.574,-175.293
1689610505.677,-37.109,-34.180,-29.297,-44.434,-118.652
1689610505.679,-36.133,-34.180,-32.227,-50.781,-136.230
1689610505.683,-32.715,-31.738,-27.344,-41.504,-162.109
1689610505.687,-34.180,-33.203,-26.367,-34.180,-74.707
1689610505.691,-33.203,-32.715,-32.715,-36.621,1.465
1689610505.695,-30.273,-24.902,-28.320,-33.203,-62.988
1689610505.699,-36.621,-21.484,-29.297,-41.504,-81.543
1689610505.703,-35.156,-22.461,-32.715,-39.062,-65.430
1689610505.706,-30.762,-24.414,-25.879,-26.855,180.176
1689610505.710,-28.320,-20.508,-21.973,-22.949,348.633
1689610505.714,-23.926,-14.648,-23.926,-24.414,-17.090
1689610505.718,-29.297,-17.090,-23.438,-36.133,-228.516
1689610505.722,-36.133,-19.043,-23.926,-45.898,-136.719
1689610505.724,-37.598,-24.902,-22.461,-39.551,-31.738
1689610505.728,-34.668,-24.902,-30.762,-40.527,-84.473
1689610505.732,-39.551,-24.414,-39.062,-61.523,-143.066
1689610505.736,-35.645,-19.043,-34.180,-53.711,8.301
1689610505.740,-30.762,-18.555,-31.250,-37.109,-9.277
1689610505.744,-67.871,-31.250,-25.391,-66.895,-88.867
1689610505.748,-110.352,-37.109,-18.066,-112.793,-25.879
1689610505.751,-124.023,-41.504,-15.137,-139.160,178.223
1689610505.755,-145.996,-42.969,-9.277,-170.410,121.094
1689610505.759,-185.547,-44.922,-1.953,-196.777,-246.582
1689610505.763,-213.379,-48.828,-5.859,-207.520,-136.230
1689610505.767,-224.121,-41.992,-11.230,-233.398,35.156
1689610505.770,-238.770,-48.340,-6.836,-257.812,-87.402
1689610505.774,-270.020,-62.988,-2.930,-282.227,-166.992
1689610505.778,-279.785,-62.500,-4.395,-289.551,-125.488
1689610505.782,-269.531,-59.082,-3.906,-269.531,-101.074
1689610505.786,-283.203,-57.129,-10.254,-285.156,-132.812
1689610505.790,-278.809,-62.012,-16.602,-295.898,-105.469
1689610505.794,-272.949,-60.547,-16.113,-289.062,165.527
1689610505.797,-268.066,-59.570,-17.578,-281.738,258.301
1689610505.801,-244.629,-65.918,-19.531,-263.672,-49.805
1689610505.805,-223.145,-62.012,-16.602,-243.652,-124.023
1689610505.809,-203.125,-60.547,-16.602,-219.727,45.898
1689610505.813,-185.059,-61.035,-24.414,-204.102,-4.883
1689610505.814,-167.969,-59.570,-19.531,-189.453,-99.609
1689610505.818,-154.785,-55.664,-15.625,-171.875,-91.309
1689610505.822,-136.719,-53.711,-23.438,-151.855,61.523
1689610505.826,-121.582,-60.547,-25.879,-139.160,67.383
1689610505.830,-115.723,-62.012,-22.461,-134.277,-195.312
1689610505.834,-95.215,-56.152,-16.602,-120.117,-163.086
1689610505.838,-73.242,-50.781,-20.996,-99.121,332.520
1689610505.841,-72.266,-49.316,-34.180,-87.402,387.207
1689610505.845,-64.941,-49.805,-30.273,-81.543,-86.914
1689610505.849,-56.641,-52.246,-24.414,-68.848,-108.887
1689610505.853,-59.082,-55.176,-27.344,-71.777,-82.520
1689610505.857,-50.293,-53.223,-26.367,-70.801,-170.410
1689610505.860,-27.832,-41.016,-20.020,-45.410,-151.855
1689610505.864,-28.809,-42.969,-22.461,-41.992,82.520
1689610505.868,-39.551,-47.363,-24.902,-45.410,115.234
1689610505.872,-40.527,-45.410,-27.344,-35.156,-160.156
1689610505.876,-48.340,-45.410,-27.832,-32.715,-188.965
1689610505.880,-27.344,-41.016,-20.020,-20.996,22.949
1689610505.884,-15.625,-36.621,-20.996,-18.066,100.098
1689610505.887,-23.926,-37.598,-25.391,-26.855,-42.969
1689610505.891,-24.414,-41.992,-27.344,-33.203,-243.164
1689610505.895,-24.902,-43.457,-32.227,-26.855,-13.184
1689610505.899,-26.855,-43.457,-35.156,-20.996,172.852
1689610505.903,-16.113,-40.039,-34.668,-19.043,-106.934
1689610505.919,-13.672,-37.109,-33.691,-18.066,-89.355
1689610505.923,-15.625,-39.062,-31.250,-18.555,73.242
1689610505.927,-9.277,-37.598,-26.367,-6.836,-50.293
1689610505.931,-8.789,-40.039,-26.367,0.000,-161.621
1689610505.935,-11.719,-35.645,-31.250,-6.836,-43.457
1689610505.939,-16.113,-25.879,-37.109,-10.254,246.094
1689610505.943,-10.742,-26.367,-40.039,-9.766,170.410
1689610505.946,-5.371,-27.832,-39.062,-21.484,-191.895
1689610505.950,-8.789,-34.668,-39.062,-24.902,-136.719
1689610505.954,-18.066,-44.922,-38.574,-12.695,41.504
1689610505.958,-16.113,-42.480,-37.109,-10.742,-57.617
1689610505.962,-18.066,-34.668,-38.086,-20.020,-166.992
1689610505.964,-24.414,-35.156,-38.086,-20.996,-121.582
1689610505.968,-14.648,-34.668,-39.062,-15.137,-125.488
1689610505.972,-12.695,-34.180,-36.621,-17.578,-175.781
1689610505.976,-13.672,-30.273,-27.832,-19.531,-151.855
1689610505.980,-16.602,-30.273,-23.926,-14.648,-73.730
1689610505.984,-25.879,-31.738,-23.926,-6.836,0.000
1689610505.988,-29.297,-31.250,-26.367,-4.883,2.930
1689610505.991,-16.602,-24.414,-32.227,-8.789,-51.758
1689610505.995,-13.184,-22.461,-29.785,-6.836,101.074
1689610505.999,-23.438,-28.320,-25.879,-9.277,293.457
1689610506.003,-17.578,-31.250,-27.344,-20.020,-29.297
1689610506.007,-23.438,-33.203,-28.320,-19.531,-214.844
1689610506.009,-30.762,-31.738,-33.203,-18.555,-39.551
1689610506.013,-25.391,-36.133,-38.574,-21.484,-8.789
1689610506.017,-31.250,-35.645,-37.598,-28.809,-135.254
1689610506.021,-34.668,-31.738,-33.691,-36.621,-178.711
1689610506.025,-29.297,-35.156,-33.691,-21.484,-80.566
1689610506.029,-30.273,-36.133,-33.691,-18.066,-35.645
1689610506.033,-33.691,-32.715,-34.668,-26.367,-94.727
1689610506.036,-38.574,-32.227,-37.109,-31.738,-167.969
1689610506.040,-41.504,-40.527,-37.109,-33.691,221.191
1689610506.044,-41.992,-42.969,-36.133,-25.879,336.914
1689610506.048,-30.273,-35.645,-31.250,-17.578,-83.496
1689610506.052,-9.277,-27.344,-28.809,-8.789,-41.504
1689610506.054,-26.367,-19.043,-37.109,-41.992,-19.531
1689610506.058,-34.180,-17.090,-43.457,-61.035,-151.855
1689610506.062,-9.277,-18.066,-46.875,-46.387,-186.523
1689610506.066,-13.672,-22.949,-51.270,-47.852,-77.148
1689610506.070,-24.902,-24.414,-47.852,-39.551,-29.297
1689610506.074,-20.508,-19.043,-40.039,-33.203,3.418
1689610506.078,-16.602,-22.949,-33.691,-29.297,16.602
1689610506.081,-19.531,-23.926,-31.250,-21.484,111.816
1689610506.085,-18.066,-18.555,-35.156,-11.230,162.598
1689610506.089,-12.695,-20.020,-35.645,-8.301,-78.125
1689610506.093,-7.324,-13.672,-32.227,-9.277,-102.051
1689610506.097,-12.207,-19.531,-34.180,-14.160,-18.066
1689610506.099,-21.973,-31.250,-35.156,-13.184,-82.031
1689610506.103,-19.531,-24.414,-30.273,-0.488,-156.250
1689610506.107,-12.695,-20.508,-29.297,0.488,-153.809
1689610506.111,-7.324,-18.066,-35.645,0.000,118.164
1689610506.115,-15.137,-22.461,-44.434,-11.719,87.402
1689610506.119,-24.902,-21.973,-39.062,-17.090,-115.723
1689610506.123,-21.484,-20.996,-28.320,-5.859,-0.977
1689610506.126,-15.625,-22.949,-25.391,9.277,259.766
1689610506.130,-16.113,-23.438,-27.832,2.441,139.648
1689610506.134,-18.555,-20.996,-26.855,-2.441,-204.590
1689610506.138,-13.184,-16.602,-21.484,-1.465,-151.367
1689610506.142,-4.395,-22.461,-23.438,-10.254,-94.238
1689610506.145,-8.789,-27.832,-26.367,-3.418,-123.535
1689610506.149,-13.184,-25.879,-26.367,-8.789,-91.309
1689610506.153,-13.672,-27.344,-24.902,-12.695,30.273
1689610506.157,-26.367,-28.320,-20.508,-8.789,13.672
1689610506.161,-25.879,-26.855,-23.438,-6.836,-120.605
1689610506.165,-10.254,-25.391,-29.785,-1.465,-106.934
1689610506.169,-11.230,-23.438,-30.273,1.465,189.453
1689610506.172,-19.531,-26.855,-34.668,-10.742,279.785
1689610506.176,-29.785,-31.738,-38.086,-29.297,-83.008
1689610506.180,-28.809,-28.320,-31.738,-19.043,-112.305
1689610506.184,-17.578,-22.461,-23.926,-5.859,-66.895
1689610506.188,-15.137,-24.414,-26.855,-10.742,-95.215
1689610506.189,-23.438,-30.762,-32.715,-18.066,-79.102
1689610506.193,-31.250,-32.227,-36.621,-25.391,-121.094
1689610506.197,-28.809,-33.691,-33.691,-24.414,-18.555
1689610506.201,-18.555,-34.668,-26.855,-14.160,62.988
1689610506.205,-16.113,-30.762,-26.855,-11.719,-78.613
1689610506.209,-23.926,-28.809,-30.762,-24.414,-86.426
1689610506.213,-26.367,-27.344,-27.832,-26.367,261.719
1689610506.216,-37.598,-26.367,-27.344,-23.438,260.742
1689610506.220,-35.645,-29.297,-32.227,-24.414,-175.781
1689610506.224,-28.320,-33.203,-35.645,-28.320,-138.184
1689610506.228,-32.715,-30.762,-35.156,-22.949,-92.773
1689610506.232,-28.809,-32.715,-30.762,-17.090,-208.984
1689610506.236,-28.320,-34.668,-25.879,-23.438,-200.684
1689610506.240,-30.762,-27.344,-26.855,-27.344,-80.566
1689610506.244,-30.762,-26.855,-31.738,-29.785,-22.461
1689610506.248,-34.180,-27.344,-31.250,-35.156,-88.867
1689610506.252,-34.668,-26.367,-29.297,-37.598,-122.070
1689610506.256,-32.715,-27.344,-32.227,-31.250,127.441
1689610506.260,-30.273,-24.902,-29.297,-21.484,213.379
1689610506.263,-23.438,-25.879,-25.879,-20.020,-28.320
1689610506.267,-25.879,-26.367,-27.832,-27.832,-133.789
1689610506.271,-28.809,-25.391,-30.273,-32.715,47.852
1689610506.275,-32.227,-19.531,-29.785,-33.691,155.273
1689610506.279,-38.574,-22.461,-28.320,-30.762,-135.254
1689610506.294,-26.367,-27.832,-27.832,-27.832,-124.023
1689610506.298,-25.391,-23.438,-26.855,-35.645,-46.875
1689610506.302,-36.133,-27.832,-26.367,-40.039,-133.789
1689610506.306,-27.832,-26.855,-21.484,-37.109,-152.832
1689610506.310,-23.926,-24.902,-23.926,-39.551,-138.672
1689610506.314,-25.391,-24.902,-24.414,-32.715,288.574
1689610506.318,-28.809,-24.902,-22.461,-31.250,397.949
1689610506.321,-32.227,-30.762,-31.738,-41.016,-138.184
1689610506.325,-28.320,-34.180,-37.598,-43.945,-141.113
1689610506.329,-30.762,-33.203,-28.809,-41.992,165.527
1689610506.333,-32.715,-30.762,-25.879,-35.645,52.246
1689610506.337,-27.832,-29.785,-27.832,-34.668,-158.691
1689610506.339,-24.414,-28.320,-28.320,-41.992,-130.371
1689610506.343,-35.645,-22.461,-24.902,-43.945,-109.863
1689610506.347,-38.574,-25.879,-22.461,-41.992,-129.395
1689610506.351,-34.668,-33.691,-21.973,-38.086,-130.371
1689610506.355,-27.832,-35.156,-21.484,-36.621,0.000
1689610506.359,-27.832,-33.203,-26.367,-43.457,158.203
1689610506.363,-34.668,-25.391,-27.832,-42.480,99.121
1689610506.366,-34.668,-24.902,-28.809,-42.969,-91.797
1689610506.370,-32.227,-28.809,-29.297,-45.898,46.387
1689610506.374,-28.809,-25.391,-23.926,-33.691,233.398
1689610506.378,-30.762,-27.344,-22.461,-29.785,-98.633
1689610506.382,-28.809,-33.203,-24.902,-37.109,-194.336
1689610506.384,-27.344,-35.156,-26.855,-42.480,153.809
1689610506.388,-30.273,-36.133,-26.367,-39.062,193.359
1689610506.392,-24.414,-31.738,-29.297,-32.227,-130.371
1689610506.396,-29.297,-32.715,-40.039,-31.250,-149.902
1689610506.400,-41.504,-38.086,-37.598,-41.016,-101.074
1689610506.404,-29.785,-40.527,-37.109,-35.156,1.465
1689610506.408,-26.855,-38.086,-38.086,-26.367,-51.758
1689610506.411,-57.617,-38.086,-24.902,-54.199,-139.648
1689610506.415,-83.984,-41.016,-23.438,-77.637,147.461
1689610506.419,-93.750,-37.109,-35.156,-90.332,59.570
1689610506.423,-97.168,-40.039,-34.180,-99.609,-215.820
1689610506.427,-113.281,-45.898,-23.926,-114.258,-122.559
1689610506.430,-130.859,-45.410,-18.066,-132.812,-68.848
1689610506.434,-132.324,-46.875,-19.043,-137.207,-121.094
1689610506.438,-138.672,-45.898,-26.855,-142.578,-171.875
1689610506.442,-139.160,-39.062,-30.762,-143.555,-22.461
1689610506.446,-136.719,-39.551,-29.297,-136.719,30.762
1689610506.450,-123.535,-39.551,-31.738,-125.000,-56.152
1689610506.454,-103.027,-34.668,-35.645,-114.746,7.812
1689610506.457,-96.191,-31.738,-33.203,-108.887,157.715
1689610506.461,-87.402,-36.621,-33.203,-96.680,141.602
1689610506.465,-70.801,-27.344,-35.156,-79.590,-140.625
1689610506.469,-60.547,-22.461,-39.551,-64.453,-143.066
1689610506.473,-53.711,-29.785,-38.574,-56.641,23.438
1689610506.474,-48.340,-26.367,-32.227,-50.781,-12.695
1689610506.478,-50.293,-25.391,-30.762,-51.270,-145.996
1689610506.482,-47.363,-29.297,-33.203,-50.293,-159.668
1689610506.486,-36.133,-31.250,-37.109,-41.016,22.949
1689610506.490,-28.320,-28.320,-38.086,-31.250,70.312
1689610506.494,-28.809,-30.762,-33.691,-29.785,-82.031
1689610506.498,-31.250,-26.855,-29.785,-27.344,-101.562
1689610506.501,-29.297,-32.227,-34.668,-29.297,212.402
1689610506.505,-23.438,-41.504,-39.062,-30.273,292.480
1689610506.509,-26.855,-36.133,-40.039,-21.484,-118.164
1689610506.513,-26.367,-37.598,-38.574,-26.855,-191.895
1689610506.517,-26.855,-42.480,-33.691,-33.203,-158.691
1689610506.519,-28.320,-40.527,-33.203,-21.484,-227.051
1689610506.523,-25.391,-30.273,-33.203,-20.020,-204.590
1689610506.527,-22.461,-27.832,-29.785,-19.531,-82.031
1689610506.531,-14.160,-27.832,-29.785,-18.555,-80.566
1689610506.535,-18.066,-26.367,-32.715,-24.414,-188.477
1689610506.539,-27.344,-25.879,-26.855,-26.367,-141.113
1689610506.543,-26.855,-26.367,-23.438,-16.602,242.188
1689610506.546,-21.484,-29.785,-23.438,-3.906,501.953
1689610506.550,-22.949,-26.855,-22.949,-16.602,66.895
1689610506.554,-26.855,-26.367,-20.996,-20.996,-267.090
1689610506.558,-30.762,-30.273,-25.879,-17.578,-149.902
1689610506.562,-29.785,-25.391,-34.180,-18.555,-104.492
1689610506.564,-30.273,-28.320,-29.785,-22.949,-88.379
1689610506.568,-33.203,-37.109,-22.461,-35.156,-79.590
1689610506.572,-31.738,-35.645,-23.438,-35.156,2.441
1689610506.576,-35.645,-26.855,-25.879,-29.297,4.883
1689610506.580,-34.668,-27.344,-27.344,-26.855,-176.270
1689610506.584,-40.039,-34.668,-28.320,-24.902,-15.137
1689610506.588,-40.039,-36.621,-25.391,-33.203,233.887
1689610506.591,-38.574,-41.504,-28.809,-43.457,33.203
1689610506.595,-41.016,-37.109,-37.109,-41.504,-222.168
1689610506.599,-33.203,-27.344,-35.645,-39.551,-73.242
1689610506.603,-38.574,-30.762,-29.785,-36.621,104.980
1689610506.607,-44.922,-33.203,-27.344,-39.062,-59.570
1689610506.609,-36.133,-31.250,-24.902,-43.457,-186.523
1689610506.613,-39.062,-33.203,-28.320,-46.875,-110.352
1689610506.617,-45.410,-42.969,-29.297,-40.039,-32.715
1689610506.621,-39.551,-41.992,-32.227,-39.062,-63.965
1689610506.625,-33.203,-34.668,-39.551,-42.480,-145.508
1689610506.629,-28.320,-33.203,-37.109,-34.668,26.367
1689610506.633,-31.738,-31.250,-28.809,-32.715,78.613
1689610506.636,-37.598,-35.156,-24.902,-29.297,-119.629
1689610506.640,-32.715,-35.156,-24.414,-27.344,-118.164
1689610506.644,-28.320,-37.598,-21.484,-30.762,122.559
1689610506.648,-33.203,-33.691,-25.391,-40.039,144.043
1689610506.652,-29.297,-24.414,-33.691,-40.039,-117.676
1689610506.669,-33.203,-27.832,-36.133,-39.551,-124.512
1689610506.673,-44.922,-31.250,-35.156,-41.016,223.145
1689610506.677,-36.621,-37.109,-33.691,-33.203,215.332
1689610506.681,-40.527,-36.621,-33.203,-36.133,-204.102
1689610506.685,-42.969,-36.133,-34.668,-41.992,-214.355
1689610506.689,-30.762,-41.016,-35.156,-40.527,-47.363
1689610506.693,-26.367,-40.527,-29.297,-33.691,30.273
1689610506.696,-30.273,-42.480,-25.879,-34.668,-75.195
1689610506.700,-40.527,-41.992,-29.785,-40.039,-112.305
1689610506.704,-43.457,-35.645,-31.738,-41.016,112.305
1689610506.708,-37.109,-27.344,-33.203,-41.992,-23.926
1689610506.712,-31.250,-28.320,-38.086,-39.062,-218.750
1689610506.715,-29.785,-38.086,-34.668,-38.086,-84.961
1689610506.719,-34.668,-37.109,-20.996,-34.668,-83.984
1689610506.723,-19.043,-41.992,-15.137,-12.207,-69.336
1689610506.727,-38.086,-35.156,-25.391,-22.461,-109.863
1689610506.731,-54.199,-15.137,-30.762,-42.480,-26.855
1689610506.735,-38.086,-8.789,-29.297,-48.828,125.000
1689610506.739,-47.852,-5.859,-28.809,-62.012,-76.172
1689610506.742,-37.598,-2.930,-37.598,-55.176,-257.324
1689610506.746,-28.809,-5.859,-42.480,-58.105,-2.930
1689610506.750,-30.273,-7.812,-43.945,-59.570,229.492
1689610506.754,-18.555,-5.371,-47.363,-59.082,-71.289
1689610506.758,-11.230,-4.883,-47.363,-63.477,-160.156
1689610506.759,-15.625,-8.301,-44.434,-61.523,-27.344
1689610506.763,-20.020,-6.836,-38.574,-52.246,-31.250
1689610506.767,-27.344,-6.836,-37.598,-45.898,-117.188
1689610506.771,-34.668,-13.672,-29.297,-48.340,-158.691
1689610506.775,-32.227,-15.137,-35.156,-50.781,-21.484
1689610506.779,-38.574,-22.461,-48.828,-52.246,60.059
1689610506.783,-40.527,-31.738,-42.969,-45.898,-5.859
1689610506.786,-24.902,-26.367,-30.273,-32.715,-65.430
1689610506.790,-28.320,-21.484,-25.879,-39.062,237.305
1689610506.794,-30.762,-26.855,-33.203,-47.363,310.547
1689610506.798,-23.926,-29.297,-36.133,-42.969,-132.812
1689610506.802,-23.926,-27.344,-37.598,-43.457,-164.551
1689610506.804,-17.090,-14.648,-36.133,-46.387,-72.266
1689610506.808,-19.531,-22.461,-34.180,-42.969,-139.648
1689610506.812,-26.367,-32.227,-33.203,-36.133,-162.598
1689610506.816,-25.879,-22.949,-30.273,-33.203,-106.445
1689610506.820,-20.508,-18.066,-28.809,-37.598,-117.676
1689610506.824,-18.555,-22.949,-33.203,-42.969,-18.066
1689610506.828,-13.184,-27.832,-35.645,-31.250,36.621
1689610506.831,-16.602,-24.902,-34.668,-23.926,162.598
1689610506.835,-25.879,-23.926,-32.227,-28.320,316.895
1689610506.839,-24.902,-22.461,-28.320,-28.320,-20.020
1689610506.843,-20.996,-19.531,-31.250,-22.949,-190.430
1689610506.847,-17.090,-20.020,-28.809,-21.484,-24.902
1689610506.849,-11.719,-32.715,-26.855,-19.531,80.078
1689610506.853,-19.531,-28.320,-32.715,-24.414,-113.770
1689610506.857,-35.156,-18.066,-33.203,-42.969,-228.027
1689610506.861,-19.043,-23.438,-29.785,-31.250,-25.391
1689610506.865,-17.090,-29.297,-27.344,-27.832,19.043
1689610506.869,-34.668,-29.785,-27.832,-39.551,-100.586
1689610506.873,-33.691,-30.762,-26.855,-28.320,-17.578
1689610506.876,-36.133,-29.785,-25.879,-29.785,209.961
1689610506.880,-26.855,-29.785,-22.461,-23.438,81.543
1689610506.884,-12.207,-17.578,-27.832,-22.949,-151.367
1689610506.888,-15.625,-25.879,-35.156,-24.902,24.902
1689610506.892,-15.625,-32.715,-29.785,-24.414,59.082
1689610506.894,-35.156,-29.297,-22.949,-37.598,-180.664
1689610506.898,-31.738,-33.691,-23.438,-25.879,-269.043
1689610506.902,-14.160,-24.414,-25.391,-19.043,-149.414
1689610506.906,-22.949,-34.668,-23.926,-15.137,-57.129
1689610506.910,-27.344,-22.949,-29.785,-29.785,-160.156
1689610506.914,-22.949,-7.812,-29.297,-32.227,-180.664
1689610506.918,-14.160,-23.926,-28.320,-16.602,130.371
1689610506.921,-19.531,-32.227,-33.203,-27.832,226.562
1689610506.925,-28.320,-32.227,-31.738,-20.020,-94.238
1689610506.929,-20.020,-28.320,-27.832,-18.555,-198.242
1689610506.933,-21.973,-30.762,-25.391,-27.832,-193.359
1689610506.937,-26.367,-35.645,-29.297,-31.250,-182.129
1689610506.941,-20.508,-38.086,-35.156,-27.832,-25.391
1689610506.945,-16.113,-34.180,-31.738,-12.207,31.250
1689610506.949,-28.320,-26.367,-30.273,-23.438,192.871
1689610506.953,-27.344,-24.902,-41.016,-31.250,204.590
1689610506.957,-30.762,-26.367,-35.156,-30.273,-201.172
1689610506.961,-36.621,-26.855,-31.738,-33.203,-179.688
1689610506.965,-14.648,-29.297,-30.273,-13.184,206.543
1689610506.968,-24.902,-28.809,-23.438,-16.602,109.375
1689610506.972,-40.527,-28.320,-26.367,-20.020,-237.305
1689610506.976,-23.438,-34.668,-24.902,-19.043,-95.215
1689610506.980,-19.531,-33.691,-23.926,-24.902,0.488
1689610506.984,-24.414,-34.668,-23.438,-10.742,-122.559
1689610506.999,-25.879,-37.598,-24.414,-13.672,-152.832
1689610507.003,-38.086,-38.574,-27.344,-41.016,-89.844
1689610507.007,-33.203,-40.039,-33.203,-44.922,-17.090
1689610507.011,-2.930,-32.227,-39.551,-18.555,-41.992
1689610507.015,1.953,-24.902,-28.320,0.488,-123.535
1689610507.019,-31.738,-39.062,-22.949,-18.555,95.215
1689610507.023,-24.414,-37.109,-30.762,-24.902,403.320
1689610507.026,-9.277,-32.715,-25.391,-6.348,24.902
1689610507.030,11.230,-37.598,-28.320,5.371,-251.953
1689610507.034,14.648,-42.969,-29.297,11.719,-102.051
1689610507.038,6.836,-49.316,-18.066,29.297,-74.707
1689610507.042,24.902,-36.133,-17.090,37.109,-196.289
1689610507.044,23.438,-31.738,-19.043,24.414,-174.316
1689610507.048,20.508,-41.016,-18.555,31.250,38.086
1689610507.052,16.602,-33.691,-20.996,29.785,62.012
1689610507.056,7.812,-33.203,-27.832,25.391,-88.379
1689610507.060,13.672,-31.250,-28.320,18.066,-120.117
1689610507.064,12.207,-24.902,-24.414,9.766,-52.246
1689610507.068,-2.441,-32.227,-22.461,14.648,-28.320
1689610507.071,-16.113,-41.992,-24.414,19.043,-46.875
1689610507.075,0.000,-32.227,-23.438,16.113,-75.684
1689610507.079,10.254,-21.973,-20.020,11.230,216.309
1689610507.083,-5.371,-21.973,-18.066,12.207,205.078
1689610507.087,-15.137,-18.066,-19.043,-5.371,-161.133
1689610507.089,-12.695,-25.879,-26.367,-4.395,-90.820
1689610507.093,-10.254,-36.133,-19.531,0.488,-19.531
1689610507.097,2.930,-18.066,-18.555,-0.488,-119.629
1689610507.101,-5.859,-21.484,-28.320,-6.836,-172.363
1689610507.105,-25.879,-30.762,-32.227,-14.648,2.441
1689610507.109,-17.090,-24.414,-32.715,-19.043,186.523
1689610507.113,-22.949,-28.320,-31.250,-16.113,93.262
1689610507.116,-28.809,-36.133,-28.809,-12.207,11.230
1689610507.120,-26.367,-27.832,-31.250,-20.020,85.938
1689610507.124,-37.598,-8.301,-30.273,-25.391,233.398
1689610507.128,-17.578,-23.438,-25.391,-17.578,-10.742
1689610507.132,-15.137,-32.715,-25.391,-13.672,-180.176
1689610507.134,-28.809,-34.180,-27.344,-21.484,-66.895
1689610507.138,-20.996,-41.504,-28.809,-14.648,-129.395
1689610507.142,-39.062,-38.574,-27.832,-14.160,-256.836
1689610507.146,-27.344,-35.156,-23.926,-20.508,-172.852
1689610507.150,-5.859,-34.668,-20.996,-13.672,-11.230
1689610507.154,-33.691,-35.156,-28.809,-16.602,-15.137
1689610507.158,-46.875,-26.367,-34.668,-29.297,-29.785
1689610507.161,-19.531,-30.762,-28.320,-22.949,-60.547
1689610507.165,-20.996,-18.066,-27.344,-16.602,97.168
1689610507.169,-37.109,-10.254,-29.297,-22.949,78.613
1689610507.173,-32.227,-30.273,-18.555,-32.715,-136.230
1689610507.177,-31.738,-29.297,-21.484,-29.785,-45.410
1689610507.179,-36.621,-34.668,-27.832,-30.273,7.324
1689610507.183,-37.598,-27.344,-25.879,-29.297,-123.535
1689610507.187,-31.738,-29.785,-32.227,-16.602,-157.715
1689610507.191,-18.555,-35.156,-27.344,-11.719,-63.477
1689610507.195,-22.461,-31.250,-21.484,-21.973,-56.152
1689610507.199,-41.992,-31.738,-28.809,-22.461,-11.230
1689610507.203,-33.203,-24.414,-31.250,-28.320,26.367
1689610507.206,-24.414,-26.367,-33.691,-35.156,128.418
1689610507.210,-36.133,-22.949,-38.086,-26.367,180.664
1689610507.214,-37.109,-32.715,-29.785,-27.832,-109.863
1689610507.218,-26.855,-40.039,-25.879,-28.809,-214.355
1689610507.222,-16.602,-27.832,-34.180,-18.066,-15.625
1689610507.255,-24.902,-27.344,-28.320,-17.090,120.605
1689610507.259,-41.992,-36.133,-25.391,-24.902,25.879
1689610507.263,-26.367,-33.203,-29.297,-18.066,-88.379
1689610507.267,-8.301,-24.414,-25.391,-10.254,84.473
1689610507.271,-22.461,-28.809,-30.273,-17.090,142.090
1689610507.275,-30.273,-31.250,-34.180,-20.020,-85.938
1689610507.279,-33.691,-31.250,-31.250,-31.250,-27.344
1689610507.282,-26.367,-35.156,-20.020,-33.691,218.262
1689610507.286,-15.625,-36.621,-26.367,-23.926,104.492
1689610507.290,-35.645,-35.156,-37.109,-41.504,-193.359
1689610507.294,-42.480,-34.180,-25.391,-41.016,-112.305
1689610507.298,-15.625,-12.207,-36.133,-16.113,-67.383
1689610507.269,-17.090,-5.371,-32.715,-19.043,-156.738
1689610507.273,-43.457,-35.156,-6.348,-40.039,-229.980
1689610507.277,-38.086,-39.551,-17.090,-27.344,-121.582
1689610507.281,-24.902,-42.969,-22.461,-10.254,23.438
1689610507.285,-16.602,-56.152,-16.602,0.000,-71.289
1689610507.289,-27.832,-47.852,-16.113,-10.254,-56.641
1689610507.293,-47.852,-38.574,-12.695,-15.625,108.398
1689610507.296,-30.762,-61.523,-13.672,-7.812,21.973
1689610507.300,-28.320,-45.410,-29.297,-7.324,-166.992
1689610507.304,-39.062,-27.832,-30.273,-13.672,-138.184
1689610507.308,-20.508,-41.504,-15.625,-15.137,27.344
1689610507.312,-11.719,-37.598,-11.719,-4.883,15.625
1689610507.329,-22.949,-46.875,-21.973,-14.648,-66.406
1689610507.333,-41.992,-47.363,-29.785,-26.367,-101.562
1689610507.337,-33.691,-44.434,-18.555,-15.625,84.961
1689610507.341,-22.461,-46.387,-24.414,-7.812,456.055
1689610507.345,-20.996,-44.922,-30.762,-19.043,141.602
1689610507.349,-38.574,-36.621,-21.973,-36.133,-219.727
1689610507.353,-36.621,-35.156,-19.043,-21.973,64.941
1689610507.356,-37.109,-49.316,-23.926,-10.742,124.512
1689610507.360,-33.691,-44.434,-22.949,-28.320,-177.734
1689610507.364,-18.555,-36.133,-21.484,-27.832,-149.414
1689610507.368,-30.762,-33.691,-33.203,-24.902,20.020
1689610507.372,-37.109,-36.621,-29.785,-28.809,-112.305
1689610507.374,-28.320,-41.992,-35.645,-35.156,-243.652
1689610507.378,-28.320,-41.016,-41.016,-30.762,-185.547
1689610507.382,-33.203,-34.668,-29.297,-29.297,-190.918
1689610507.386,-55.664,-36.133,-34.668,-71.777,-288.574
1689610507.390,-53.223,-48.828,-39.062,-65.430,-297.852
1689610507.394,-20.508,-43.945,-21.484,-0.488,-8.301
1689610507.398,-22.461,-41.016,-18.555,-39.062,61.523
1689610507.401,-47.363,-44.922,-29.785,-93.750,-144.043
1689610507.405,-41.016,-39.062,-32.227,-39.551,-210.938
1689610507.409,-26.855,-32.227,-27.832,-7.812,-56.152
1689610507.413,-27.832,-30.273,-41.016,-35.156,263.184
1689610507.417,-34.668,-31.738,-41.016,-72.266,43.457
1689610507.419,-39.551,-41.016,-22.949,-30.762,-83.984
1689610507.423,-27.832,-34.668,-30.762,11.719,252.930
1689610507.427,-35.156,-30.273,-34.180,-2.441,222.168
1689610507.431,-37.598,-33.203,-37.598,-25.391,-107.910
1689610507.435,-25.879,-33.691,-40.527,-52.734,-113.281
1689610507.439,-30.273,-30.762,-39.062,-22.949,30.273
1689610507.443,-30.273,-35.156,-27.832,-8.301,38.574
1689610507.446,-32.227,-38.574,-41.504,-81.055,-133.301
1689610507.450,-39.062,-33.691,-52.734,-73.730,-144.043
1689610507.454,-40.527,-28.320,-40.527,-11.719,230.957
1689610507.458,-31.738,-43.457,-30.762,-37.598,212.402
1689610507.462,-26.367,-44.434,-36.133,-86.426,-98.633
1689610507.464,-40.039,-25.391,-37.109,-52.246,-92.285
1689610507.468,-25.391,-39.551,-25.879,-3.418,17.090
1689610507.472,-0.488,-35.645,-34.180,0.488,-130.859
1689610507.476,-10.254,-15.137,-47.852,-22.949,-192.383
1689610507.480,-19.043,-12.207,-41.992,-32.715,-97.168
1689610507.484,-21.484,-21.973,-23.926,-34.180,-59.082
1689610507.488,-20.020,-20.508,-43.457,-41.504,-54.688
1689610507.491,-4.883,4.883,-50.781,-20.020,-137.207
1689610507.495,18.066,0.488,-39.062,4.883,-12.695
1689610507.499,-16.602,26.367,-52.734,-31.250,181.152
1689610507.503,-42.480,32.715,-58.594,-89.355,-132.812
1689610507.507,-5.371,-13.184,-47.852,-19.531,-168.945
1689610507.509,17.578,-12.207,-46.387,21.484,116.699
1689610507.513,15.137,2.441,-50.293,3.906,115.234
1689610507.517,-11.230,-4.883,-46.875,-25.879,-77.637
1689610507.521,-13.672,-23.438,-44.434,-33.691,-188.477
1689610507.525,4.395,0.488,-46.387,2.930,7.324
1689610507.529,-1.953,-2.441,-45.410,9.766,107.910
1689610507.533,-4.395,-26.367,-57.129,7.812,-26.367
1689610507.536,-20.508,-13.184,-28.809,-16.602,-98.145
1689610507.540,-28.320,1.953,-25.391,-29.297,91.309
1689610507.544,-32.715,-11.230,-57.129,-23.926,30.273
1689610507.548,-18.555,-34.668,-39.062,-11.230,-185.547
1689610507.552,-3.418,-46.875,-30.273,-4.883,-112.305
1689610507.554,-12.695,-32.715,-31.250,-19.043,-86.426
1689610507.558,-6.348,-35.156,-36.133,-16.113,-147.949
1689610507.562,-20.020,-39.062,-30.762,-18.555,-161.621
1689610507.566,-41.016,-2.441,-35.645,-36.133,41.504
1689610507.570,-29.297,-14.648,-41.504,-24.414,88.867
1689610507.574,-9.277,-30.273,-36.621,-18.066,-37.598
1689610507.578,-40.527,-8.789,-31.738,-36.621,-109.863
1689610507.581,-45.410,-14.648,-36.133,-63.965,22.949
1689610507.585,-16.113,-32.715,-30.273,-24.902,277.344
1689610507.589,-5.371,-28.809,-28.809,0.977,67.383
1689610507.593,-4.395,-25.391,-44.922,-43.457,-86.426
1689610507.597,-14.648,-30.273,-34.180,-42.480,-105.469
1689610507.599,-7.812,-20.996,-33.691,-1.465,-84.961
1689610507.603,-22.949,-9.766,-38.574,-20.508,-78.613
1689610507.607,-46.387,-13.672,-46.387,-34.180,-148.438
1689610507.611,-28.320,-24.414,-45.898,-22.949,-52.246
1689610507.615,-10.254,-33.203,-15.625,-16.113,-51.758
1689610507.619,1.953,-25.391,-21.484,-15.137,-128.906
1689610507.623,-0.977,-24.902,-32.715,-14.160,-155.762
1689610507.626,-41.992,-44.922,-19.043,-24.902,251.953
1689610507.630,-77.637,-42.969,-19.043,-65.918,326.660
1689610507.634,-101.074,-57.617,-14.160,-121.094,-169.922
1689610507.638,-107.422,-54.688,-22.949,-107.910,-181.152
1689610507.642,-115.234,-56.152,-12.207,-82.031,-82.031
1689610507.644,-114.258,-64.453,-10.254,-93.262,-73.730
1689610507.648,-119.629,-46.875,-21.484,-112.793,-94.727
1689610507.652,-116.699,-44.922,-21.484,-113.281,-83.984
1689610507.656,-147.461,-56.641,-11.230,-150.879,-112.793
1689610507.660,-140.137,-48.828,-16.113,-135.742,-172.363
1689610507.664,-86.914,-44.922,-26.855,-66.406,-92.773
1689610507.668,-59.570,-52.246,-22.949,-58.105,188.965
1689610507.671,-59.082,-38.086,-25.391,-65.430,241.699
1689610507.675,-59.570,-34.668,-26.367,-57.617,-30.762
1689610507.679,-40.527,-59.570,-31.738,-47.852,-143.066
1689610507.683,-58.594,-64.453,-25.879,-42.480,-56.152
1689610507.687,-58.105,-42.480,-14.648,-56.641,-17.578
1689610507.689,-42.480,-45.410,-21.973,-66.406,-118.652
1689610507.693,-49.316,-44.434,-22.461,-48.828,-123.047
1689610507.697,-49.805,-30.273,-27.344,-35.156,10.254
1689610507.701,-58.105,-39.551,-24.902,-25.879,-9.766
1689610507.705,-74.707,-34.180,-25.879,-54.688,-174.316
1689610507.709,-59.082,-43.457,-32.715,-74.707,-92.773
1689610507.713,-33.203,-44.434,-15.137,-29.785,153.809
1689610507.716,-22.949,-43.945,-16.602,-1.465,92.285
1689610507.720,-20.996,-43.457,-29.785,-12.207,-138.184
1689610507.724,-15.137,-29.297,-31.738,-26.855,-73.242
1689610507.728,-16.113,-37.598,-27.832,-32.227,106.934
1689610507.732,-19.531,-28.320,-30.762,-27.832,82.520
1689610507.734,-35.156,-32.227,-23.438,-48.828,-155.273
1689610507.738,-46.875,-41.504,-17.578,-65.430,-97.168
1689610507.742,-26.367,-22.461,-37.109,-42.969,52.246
1689610507.746,-35.645,-39.062,-20.508,-11.230,-74.707
1689610507.750,-58.594,-49.805,-13.184,-9.277,-174.316
1689610507.754,-40.527,-37.109,-26.855,-28.809,63.965
1689610507.758,-24.414,-30.762,-23.926,-25.391,235.840
1689610507.761,-20.996,-33.203,-16.113,-8.789,-46.875
1689610507.765,-24.902,-28.809,-20.996,-18.066,-148.438
1689610507.769,-55.176,-49.805,-19.043,-42.480,-7.812
1689610507.773,-41.504,-47.852,-12.207,-49.316,-15.625
1689610507.777,-16.113,-33.691,-20.020,-27.344,-167.480
1689610507.794,-24.902,-16.113,-38.086,-32.227,-76.172
1689610507.798,-60.059,-23.926,-34.668,-80.078,282.227
1689610507.802,-50.781,-53.223,-14.160,-71.777,257.812
1689610507.806,-24.902,-34.668,-24.414,-22.949,-158.691
1689610507.810,-20.996,-22.461,-28.809,-3.906,-166.504
1689610507.814,-8.789,-36.621,-23.438,6.348,54.688
1689610507.818,-23.926,-43.457,-17.578,-18.555,129.395
1689610507.821,-35.645,-42.480,-11.230,-41.016,-44.922
1689610507.825,-46.387,-47.852,-7.812,-40.039,-156.738
1689610507.829,-69.824,-49.316,-6.836,-37.598,80.566
1689610507.833,-40.039,-50.293,-8.789,-25.879,98.145
1689610507.837,-37.109,-38.574,3.418,-38.086,-77.637
1689610507.839,-54.199,-49.316,6.348,-42.480,-69.824
1689610507.843,-54.688,-61.035,1.465,-26.855,-102.051
1689610507.847,-52.734,-57.129,-4.395,-35.645,-161.621
1689610507.851,-54.688,-62.500,0.000,-58.105,-126.953
1689610507.855,-73.730,-51.758,-12.695,-84.473,81.055
1689610507.859,-70.312,-51.758,-22.949,-62.012,138.184
1689610507.863,-52.246,-33.203,-18.555,-31.250,-1.465
1689610507.866,-57.129,-39.062,-31.250,-48.340,-171.387
1689610507.870,-44.434,-65.430,-38.086,-45.898,-23.926
1689610507.874,-40.527,-62.500,-34.668,-28.320,193.359
1689610507.878,-65.430,-62.988,-48.340,-64.941,-125.488
1689610507.882,-67.871,-54.199,-64.453,-102.539,-225.098
1689610507.884,-44.922,-54.199,-46.387,-54.688,-89.355
1689610507.888,-94.727,-55.664,-41.992,-60.547,-23.438
1689610507.892,-122.070,-58.594,-50.293,-73.730,-60.059
1689610507.896,-49.316,-51.758,-42.480,-66.406,-99.609
1689610507.900,-48.828,-28.320,-37.598,-68.359,-61.523
1689610507.904,-101.074,-43.945,-39.062,-54.199,-8.789
1689610507.908,-84.473,-57.129,-41.504,-64.453,26.367
1689610507.911,-37.109,-42.969,-41.992,-55.664,-18.555
1689610507.915,-35.156,-60.059,-44.434,-39.062,224.609
1689610507.919,-15.625,-65.430,-39.551,-38.574,225.586
1689610507.923,-55.176,-53.711,-44.434,-63.477,-240.723
1689610507.927,-73.730,-50.293,-41.504,-57.617,-199.219
1689610507.929,-24.414,-52.734,-34.180,-39.551,-56.641
1689610507.933,-34.180,-43.945,-38.574,-67.383,-158.691
1689610507.937,-54.688,-49.805,-31.250,-62.012,-207.520
1689610507.941,-40.527,-50.781,-27.344,-59.082,-129.883
1689610507.945,-44.922,-41.016,-36.133,-62.012,-67.383
1689610507.949,-44.922,-47.852,-34.180,-54.688,-24.902
1689610507.953,-38.086,-45.410,-39.551,-47.363,-7.324
1689610507.956,-46.875,-35.156,-44.922,-44.922,91.309
1689610507.960,-36.621,-33.691,-38.574,-51.758,225.098
1689610507.964,-43.945,-41.016,-36.133,-41.504,-51.270
1689610507.968,-26.855,-32.715,-29.785,-35.156,-158.691
1689610507.972,-16.602,-23.438,-33.203,-20.020,-24.902
1689610507.975,-44.434,-31.250,-26.855,-16.113,-3.418
1689610507.979,-49.805,-16.602,-30.273,-43.945,-114.746
1689610507.983,-31.250,-6.836,-41.016,-39.062,-163.574
1689610507.987,-27.344,-18.066,-35.645,-22.949,45.898
1689610507.991,-9.277,-36.621,-25.391,-29.297,86.914
1689610507.995,-16.113,-45.410,-29.785,-30.273,-62.500
1689610507.999,-21.973,-38.086,-30.762,-27.344,-79.102
1689610508.002,-36.621,-40.039,-31.250,-37.109,186.035
1689610508.006,-32.715,-37.109,-40.527,-29.785,180.176
1689610508.010,2.930,-34.668,-29.297,-21.484,-143.555
1689610508.014,-23.438,-24.902,-22.461,-25.391,-90.332
1689610508.018,-35.645,-19.043,-21.973,-20.996,-28.320
1689610508.019,-20.020,-20.020,-22.949,-35.645,-160.645
1689610508.023,-16.602,-20.996,-31.738,-41.016,-202.637
1689610508.027,-29.785,-33.691,-28.809,-39.551,-67.871
1689610508.031,-39.062,-33.691,-26.855,-41.016,-14.648
1689610508.035,-34.180,-23.926,-31.250,-26.367,-104.492
1689610508.039,-24.902,-27.832,-30.762,-34.180,-53.711
1689610508.043,-21.484,-27.344,-21.484,-41.504,196.289
1689610508.046,-17.090,-26.855,-20.020,-30.273,379.395
1689610508.050,-15.137,-31.250,-27.832,-45.898,57.129
1689610508.054,-9.766,-24.902,-33.203,-40.527,-226.074
1689610508.058,-10.742,-24.414,-32.715,-17.578,-186.523
1689610508.062,-31.250,-29.297,-28.320,-29.297,-157.715
1689610508.080,-37.598,-36.621,-30.273,-37.598,-80.566
1689610508.084,-36.621,-30.762,-30.762,-55.664,-60.059
1689610508.088,-45.898,-27.344,-29.297,-62.500,62.500
1689610508.092,-39.551,-38.086,-29.785,-45.410,99.121
1689610508.096,-34.180,-37.109,-37.109,-44.922,-201.660
1689610508.100,-41.016,-40.039,-41.504,-45.898,-116.699
1689610508.104,-49.316,-35.156,-35.645,-48.340,219.238
1689610508.107,-56.641,-30.762,-34.668,-58.105,82.520
1689610508.111,-63.965,-33.691,-34.668,-51.758,-210.938
1689610508.115,-38.574,-32.227,-31.250,-42.480,-121.582
1689610508.119,-20.508,-24.902,-36.133,-44.434,-44.434
1689610508.123,-44.434,-29.297,-39.062,-56.152,-119.141
1689610508.109,-45.410,-31.738,-30.762,-53.711,-169.922
1689610508.113,-45.898,-29.785,-31.738,-45.410,-64.453
1689610508.117,-43.945,-34.668,-36.621,-43.945,2.930
1689610508.121,-46.387,-35.156,-26.367,-40.039,-54.688
1689610508.125,-49.805,-28.320,-29.785,-42.969,-22.949
1689610508.129,-41.504,-37.598,-41.016,-51.270,154.297
1689610508.133,-40.039,-41.992,-37.598,-44.922,83.496
1689610508.136,-41.016,-30.762,-42.480,-49.316,-120.605
1689610508.140,-34.668,-37.598,-43.945,-58.105,-148.438
1689610508.144,-35.645,-38.574,-37.109,-49.805,6.836
1689610508.148,-40.039,-28.809,-33.691,-47.852,236.328
1689610508.152,-45.898,-30.762,-33.203,-42.969,-14.648
1689610508.184,-41.992,-27.832,-33.203,-38.086,-160.645
1689610508.188,-33.691,-20.996,-29.297,-36.133,114.746
1689610508.192,-36.133,-26.855,-26.367,-29.297,113.281
1689610508.196,-30.273,-19.531,-29.785,-27.832,-183.105
1689610508.200,-33.691,-15.137,-29.785,-27.832,-264.160
1689610508.204,-46.875,-31.250,-31.250,-25.879,-80.078
1689610508.208,-35.645,-31.250,-34.180,-27.344,10.254
1689610508.211,-21.484,-32.715,-38.574,-29.297,10.254
1689610508.215,-36.133,-39.062,-33.203,-33.203,-55.664
1689610508.219,-38.086,-29.785,-26.855,-34.180,155.762
1689610508.223,-20.020,-23.438,-34.668,-35.156,149.414
1689610508.227,-30.762,-23.926,-31.250,-37.598,-198.730
1689610508.214,-30.762,-22.949,-25.391,-33.203,-143.555
1689610508.218,-20.020,-20.996,-28.809,-35.156,-86.914
1689610508.222,-26.367,-21.484,-28.809,-43.457,-182.617
1689610508.226,-40.527,-24.902,-28.320,-34.180,-185.059
1689610508.230,-27.832,-14.160,-26.855,-19.043,-75.684
1689610508.234,-20.020,-19.043,-22.949,-8.789,28.809
1689610508.238,-21.973,-22.461,-25.879,-14.160,109.863
1689610508.241,-34.668,-20.508,-25.391,-32.715,-41.504
1689610508.245,-61.523,-28.809,-25.391,-41.504,-72.754
1689610508.249,-52.734,-34.668,-25.391,-27.344,75.684
1689610508.253,-29.785,-30.273,-25.879,-23.926,-35.156
1689610508.257,-30.273,-25.391,-31.738,-27.344,-166.504
1689610508.259,-43.457,-24.902,-28.809,-23.926,105.957
1689610508.263,-42.480,-25.879,-23.926,-20.020,486.328
1689610508.267,-40.039,-33.203,-24.902,-0.977,160.645
1689610508.271,-50.293,-34.180,-28.809,-6.836,-166.504
1689610508.275,-31.250,-24.414,-29.297,-34.668,-155.273
1689610508.279,-10.254,-22.949,-29.785,-31.738,-172.363
1689610508.283,-32.227,-39.062,-27.832,-27.832,-148.438
1689610508.286,-34.668,-46.875,-22.949,-6.348,-179.688
1689610508.290,-5.859,-30.762,-25.391,13.184,104.004
1689610508.294,-32.227,-22.461,-36.621,-22.461,150.879
1689610508.298,-55.176,-27.832,-39.062,-39.062,-207.031
1689610508.302,-28.320,-14.160,-34.668,-41.016,-110.352
1689610508.304,-22.949,5.371,-35.645,-37.598,14.648
1689610508.308,-28.320,7.324,-49.805,-28.320,-153.809
1689610508.312,-25.879,3.906,-56.641,-39.062,-181.152
1689610508.316,-35.156,4.395,-54.199,-53.223,-106.445
1689610508.320,-27.832,24.414,-55.664,-62.500,-147.949
1689610508.324,8.789,40.527,-52.734,-37.598,-124.512
1689610508.328,11.719,33.203,-54.688,-30.762,-27.344
1689610508.331,4.883,29.297,-57.129,-46.387,115.234
1689610508.335,-13.672,16.113,-60.547,-58.105,211.426
1689610508.339,-15.625,9.277,-62.500,-54.199,-59.570
1689610508.343,-6.836,10.254,-52.734,-38.086,-142.090
1689610508.347,-14.648,1.953,-48.340,-36.621,-28.320
1689610508.350,-13.672,2.930,-52.734,-37.598,80.078
1689610508.354,-32.227,-0.488,-51.758,-47.363,-0.977
1689610508.358,-27.344,-4.883,-51.270,-55.664,-103.516
1689610508.362,-5.371,-1.465,-47.852,-33.691,149.414
1689610508.366,-4.883,-6.836,-45.410,-21.484,190.918
1689610508.370,-26.367,-15.625,-44.922,-31.738,-14.648
1689610508.374,-41.992,-20.996,-38.086,-36.133,-90.332
1689610508.377,-19.043,-17.090,-40.039,-28.320,89.355
1689610508.381,-11.719,-18.555,-38.574,-17.090,54.199
1689610508.385,-26.367,-21.484,-43.457,-25.879,-242.188
1689610508.389,-29.785,-26.367,-45.410,-26.367,-162.598
1689610508.393,-7.812,-19.043,-38.086,-19.043,-120.117
1689610508.396,-6.348,-19.531,-41.504,-38.574,-211.914
1689610508.400,-26.855,-28.320,-45.410,-46.387,-248.535
1689610508.404,-21.973,-20.508,-42.480,-25.879,-77.637
1689610508.408,-9.277,-18.066,-36.133,-21.484,1.465
1689610508.412,-12.695,-14.648,-34.668,-23.438,-69.336
1689610508.416,-29.297,-16.113,-35.156,-31.250,-99.121
1689610508.420,-30.762,-23.926,-30.762,-23.926,88.379
1689610508.423,-12.695,-23.438,-27.832,-9.277,378.906
1689610508.427,-4.395,-30.762,-31.250,-13.672,43.457
1689610508.431,-5.371,-30.762,-30.273,-19.531,-260.254
1689610508.435,-10.742,-26.855,-31.738,-26.367,-202.637
1689610508.439,-15.625,-26.367,-34.668,-16.113,-130.371
1689610508.439,-11.230,-26.367,-29.297,-3.418,-64.941
1689610508.443,-19.043,-31.250,-26.855,-12.695,-37.109
1689610508.447,-14.160,-28.320,-29.297,-24.414,13.672
1689610508.451,-8.301,-24.902,-33.203,-25.879,-40.527
1689610508.455,-25.391,-28.320,-31.738,-26.367,-134.766
1689610508.459,-29.297,-29.297,-25.391,-32.227,-49.805
1689610508.463,-13.672,-32.227,-20.020,-24.902,317.871
1689610508.466,-22.461,-25.391,-26.367,-22.461,538.574
1689610508.470,-31.738,-26.855,-23.926,-35.156,46.387
1689610508.474,-26.855,-28.320,-22.461,-29.297,-232.422
1689610508.478,-27.832,-23.438,-25.879,-15.625,-107.422
1689610508.482,-22.461,-28.320,-23.926,-21.484,-108.398
1689610508.499,-23.438,-29.785,-21.973,-23.438,-173.828
1689610508.503,-30.762,-32.227,-28.320,-21.484,-171.875
1689610508.507,-34.668,-39.551,-35.156,-36.133,-147.461
1689610508.511,-35.645,-35.645,-29.785,-40.039,-178.223
1689610508.515,-37.598,-27.344,-27.832,-32.715,-155.273
1689610508.519,-29.785,-27.344,-31.738,-25.391,149.414
1689610508.523,-21.973,-27.344,-35.156,-18.555,255.859
1689610508.526,-20.996,-28.320,-32.715,-15.625,-95.703
1689610508.530,-32.227,-34.668,-24.414,-14.648,-228.027
1689610508.534,-26.367,-31.738,-23.926,2.930,64.941
1689610508.538,3.418,-27.344,-26.367,16.602,170.410
1689610508.542,18.555,-25.391,-23.926,24.414,-145.996
1689610508.544,20.996,-26.367,-23.926,36.133,-166.504
1689610508.548,27.832,-32.715,-27.832,38.086,118.652
1689610508.552,31.250,-28.809,-29.785,35.645,163.574
1689610508.556,37.598,-23.438,-29.785,35.645,-117.676
1689610508.560,41.504,-25.879,-28.809,40.527,-169.922
1689610508.564,29.785,-28.809,-26.855,30.273,-80.078
1689610508.568,17.578,-31.738,-24.902,19.531,-66.406
1689610508.571,16.113,-30.273,-22.949,24.414,-138.184
1689610508.575,20.508,-27.344,-25.879,30.762,-141.113
1689610508.579,21.484,-25.879,-28.320,27.344,135.254
1689610508.583,-0.977,-31.738,-21.484,24.902,123.535
1689610508.587,-9.277,-32.715,-20.020,21.484,-174.316
1689610508.589,9.766,-28.809,-27.832,20.508,-75.195
1689610508.593,0.000,-35.645,-27.832,15.137,52.246
1689610508.597,-15.137,-34.668,-26.855,0.977,-116.699
1689610508.601,-10.254,-25.391,-30.273,-2.930,-150.391
1689610508.605,-22.461,-28.809,-30.762,-11.719,-70.312
1689610508.609,-32.227,-33.203,-27.832,-12.695,0.977
1689610508.613,-28.320,-31.738,-27.832,-9.277,60.059
1689610508.616,-30.762,-30.762,-33.203,-20.508,-55.664
1689610508.620,-36.621,-25.879,-36.133,-25.879,48.828
1689610508.624,-29.297,-26.855,-31.738,-18.066,196.777
1689610508.628,-24.414,-32.715,-29.785,-20.996,-80.566
1689610508.632,-15.625,-26.855,-28.320,-15.137,-145.996
1689610508.635,-13.184,-27.344,-25.391,-7.324,63.477
1689610508.639,-31.738,-30.273,-32.227,-25.879,11.719
1689610508.643,-33.203,-28.320,-35.645,-26.367,-68.359
1689610508.647,-35.156,-32.715,-37.109,-20.508,-59.082
1689610508.651,-32.227,-30.762,-39.062,-17.578,133.789
1689610508.655,-18.555,-27.344,-33.203,-12.695,212.402
1689610508.659,-20.508,-30.762,-33.691,-25.391,-56.152
1689610508.662,-24.902,-29.785,-30.762,-27.344,-114.746
1689610508.666,-19.043,-20.996,-28.809,-12.695,-57.129
1689610508.670,-21.484,-21.973,-34.668,-10.254,-69.824
1689610508.674,-31.738,-28.320,-32.715,-23.438,-187.012
1689610508.678,-37.598,-31.250,-34.180,-24.414,-100.586
1689610508.679,-38.574,-30.273,-38.086,-26.367,48.340
1689610508.683,-19.043,-26.855,-41.016,-20.996,-85.938
1689610508.687,-5.859,-34.180,-30.762,-2.441,-161.621
1689610508.691,-28.809,-35.156,-21.484,-20.508,-80.078
1689610508.695,-51.758,-37.598,-25.879,-38.086,-102.051
1689610508.699,-37.109,-46.387,-24.414,-21.973,-117.188
1689610508.703,-40.527,-47.852,-21.484,-21.484,-91.309
1689610508.706,-60.547,-50.293,-20.996,-20.508,113.770
1689610508.710,-53.711,-51.270,-18.555,-14.160,337.891
1689610508.714,-38.086,-53.711,-15.625,-24.902,33.691
1689610508.718,-37.109,-43.457,-15.625,-26.855,-222.168
1689610508.722,-44.434,-40.039,-18.555,-21.973,-161.621
1689610508.724,-37.598,-43.945,-22.461,-13.672,-68.359
1689610508.728,-38.086,-46.875,-23.926,-11.719,-69.336
1689610508.732,-38.574,-47.363,-21.973,-22.461,-178.223
1689610508.736,-34.668,-46.387,-27.832,-37.109,0.488
1689610508.740,-42.480,-45.898,-37.598,-41.992,64.453
1689610508.744,-32.715,-45.898,-32.227,-26.367,-56.152
1689610508.748,-19.531,-40.527,-26.367,-26.855,-50.781
1689610508.751,-24.414,-36.133,-29.785,-24.902,268.066
1689610508.755,-32.715,-36.133,-27.344,-25.391,340.332
1689610508.759,-33.691,-32.227,-21.484,-32.227,-127.441
1689610508.763,-35.645,-42.480,-29.297,-27.344,-136.719
1689610508.767,-30.762,-38.574,-28.809,-21.973,-40.039
1689610508.769,-28.320,-32.227,-30.273,-28.809,-177.246
1689610508.773,-26.855,-30.762,-36.133,-26.855,-244.629
1689610508.777,-28.320,-29.297,-33.691,-29.785,-156.250
1689610508.781,-28.320,-33.203,-31.738,-33.203,-100.586
1689610508.785,-12.695,-28.320,-31.250,-25.879,-126.465
1689610508.789,-10.742,-28.809,-32.715,-34.668,-38.574
1689610508.793,-20.020,-29.785,-36.621,-42.969,240.234
1689610508.796,-20.508,-33.691,-33.691,-25.879,302.246
1689610508.800,-16.113,-31.250,-26.855,-18.555,-71.777
1689610508.804,-13.184,-30.762,-25.391,-14.648,-217.285
1689610508.808,-19.531,-29.297,-27.344,-19.531,-82.031
1689610508.812,-22.461,-29.785,-32.715,-24.902,-95.215
1689610508.814,-25.391,-29.297,-33.691,-24.902,-132.812
1689610508.818,-28.809,-22.461,-29.785,-32.227,-82.520
1689610508.822,-28.809,-28.320,-30.762,-29.297,166.016
1689610508.826,-26.367,-30.762,-31.250,-24.902,179.688
1689610508.830,-27.832,-25.391,-29.785,-34.668,-146.484
1689610508.834,-32.715,-28.809,-32.715,-39.551,-129.883
1689610508.838,-31.250,-37.109,-32.715,-30.273,172.363
1689610508.841,-30.762,-29.785,-31.738,-31.250,119.629
1689610508.845,-29.297,-26.367,-37.109,-42.969,-187.012
1689610508.849,-27.832,-34.668,-35.645,-36.133,-145.508
1689610508.853,-35.645,-36.133,-34.180,-36.621,-98.145
1689610508.857,-50.781,-38.086,-39.062,-51.270,-169.434
1689610508.860,-41.504,-33.691,-35.156,-43.945,-148.438
1689610508.864,-35.645,-28.809,-34.668,-28.320,-20.020
1689610508.868,-30.762,-27.832,-37.598,-32.227,-20.020
1689610508.872,-44.922,-30.762,-37.109,-45.898,-148.438
1689610508.876,-51.270,-34.668,-29.785,-43.457,-160.156
1689610508.880,-34.668,-37.598,-27.832,-35.156,49.316
1689610508.884,-40.527,-41.504,-32.227,-41.992,214.355
1689610508.887,-58.594,-43.457,-32.715,-51.758,-19.531
1689610508.891,-52.246,-41.992,-34.668,-45.898,-183.105
1689610508.895,-38.574,-48.340,-35.645,-44.434,-60.547
1689610508.899,-46.875,-31.738,-44.922,-54.688,4.883
1689610508.903,-24.902,-13.672,-47.852,-48.340,-86.914
1689610508.919,-13.672,-21.484,-33.203,-35.156,-97.168
1689610508.923,-30.273,-29.785,-29.297,-35.645,105.469
1689610508.927,-38.574,-32.715,-40.039,-38.574,239.746
1689610508.931,-38.574,-32.227,-33.203,-25.391,-34.668
1689610508.935,-37.598,-32.715,-25.879,-21.484,-188.965
1689610508.939,-39.062,-29.785,-31.738,-36.133,121.094
1689610508.943,-60.059,-35.645,-31.250,-37.598,157.227
1689610508.946,-55.176,-41.016,-35.645,-26.367,-170.898
1689610508.950,-29.785,-35.645,-42.480,-38.574,-165.527
1689610508.954,-24.414,-39.551,-37.598,-31.738,33.203
1689610508.958,-36.133,-22.949,-34.668,-21.484,16.602
1689610508.962,-43.945,-27.344,-34.180,-42.969,-182.129
1689610508.964,-35.156,-37.598,-33.691,-43.457,-114.258
1689610508.968,-34.668,-36.133,-33.691,-25.391,15.625
1689610508.972,-45.898,-38.086,-37.109,-31.250,-32.227
1689610508.976,-39.062,-39.551,-35.645,-33.691,-79.102
1689610508.980,-23.926,-36.621,-25.391,-25.879,-73.730
1689610508.984,-47.852,-32.227,-28.320,-33.203,-63.965
1689610508.988,-44.434,-38.574,-31.738,-33.203,-61.035
1689610508.991,-28.320,-35.645,-33.203,-25.879,-57.129
1689610508.995,-38.086,-36.133,-32.227,-29.297,78.613
1689610508.999,-53.711,-33.203,-32.715,-42.480,276.367
1689610509.003,-66.895,-26.855,-35.156,-56.152,-3.906
1689610509.007,-52.734,-39.551,-28.320,-47.363,-121.094
1689610509.009,-28.809,-42.969,-28.320,-28.809,71.289
1689610509.013,-29.785,-32.227,-35.645,-29.785,-32.715
1689610509.017,-53.711,-28.809,-38.086,-52.246,-211.426
1689610509.021,-53.223,-33.203,-35.645,-56.641,-194.824
1689610509.025,-36.621,-40.527,-28.320,-41.016,-30.762
1689610509.029,-41.992,-38.086,-29.297,-34.180,58.105
1689610509.033,-33.691,-39.062,-27.832,-30.273,-20.996
1689610509.036,-51.270,-33.691,-28.809,-41.504,-142.578
1689610509.040,-51.270,-25.391,-33.691,-43.945,155.273
1689610509.044,-22.949,-36.133,-24.414,-27.832,228.027
1689610509.048,-21.484,-38.086,-28.809,-26.855,-134.766
1689610509.052,-27.344,-31.250,-38.574,-40.039,-99.609
1689610509.054,-33.691,-31.250,-32.715,-37.109,-83.984
1689610509.058,-38.086,-31.250,-25.391,-34.668,-198.242
1689610509.062,-39.551,-31.738,-25.879,-36.133,-209.473
1689610509.066,-25.879,-32.715,-25.879,-23.438,-97.168
1689610509.070,-13.184,-34.180,-24.902,-15.137,-25.879
1689610509.074,-34.668,-21.484,-30.273,-42.480,-46.387
1689610509.078,-44.434,-12.695,-37.598,-61.523,-125.977
1689610509.081,-48.828,-13.672,-35.156,-51.758,26.367
1689610509.085,-41.504,-12.207,-33.203,-46.875,236.816
1689610509.089,-23.438,-15.625,-34.180,-53.223,-35.645
1689610509.093,-44.922,-21.484,-36.133,-62.988,-163.574
1689610509.097,-51.270,-26.855,-42.480,-67.871,-20.996
1689610509.100,-26.367,-24.414,-37.109,-59.082,39.551
1689610509.104,-26.367,-30.273,-32.227,-42.969,-90.820
1689610509.108,-39.551,-32.715,-38.574,-50.293,-149.902
1689610509.112,-30.273,-27.832,-38.086,-55.176,23.926
1689610509.116,-30.273,-25.879,-36.133,-55.176,37.598
1689610509.120,-29.785,-20.508,-38.086,-52.246,-4.395
1689610509.124,-29.297,-15.625,-34.180,-46.387,38.086
1689610509.127,-27.832,-17.578,-27.832,-31.250,234.863
1689610509.131,-27.832,-23.438,-31.250,-39.551,193.848
1689610509.135,-23.438,-19.531,-32.715,-46.875,-185.059
1689610509.139,-23.926,-13.184,-35.645,-30.273,-172.363
1689610509.143,-28.809,-19.043,-35.645,-37.598,-102.539
1689610509.145,-26.855,-28.320,-24.414,-28.809,-87.891
1689610509.149,-30.762,-34.180,-26.855,-25.391,-127.930
1689610509.153,-34.668,-32.227,-30.273,-33.203,-106.445
1689610509.157,-35.645,-27.344,-27.832,-28.809,-35.156
1689610509.161,-34.668,-25.391,-35.645,-29.297,-143.066
1689610509.165,-28.320,-26.855,-39.062,-30.762,-49.316
1689610509.169,-32.227,-26.855,-40.527,-31.250,187.500
1689610509.172,-33.203,-32.715,-38.574,-25.391,283.203
1689610509.176,-21.484,-34.180,-35.645,-16.113,-22.949
1689610509.180,-27.344,-32.227,-39.551,-24.414,-188.965
1689610509.184,-31.250,-35.645,-38.086,-28.809,-52.734
1689610509.188,-28.320,-32.227,-37.109,-33.203,-55.664
1689610509.189,-34.668,-38.574,-28.809,-29.297,-75.684
1689610509.193,-37.598,-35.645,-27.832,-23.926,-83.008
1689610509.197,-34.668,-27.832,-31.250,-23.438,19.531
1689610509.201,-36.133,-34.180,-28.320,-28.809,154.297
1689610509.205,-40.527,-32.715,-23.926,-36.133,16.113
1689610509.209,-32.715,-29.785,-21.973,-35.156,-126.953
1689610509.213,-25.391,-27.344,-31.250,-50.781,216.309
1689610509.216,-31.738,-26.855,-28.809,-35.156,366.699
1689610509.220,-23.438,-29.297,-19.043,-3.906,-87.891
1689610509.224,-10.742,-28.809,-17.090,6.836,-159.668
1689610509.228,-21.973,-23.438,-24.414,-28.320,-125.000
1689610509.232,-29.297,-22.949,-33.691,-57.129,-205.078
1689610509.234,-27.832,-27.344,-27.832,-35.156,-229.004
1689610509.238,-29.297,-26.855,-20.996,-26.855,-127.930
1689610509.242,-25.879,-25.879,-20.020,-26.367,-65.430
1689610509.246,-25.391,-23.926,-24.414,-0.977,-190.918
1689610509.250,-20.996,-20.996,-20.508,-18.555,-205.078
1689610509.254,-18.555,-33.203,-20.508,-44.922,70.312
1689610509.258,-20.508,-40.527,-25.879,-55.664,144.531
1689610509.261,-27.344,-33.691,-24.902,-42.969,35.156
1689610509.265,-28.809,-31.250,-27.344,-10.254,-94.727
1689610509.269,-27.344,-27.344,-31.250,-16.113,-20.996
1689610509.273,-27.344,-27.344,-29.785,-34.668,140.625
1689610509.277,-31.738,-30.273,-31.738,-29.785,-130.859
1689610509.294,-26.367,-35.156,-31.250,-2.930,-139.160
1689610509.298,-18.066,-34.180,-32.715,-1.953,104.004
1689610509.302,-26.855,-25.879,-36.621,-25.879,8.301
1689610509.306,-24.902,-16.113,-30.762,-27.344,-234.863
1689610509.310,-26.855,-18.066,-37.109,-30.762,-142.090
1689610509.314,-31.738,-15.625,-45.898,-47.363,110.840
1689610509.318,-20.996,-8.301,-47.363,-60.547,79.590
1689610509.321,-17.578,-4.883,-52.734,-56.641,-133.301
1689610509.325,-23.438,-2.930,-49.805,-42.969,-171.875
1689610509.329,-13.672,1.465,-54.199,-42.969,173.828
1689610509.333,-7.324,0.000,-50.293,-21.484,198.730
1689610509.337,-16.602,-3.418,-47.363,-36.621,-148.926
1689610509.339,-19.043,-2.441,-45.410,-36.133,-121.094
1689610509.343,-22.461,-1.953,-38.086,-20.996,-118.652
1689610509.347,-18.555,-4.883,-41.016,-20.996,-127.930
1689610509.351,-9.766,-14.648,-42.480,-34.668,-102.051
1689610509.355,-13.184,-18.555,-37.109,-30.273,-11.719
1689610509.359,-5.859,-16.602,-36.133,-1.953,80.078
1689610509.363,-6.836,-12.207,-26.855,-19.043,30.762
1689610509.366,-11.719,-9.277,-30.273,-27.344,-78.613
1689610509.370,-8.789,-15.625,-36.621,-13.184,66.895
1689610509.374,-13.672,-19.043,-35.645,-28.809,233.398
1689610509.378,-23.438,-14.160,-38.086,-17.578,-56.152
1689610509.382,-29.785,-18.555,-41.016,-37.109,-175.781
1689610509.384,-24.902,-19.531,-42.480,-42.969,176.758
1689610509.388,-11.719,-17.090,-33.691,-3.418,258.789
1689610509.392,-10.742,-24.414,-27.832,-14.648,-137.695
1689610509.396,-15.625,-24.414,-27.344,-18.066,-218.262
1689610509.400,-16.602,-26.855,-30.762,-11.230,-151.367
1689610509.404,-21.484,-26.855,-33.691,-21.973,-29.785
1689610509.408,-22.949,-21.973,-27.832,-35.156,-39.551
1689610509.411,-26.855,-32.715,-32.715,-33.691,-152.344
1689610509.415,-35.645,-35.645,-42.969,-41.016,150.391
1689610509.419,-36.621,-30.273,-38.574,-41.992,110.840
1689610509.423,-30.273,-31.250,-30.762,-13.672,-225.586
1689610509.427,-27.344,-27.832,-37.109,-21.484,-60.059
1689610509.445,-24.902,-19.531,-38.574,-27.832,-13.184
1689610509.449,-14.648,-22.461,-25.879,-22.949,-61.035
1689610509.453,-24.414,-27.344,-31.250,-29.785,-139.160
1689610509.457,-33.203,-29.785,-35.645,-29.785,-81.543
1689610509.461,-23.438,-35.645,-36.621,-20.020,37.598
1689610509.465,-29.785,-35.156,-45.410,-25.391,-122.070
1689610509.469,-44.922,-30.762,-50.293,-46.387,-147.949
1689610509.472,-41.016,-35.156,-43.945,-41.016,47.852
1689610509.476,-41.016,-38.574,-32.227,-34.668,140.625
1689610509.480,-24.414,-29.785,-26.367,-22.949,-56.152
1689610509.484,-11.230,-19.531,-31.738,-34.668,-121.094
1689610509.488,-24.902,-26.367,-38.574,-40.527,-45.898
1689610509.474,-26.855,-29.785,-39.551,-36.621,-18.555
1689610509.478,-25.391,-29.297,-38.086,-42.969,-149.414
1689610509.482,-24.414,-25.391,-36.133,-23.438,-199.219
1689610509.486,-24.902,-26.367,-38.086,-36.133,67.383
1689610509.490,-22.461,-38.574,-43.457,-52.734,167.480
1689610509.494,-20.508,-40.527,-39.551,-31.738,54.199
1689610509.498,-20.020,-40.527,-33.203,-19.531,-55.176
1689610509.501,-20.508,-43.945,-34.668,-24.414,-75.195
1689610509.505,-30.273,-42.480,-35.645,-37.109,-51.270
1689610509.509,-38.574,-34.668,-35.156,-37.109,-117.188
1689610509.513,-36.621,-42.480,-33.691,-19.531,-164.062
1689610509.517,-48.828,-22.949,-31.738,-31.250,169.434
1689610509.519,-51.270,-19.043,-28.320,-31.250,219.238
1689610509.523,-31.250,-46.875,-25.391,-19.043,-120.117
1689610509.527,-23.438,-43.945,-32.227,-36.133,-76.660
1689610509.531,-35.156,-40.039,-39.551,-38.574,-84.961
1689610509.535,-66.406,-38.086,-33.691,-63.965,-145.020
1689610509.539,-92.773,-39.062,-33.203,-83.984,-118.652
1689610509.543,-104.492,-59.570,-43.945,-77.148,119.141
1689610509.546,-105.957,-57.129,-55.664,-94.238,419.434
1689610509.550,-117.676,-60.547,-27.344,-119.629,37.598
1689610509.554,-136.719,-72.266,-5.371,-141.113,-318.848
1689610509.558,-164.062,-57.617,-16.602,-163.086,-209.473
1689610509.562,-183.105,-49.805,-29.785,-178.711,-120.117
1689610509.564,-185.059,-65.430,-41.016,-185.059,-121.094
1689610509.568,-167.480,-66.406,-32.227,-186.035,-108.398
1689610509.572,-161.133,-58.594,-21.484,-173.340,-6.836
1689610509.576,-147.949,-59.082,-15.137,-151.855,5.859
1689610509.580,-112.305,-53.711,-20.508,-132.812,-112.793
1689610509.584,-96.191,-41.504,-34.668,-121.094,-25.879
1689610509.588,-104.004,-51.758,-42.969,-113.770,254.395
1689610509.591,-107.910,-50.293,-29.297,-102.539,115.234
1689610509.595,-82.520,-52.246,-21.484,-92.285,-185.059
1689610509.599,-73.242,-54.199,-30.762,-88.867,-45.898
1689610509.603,-52.246,-40.527,-11.230,-62.012,30.273
1689610509.607,-49.316,-48.828,-13.672,-59.082,-68.848
1689610509.624,-55.664,-56.152,-31.250,-75.684,-168.457
1689610509.628,-43.945,-49.805,-29.785,-54.199,-113.770
1689610509.632,-25.391,-41.016,-23.438,-34.180,-58.105
1689610509.636,-25.879,-47.852,-15.137,-23.926,-57.617
1689610509.640,-39.062,-29.297,-19.043,-33.691,-103.516
1689610509.644,-29.785,-13.672,-24.414,-36.133,63.965
1689610509.648,-31.250,-27.344,-24.902,-35.645,171.875
1689610509.651,-8.789,-30.762,-19.043,-13.184,-46.875
1689610509.655,0.000,-40.527,-3.906,-6.836,-98.145
1689610509.659,-11.230,-28.809,-8.789,-27.832,81.055
1689610509.663,-14.648,-24.902,-23.926,-26.855,54.688
1689610509.667,-34.180,-32.227,-31.738,-35.645,-121.582
1689610509.669,-34.180,-41.016,-27.832,-29.785,-34.180
1689610509.673,-19.531,-41.504,-30.762,-18.555,171.875
1689610509.677,-26.855,-36.621,-36.133,-26.367,137.695
1689610509.681,-37.109,-44.434,-16.602,-28.809,-207.031
1689610509.685,-23.926,-43.945,-12.695,-26.367,-195.312
1689610509.689,-17.578,-34.668,-24.902,-20.508,-9.766
1689610509.693,-20.996,-20.996,-26.855,-15.625,-17.090
1689610509.696,-29.297,-19.531,-25.391,-31.738,-79.102
1689610509.700,-40.039,-31.738,-21.973,-44.922,-137.695
1689610509.704,-21.973,-23.926,-24.902,-20.996,108.887
1689610509.708,-8.789,-32.227,-34.668,4.395,128.418
1689610509.712,-5.859,-41.016,-29.297,2.930,-159.668
1689610509.714,-25.391,-26.855,-16.602,-19.531,-55.664
1689610509.718,-36.133,-29.297,-20.020,-30.762,39.062
1689610509.722,-15.137,-28.320,-27.832,-19.043,-61.035
1689610509.726,-27.344,-22.461,-26.855,-17.090,-198.730
1689610509.730,-28.809,-24.414,-31.250,-14.160,-72.266
1689610509.734,2.441,-17.578,-23.438,9.277,99.609
1689610509.738,0.488,-18.555,-12.695,1.953,-13.184
1689610509.741,-34.668,-25.391,-17.090,-17.578,-145.508
1689610509.745,-46.875,-43.457,-22.949,-22.461,-9.766
1689610509.749,-33.203,-42.969,-26.367,-16.602,221.191
1689610509.753,-13.184,-33.203,-18.066,-0.977,-40.039
1689610509.757,-6.836,-26.855,-22.461,-2.441,-208.496
1689610509.759,-19.043,-26.855,-31.250,-13.672,-14.160
1689610509.763,-23.438,-36.133,-30.273,-11.230,25.879
1689610509.767,-10.742,-32.227,-32.227,-2.930,-117.676
1689610509.771,-9.766,-27.344,-35.156,-13.672,-118.652
1689610509.775,-20.508,-35.645,-35.156,-20.996,225.586
1689610509.779,-26.855,-36.621,-25.879,-21.973,291.504
1689610509.783,-13.184,-27.832,-16.602,-14.160,-1.953
1689610509.786,-7.324,-31.250,-15.625,-2.441,-88.379
1689610509.790,-23.926,-35.156,-23.438,-9.766,163.086
1689610509.794,-33.691,-26.855,-28.320,-19.043,163.086
1689610509.798,-27.832,-27.344,-33.691,-30.762,-188.965
1689610509.802,-22.949,-28.320,-34.180,-26.367,-147.949
1689610509.804,-24.414,-30.762,-27.832,-16.602,-99.609
1689610509.808,-21.484,-34.180,-33.203,-21.484,-145.996
1689610509.812,-17.578,-27.344,-46.387,-28.809,-170.410
1689610509.816,-29.785,-34.180,-36.621,-25.879,-142.090
1689610509.820,-36.621,-39.062,-22.949,-22.461,-110.352
1689610509.824,-25.879,-28.809,-23.438,-22.949,-87.891
1689610509.828,-17.090,-27.344,-19.531,-22.949,-45.898
1689610509.831,-23.926,-28.809,-28.320,-24.902,130.371
1689610509.835,-32.715,-28.809,-27.832,-23.438,342.773
1689610509.839,-34.180,-36.621,-26.855,-29.297,2.441
1689610509.843,-36.133,-29.297,-36.621,-26.855,-225.586
1689610509.847,-29.785,-20.996,-31.250,-20.020,-100.098
1689610509.849,-32.227,-21.484,-25.879,-25.391,-58.594
1689610509.853,-39.551,-20.020,-26.367,-32.715,-143.066
1689610509.857,-36.621,-33.691,-26.855,-20.508,-191.406
1689610509.861,-38.086,-21.973,-28.809,-23.438,11.719
1689610509.865,-30.273,-23.438,-30.762,-32.715,45.410
1689610509.869,-23.438,-37.109,-38.086,-31.250,-8.789
1689610509.873,-33.203,-34.668,-27.344,-36.133,41.016
1689610509.876,-43.457,-26.367,-21.484,-36.133,188.477
1689610509.880,-39.551,-17.578,-22.949,-35.156,106.445
1689610509.884,-33.203,-20.508,-22.949,-34.180,-175.781
1689610509.888,-41.016,-25.391,-31.250,-41.992,-69.336
1689610509.892,-44.434,-33.203,-27.344,-45.410,-10.742
1689610509.894,-48.340,-37.109,-20.996,-52.734,-174.316
1689610509.898,-44.922,-30.762,-24.414,-47.363,-219.727
1689610509.902,-39.062,-30.273,-31.250,-47.852,-128.418
1689610509.906,-40.039,-32.227,-36.621,-49.805,-115.234
1689610509.910,-52.246,-22.949,-31.250,-46.387,-116.699
1689610509.914,-46.387,-23.926,-31.738,-39.551,-84.473
1689610509.918,-36.621,-25.879,-35.156,-30.762,101.562
1689610509.921,-27.832,-21.484,-30.273,-24.414,279.785
1689610509.925,-28.809,-17.578,-19.531,-25.391,20.020
1689610509.929,-39.551,-18.555,-21.484,-44.434,-143.555
1689610509.933,-32.227,-26.855,-32.715,-48.828,-92.773
1689610509.937,-40.039,-29.297,-34.180,-45.898,-98.633
1689610509.954,-39.062,-31.250,-34.668,-47.852,-15.137
1689610509.958,-34.668,-29.785,-32.227,-39.551,-27.832
1689610509.962,-39.551,-20.996,-31.250,-32.715,137.695
1689610509.966,-39.551,-24.414,-36.133,-35.645,258.301
1689610509.970,-32.227,-24.414,-34.180,-35.156,-80.078
1689610509.974,-38.574,-20.996,-38.574,-36.133,-145.508
1689610509.978,-20.508,-38.574,-45.410,-20.996,177.734
1689610509.981,-18.066,-30.273,-29.785,-19.531,166.504
1689610509.985,-42.480,-23.926,-21.973,-34.180,-194.336
1689610509.989,-49.805,-37.598,-22.949,-33.203,-191.406
1689610509.993,-46.875,-43.457,-16.113,-28.320,-118.164
1689610509.997,-28.320,-33.203,-22.949,-31.250,-112.305
1689610509.987,-21.484,-33.203,-32.715,-38.574,-163.086
1689610509.991,-26.855,-28.320,-28.809,-37.598,-140.625
1689610509.995,-31.738,-28.320,-27.832,-37.109,-85.449
1689610509.999,-43.945,-34.180,-28.809,-36.621,-124.512
1689610510.003,-34.180,-34.180,-35.156,-29.297,-168.945
1689610510.007,-34.180,-36.621,-37.598,-21.973,40.527
1689610510.011,-32.227,-29.297,-35.156,-11.230,164.551
1689610510.014,-39.551,-39.551,-36.133,-31.250,-83.008
1689610510.018,-45.410,-45.898,-25.879,-36.621,-166.016
1689610510.022,-22.461,-26.855,-21.484,-23.926,104.492
1689610510.026,-30.762,-29.785,-24.414,-27.344,303.223
1689610510.030,-53.223,-34.180,-27.832,-36.621,-17.090
1689610510.074,-31.738,-30.762,-35.156,-34.180,-119.141
1689610510.078,-17.578,-35.156,-38.086,-32.715,-48.340
1689610510.082,-32.715,-34.668,-33.691,-40.039,-48.340
1689610510.086,-32.715,-39.062,-31.738,-30.273,-63.477
1689610510.090,-35.156,-44.922,-35.645,-29.785,-79.590
1689610510.094,-35.156,-34.668,-31.250,-33.203,288.086
1689610510.098,-29.297,-30.273,-35.156,-26.367,499.512
1689610510.101,-27.832,-36.133,-35.645,-22.949,77.637
1689610510.105,-45.410,-34.180,-33.691,-34.180,-98.145
1689610510.109,-48.828,-24.902,-37.109,-32.715,-37.598
1689610510.113,-34.180,-20.996,-33.691,-29.785,-152.832
1689610510.117,-45.410,-26.855,-36.621,-40.039,-271.973
1689610510.080,-49.805,-33.691,-31.738,-27.832,-178.223
1689610510.084,-29.297,-36.133,-25.879,-23.926,-87.402
1689610510.088,-36.133,-33.691,-28.809,-36.133,-141.113
1689610510.092,-33.203,-11.719,-35.156,-32.715,-160.156
1689610510.096,-33.203,-17.578,-33.203,-32.227,-104.980
1689610510.100,-43.457,-37.109,-32.715,-32.715,35.645
