timestamps,TP9,AF7,AF8,TP10,Right AUX
1688306086.019,-60.547,8.789,-25.879,-102.539,-269.531
1688306086.023,-8.789,-41.016,-50.293,-87.891,-290.527
1688306086.027,-14.648,-9.277,-36.133,-59.082,-76.660
1688306086.031,-99.609,-0.488,-32.227,-63.965,-10.742
1688306086.035,-99.121,-31.738,-41.016,-68.848,-149.902
1688306086.039,-24.902,-45.898,-36.621,-62.500,-152.832
1688306086.043,21.484,-55.664,-46.387,-40.039,154.785
1688306086.046,22.949,-44.922,-38.574,-15.625,58.594
1688306086.050,-43.457,-12.207,-19.043,-3.418,-74.707
1688306086.054,-71.289,-15.625,-33.691,-9.766,-55.664
1688306086.058,-13.672,-44.922,-35.645,-20.020,-154.297
1688306086.062,39.062,-34.668,-29.297,-14.160,-221.680
1688306086.064,43.457,-35.645,-45.410,-5.371,-131.348
1688306086.068,-29.297,-35.645,-46.387,4.395,60.547
1688306086.072,-68.359,-25.879,-48.340,-6.348,67.383
1688306086.076,5.371,-19.043,-40.039,-15.625,-185.059
1688306086.080,76.172,-37.109,-22.949,0.977,-251.953
1688306086.084,73.242,-71.777,-23.438,21.973,10.742
1688306086.088,1.465,-37.109,-23.926,28.320,180.664
1688306086.091,-59.570,-15.137,-20.996,5.859,71.777
1688306086.095,-22.949,-24.902,-24.902,-5.371,-141.602
1688306086.099,42.969,-19.531,-42.480,0.000,-11.230
1688306086.103,55.176,-4.395,-48.340,10.742,244.141
1688306086.107,-3.906,-14.160,-47.852,27.344,22.461
1688306086.123,-48.828,-39.551,-40.527,20.508,-21.484
1688306086.127,-12.695,-35.645,-22.461,-5.859,-44.922
1688306086.131,32.715,-27.832,-30.273,-14.160,-220.703
1688306086.135,36.621,-34.668,-49.805,-10.254,-199.219
1688306086.139,-17.090,-16.113,-47.363,-2.930,48.828
1688306086.143,-85.938,-7.324,-37.109,-8.301,354.980
1688306086.147,-38.086,-8.301,-20.020,-12.207,106.445
1688306086.150,37.109,-18.555,-20.996,-17.090,-291.504
1688306086.154,47.852,-30.762,-32.227,-13.672,-169.922
1688306086.158,5.371,-36.621,-22.461,3.906,159.668
1688306086.162,-69.824,-21.973,-35.156,-2.441,30.762
1688306086.166,-52.246,-32.715,-45.898,-8.789,-165.039
1688306086.168,8.301,-39.062,-30.762,-13.672,-230.469
1688306086.172,32.715,-12.695,-29.785,-17.090,-225.586
1688306086.176,2.441,-9.277,-26.855,-9.277,-45.898
1688306086.180,-66.406,-28.809,-30.273,0.488,53.223
1688306086.184,-43.457,-41.992,-31.738,-8.789,-71.289
1688306086.188,16.113,-40.039,-15.625,-13.184,-164.062
1688306086.192,59.082,-6.836,2.930,15.625,-109.863
1688306086.195,33.691,-8.789,-17.090,7.812,-46.387
1688306086.199,-69.824,-39.551,-53.711,-12.207,282.715
1688306086.203,-67.871,-29.297,-42.480,-9.766,557.617
1688306086.207,-12.695,-17.090,-33.203,-31.250,51.758
1688306086.211,6.836,-41.016,-34.668,-45.898,-288.574
1688306086.213,-0.977,-39.551,-32.227,-33.203,-96.680
1688306086.217,-63.965,-23.438,-27.832,-7.812,-20.508
1688306086.221,-84.961,-10.254,-39.062,-13.184,-139.648
1688306086.225,-15.137,-13.672,-33.691,-27.344,-236.328
1688306086.229,34.180,-32.227,-22.949,-22.461,-194.824
1688306086.233,23.926,-32.715,-27.832,-14.160,-46.875
1688306086.237,-41.504,-33.691,-20.508,2.930,54.688
1688306086.240,-76.172,-38.574,-25.879,-8.301,20.508
1688306086.244,-37.109,-49.316,-47.363,-41.016,242.188
1688306086.248,7.812,-36.133,-47.852,-40.527,80.078
1688306086.252,19.043,-36.621,-36.133,-13.184,-180.176
1688306086.256,-29.785,-29.297,-27.344,-6.348,0.000
1688306086.258,-88.379,-29.297,-17.578,-18.555,-22.461
1688306086.262,-36.621,-26.855,-13.184,-27.344,-223.633
1688306086.266,18.066,-21.973,-20.996,-33.203,-312.012
1688306086.270,16.113,-24.902,-23.926,-28.809,-140.625
1688306086.274,-40.039,-26.367,-23.926,-13.672,69.824
1688306086.278,-85.449,-34.180,-24.902,-7.812,134.277
1688306086.282,-38.086,-17.090,-24.902,-30.762,-20.020
1688306086.285,21.484,-22.949,-30.762,-29.297,12.207
1688306086.289,43.945,-23.438,-32.715,-10.742,232.422
1688306086.293,-15.137,-6.348,-28.809,-9.277,45.898
1688306086.297,-93.750,-27.344,-29.785,-22.949,-60.547
1688306086.301,-62.012,-46.875,-25.879,-42.969,117.676
1688306086.303,17.090,-36.621,-5.859,-40.527,90.332
1688306086.307,28.320,-16.602,-10.254,-24.414,-163.086
1688306086.311,-25.391,-25.879,-24.902,-7.812,-91.309
1688306086.315,-92.773,-29.785,-39.062,-13.672,-10.742
1688306086.319,-70.801,-39.062,-44.434,-32.715,-136.719
1688306086.323,-6.348,-22.461,-36.133,-26.367,-223.145
1688306086.327,28.809,-8.301,-20.508,-20.508,-103.027
1688306086.330,11.230,-29.297,-19.531,-5.859,260.742
1688306086.334,-83.008,-22.461,-27.832,-9.766,127.441
1688306086.338,-83.008,-20.996,-18.555,-32.715,-183.105
1688306086.342,-9.277,-26.367,-12.695,-42.480,-206.055
1688306086.346,19.043,-54.199,-34.180,-50.781,-219.238
1688306086.349,-9.277,-88.867,-36.621,-36.621,-88.867
1688306086.353,-80.078,-42.969,-35.156,-14.648,83.008
1688306086.357,-84.473,-23.926,-43.945,-31.250,4.395
1688306086.361,-15.625,-20.996,-41.016,-38.086,-138.672
1688306086.365,36.621,34.180,-39.551,-29.297,-261.719
1688306086.369,15.137,20.996,-23.926,-15.625,-129.883
1688306086.373,-77.637,-33.691,-21.484,-15.625,312.500
1688306086.376,-98.633,-34.668,-35.156,-38.086,381.348
1688306086.380,-25.391,-26.367,-18.555,-43.945,-52.734
1688306086.384,23.926,-30.273,-4.883,-38.086,-245.117
1688306086.388,12.695,-50.781,-30.273,-28.320,-3.906
1688306086.392,-63.965,-50.293,-49.805,-26.855,106.934
1688306086.393,-93.750,-28.320,-29.785,-34.668,-101.562
1688306086.397,-34.668,-18.066,-30.273,-44.922,-225.098
1688306086.401,24.902,-65.918,-36.621,-41.504,-229.492
1688306086.405,23.438,-82.031,-17.090,-19.531,-110.352
1688306086.409,-58.594,-2.930,-12.695,-23.438,19.043
1688306086.413,-102.539,7.324,-20.508,-38.574,119.141
1688306086.417,-33.203,-28.320,-28.809,-42.480,382.812
1688306086.420,16.602,-28.809,-29.297,-54.688,138.672
1688306086.424,6.348,-25.879,-16.113,-46.875,-187.500
1688306086.428,-61.523,-37.598,-24.414,-31.738,-56.641
1688306086.432,-101.562,-20.508,-19.531,-32.715,-31.738
1688306086.436,-41.504,-28.809,-14.648,-32.715,-213.867
1688306086.468,19.043,-43.457,-23.438,-32.715,-315.430
1688306086.472,28.320,-11.719,-26.855,-29.297,-180.176
1688306086.476,-24.902,-35.156,-36.621,-24.902,-17.578
1688306086.480,-78.125,-42.480,-21.484,-35.645,-60.547
1688306086.484,-46.387,-8.301,-1.465,-42.969,-180.176
1688306086.488,-1.953,-2.930,-26.367,-54.688,-93.262
1688306086.492,7.812,-23.926,-34.668,-53.223,-31.738
1688306086.495,-31.738,-27.344,-28.809,-26.855,-12.695
1688306086.499,-77.148,-20.020,-25.391,-19.043,-2.930
1688306086.503,-50.781,-51.270,-21.484,-39.551,96.680
1688306086.507,-4.883,-50.781,-47.363,-43.945,287.109
1688306086.511,16.602,-16.602,-39.551,-46.387,-2.441
1688306086.498,-17.578,-18.555,-23.438,-35.156,-115.723
1688306086.502,-88.867,-2.930,-32.227,-21.973,-5.859
1688306086.506,-81.543,-5.371,-27.344,-41.504,-169.434
1688306086.510,-17.090,-55.176,-20.996,-47.852,-331.543
1688306086.514,17.090,-57.617,-31.738,-36.133,-251.953
1688306086.518,-3.906,-38.574,-32.715,-25.879,93.262
1688306086.522,-78.613,-31.250,-22.949,-15.137,174.805
1688306086.525,-73.730,-21.973,-30.273,-37.598,-57.129
1688306086.529,-11.230,-18.555,-25.391,-62.012,-202.637
1688306086.533,26.855,-19.531,-6.836,-35.156,-153.320
1688306086.537,4.883,-20.508,-17.578,-11.230,-83.008
1688306086.541,-74.219,-14.648,-32.227,-11.719,-54.199
1688306086.543,-92.285,-15.137,-38.086,-29.297,4.395
1688306086.547,-23.926,-25.391,-43.945,-45.898,196.777
1688306086.551,24.902,-29.785,-38.574,-49.805,5.859
1688306086.555,12.207,-48.340,-25.879,-30.273,-180.664
1688306086.559,-53.711,-61.035,-14.160,-0.488,19.531
1688306086.563,-87.402,-23.926,-16.113,-25.879,-0.977
1688306086.567,-31.738,3.418,-15.625,-50.781,-187.012
1688306086.570,13.672,-7.324,-21.973,-38.574,-268.555
1688306086.574,12.207,-20.020,-20.508,-15.137,86.426
1688306086.578,-43.945,-18.555,-5.371,-3.906,532.227
1688306086.582,-72.266,-5.859,6.836,-0.488,154.297
1688306086.586,-30.273,-20.020,-6.836,-13.184,-213.867
1688306086.588,5.371,-33.691,-31.250,-31.738,-133.301
1688306086.592,-2.441,-39.062,-55.176,-48.340,-124.512
1688306086.596,-61.035,-59.570,-60.547,-43.457,-74.219
1688306086.600,-89.844,-33.203,-40.527,-31.250,-30.273
1688306086.604,-40.039,-25.391,-20.020,-48.340,-135.742
1688306086.608,27.832,4.395,-12.695,-35.645,-179.688
1688306086.612,35.645,0.488,-18.066,-13.672,-116.211
1688306086.615,-39.062,-37.109,-5.859,1.465,59.082
1688306086.619,-98.145,-3.418,-5.371,-3.418,366.211
1688306086.623,-48.340,-10.742,-25.391,-34.668,63.477
1688306086.627,8.301,-64.453,-46.387,-37.109,-295.898
1688306086.631,8.301,-69.336,-48.828,-28.320,-149.902
1688306086.634,-48.828,-21.484,-30.762,-32.227,37.109
1688306086.638,-99.121,5.859,-27.344,-39.551,50.781
1688306086.642,-59.082,7.812,-7.324,-41.992,-133.301
1688306086.646,-10.254,-30.273,-11.719,-47.852,-166.016
1688306086.650,5.859,-25.391,-36.621,-48.828,-101.074
1688306086.654,-23.438,0.000,-31.738,-17.578,9.277
1688306086.658,-85.938,-21.973,-28.320,-18.555,70.801
1688306086.661,-89.844,-60.059,-52.246,-61.035,145.508
1688306086.665,-25.879,-49.316,-50.293,-61.035,301.758
1688306086.669,21.973,-25.879,-32.715,-35.645,-89.355
1688306086.673,1.465,-56.641,-27.344,-16.602,-151.367
1688306086.677,-57.617,-19.531,8.789,2.441,106.445
1688306086.678,-59.082,25.879,-0.977,-23.926,-68.359
1688306086.682,-7.812,7.812,-27.832,-62.500,-283.203
1688306086.686,31.738,-20.996,-22.949,-46.387,-259.766
1688306086.690,33.691,-27.832,-19.043,-10.742,-69.824
1688306086.694,-46.875,-15.137,-26.855,-14.648,50.293
1688306086.698,-78.613,-8.789,-42.480,-38.086,-16.602
1688306086.702,-22.461,2.441,-23.438,-36.133,-124.512
1688306086.705,20.996,-16.602,-8.789,-28.320,162.109
1688306086.709,3.906,-60.059,-41.992,-26.855,171.387
1688306086.713,-74.707,-41.504,-44.434,-14.648,-20.020
1688306086.717,-83.496,-22.461,-8.301,-22.461,-35.156
1688306086.721,-14.648,-41.992,-4.883,-39.551,-186.035
1688306086.723,31.250,-10.742,-11.719,-32.715,-245.605
1688306086.727,31.738,2.930,-15.137,-12.695,-115.234
1688306086.731,-43.945,0.488,-13.672,-0.488,60.059
1688306086.735,-101.562,-3.906,-24.414,-23.926,14.160
1688306086.739,-48.340,-13.672,-57.129,-55.176,-146.973
1688306086.743,15.137,-31.250,-50.293,-52.246,-139.648
1688306086.747,8.789,-40.527,-38.574,-35.156,107.910
1688306086.750,-46.875,-35.156,-37.598,-19.531,347.168
1688306086.754,-94.238,-51.758,-18.066,-27.832,107.422
1688306086.758,-50.781,-29.785,-1.953,-41.504,-167.480
1688306086.762,8.301,-14.648,-2.441,-30.762,19.043
1688306086.766,11.719,-2.441,-20.508,-25.879,133.301
1688306086.768,-41.016,20.996,-14.160,-21.484,-78.613
1688306086.772,-90.332,-12.207,-13.672,-17.578,-54.688
1688306086.776,-58.105,-33.203,-31.738,-46.875,-151.855
1688306086.780,-6.348,-39.551,-38.574,-59.570,-290.527
1688306086.784,29.297,-38.574,-49.316,-41.504,-208.984
1688306086.788,-7.812,-26.855,-44.434,-6.348,49.805
1688306086.792,-84.961,-46.387,-30.762,-4.883,431.641
1688306086.795,-62.988,-30.273,-27.344,-37.598,80.078
1688306086.799,4.395,1.465,-9.766,-41.016,-338.379
1688306086.803,28.320,-12.695,-4.883,-20.020,-166.016
1688306086.807,-18.555,-30.273,-8.789,-4.883,99.121
1688306086.811,-84.473,-34.668,-11.230,-14.160,12.207
1688306086.813,-54.199,-34.180,-12.695,-28.809,-193.359
1688306086.817,15.137,-31.250,-7.812,-20.508,-241.211
1688306086.821,48.340,-47.363,-10.742,-5.371,-183.594
1688306086.825,15.137,-41.992,-17.578,0.000,-106.445
1688306086.829,-66.895,-15.137,-22.461,3.906,-13.184
1688306086.833,-60.547,-35.156,-32.227,-14.648,147.949
1688306086.837,-10.742,-57.617,-41.992,-39.551,62.500
1688306086.840,4.883,-31.250,-37.109,-40.527,-71.777
1688306086.844,-20.020,-24.902,-43.457,-20.020,26.855
1688306086.848,-100.098,-20.508,-56.152,-10.254,297.852
1688306086.852,-89.844,-25.879,-34.668,-24.902,421.875
1688306086.856,5.371,-39.551,4.395,-28.320,-20.020
1688306086.873,47.363,4.395,13.184,-18.066,-239.746
1688306086.877,6.836,1.465,-20.508,-9.277,22.461
1688306086.881,-84.473,-48.828,-23.438,-5.859,41.504
1688306086.885,-106.934,-45.898,-22.461,-33.691,-132.812
1688306086.889,-32.227,-12.207,-44.922,-56.152,-194.824
1688306086.893,14.160,-24.414,-52.734,-40.527,-33.691
1688306086.897,-4.883,-41.992,-41.016,-31.738,126.465
1688306086.900,-71.777,-20.020,-25.879,-22.949,33.203
1688306086.904,-85.449,-22.461,-14.648,-9.766,-33.203
1688306086.908,-12.695,-31.250,-9.277,-13.672,75.195
1688306086.912,35.645,1.465,-21.484,-24.902,-162.109
1688306086.916,14.648,-2.930,-51.270,-31.738,-210.938
1688306086.919,-53.711,-17.578,-41.992,-16.602,-10.742
1688306086.923,-83.008,-15.625,-13.672,-12.695,62.500
1688306086.927,-25.879,-28.809,-18.555,-37.598,-44.922
1688306086.931,8.789,-62.500,-29.785,-49.805,-255.859
1688306086.935,5.859,-60.547,-19.043,-29.785,-72.266
1688306086.939,-34.180,-5.371,-4.395,-11.230,215.820
1688306086.943,-85.938,10.742,-9.766,-20.020,79.102
1688306086.946,-50.781,-14.160,-29.297,-41.016,-168.945
1688306086.950,4.883,-15.137,-33.691,-43.457,8.301
1688306086.954,6.836,-4.395,-28.320,-29.297,364.258
1688306086.958,-50.293,-13.672,-20.996,-19.043,106.934
1688306086.962,-90.820,-32.715,-20.508,-14.648,-104.004
1688306086.963,-46.875,-32.227,-49.316,-36.133,-129.883
1688306086.967,1.465,-23.438,-41.504,-54.688,-284.668
1688306086.971,22.461,-25.391,-10.254,-26.855,-302.246
1688306086.975,-27.344,-20.020,-16.113,-12.695,-90.332
1688306086.979,-101.562,-30.273,-16.602,-23.438,102.539
1688306086.983,-66.406,-39.062,-11.230,-39.062,-60.059
1688306086.987,-1.465,-19.043,-15.137,-46.387,-235.352
1688306086.990,21.484,4.883,-22.949,-42.969,-107.422
1688306086.994,-42.480,-10.742,-53.223,-49.805,293.945
1688306086.998,-119.141,-32.227,-61.035,-40.527,291.504
1688306087.002,-78.125,-45.410,-21.484,-31.738,-109.375
1688306087.006,-9.766,-47.363,-21.973,-37.109,-244.629
1688306087.008,15.137,-23.438,-30.273,-24.902,-227.539
1688306087.012,-5.371,-9.277,-12.695,-10.254,-122.070
1688306087.016,-72.754,-27.344,-1.465,-6.348,-3.906
1688306087.020,-78.125,-27.832,-22.461,-30.762,-44.434
1688306087.024,-29.297,-5.859,-33.203,-57.129,-239.746
1688306087.028,11.230,-21.484,-19.531,-41.504,-190.430
1688306087.032,8.301,-33.691,-21.484,-23.438,-2.930
1688306087.035,-66.895,-20.996,-33.203,-14.160,310.547
1688306087.039,-78.613,-4.883,-32.227,-19.043,605.957
1688306087.043,-25.879,-14.160,-31.250,-46.875,83.984
1688306087.047,9.277,-41.992,-30.762,-42.969,-331.543
1688306087.051,12.207,-39.551,-19.531,-11.719,-132.324
1688306087.053,-57.129,-37.109,-11.230,-5.859,-64.453
1688306087.057,-88.379,-22.461,-26.367,-38.574,-154.297
1688306087.061,-44.434,-9.766,-33.691,-73.242,-199.707
1688306087.065,-4.395,-40.039,-28.809,-61.035,-258.301
1688306087.069,7.812,-33.691,-27.344,-27.832,-169.922
1688306087.073,-62.012,-10.742,-26.367,-22.949,26.855
1688306087.077,-97.656,-10.742,-21.973,-31.250,168.457
1688306087.080,-31.250,-8.789,-9.766,-34.180,247.070
1688306087.084,8.301,-32.227,-26.367,-50.293,-72.754
1688306087.088,14.160,-28.809,-39.062,-39.062,-173.828
1688306087.092,-40.527,-15.137,-19.043,-1.953,107.910
1688306087.096,-80.566,-18.555,-22.461,-4.883,215.820
1688306087.098,-26.367,-23.926,-31.738,-39.551,-97.168
1688306087.102,9.766,-21.484,-28.809,-41.016,-325.684
1688306087.106,20.020,-30.762,-29.785,-30.762,-191.406
1688306087.110,-29.785,-34.668,-41.016,-32.227,-6.836
1688306087.114,-92.773,-38.574,-47.852,-37.109,-30.762
1688306087.118,-59.570,-48.340,-28.320,-56.152,-169.922
1688306087.122,-1.465,-20.996,-14.160,-48.828,-33.691
1688306087.125,25.879,16.602,-9.277,-17.578,160.156
1688306087.129,-32.715,-8.789,-17.090,-13.184,93.750
1688306087.133,-86.914,-22.949,-38.086,-18.066,-11.230
1688306087.137,-58.105,-24.902,-43.945,-29.297,-23.926
1688306087.141,-15.137,-41.992,-27.832,-62.012,-98.633
1688306087.144,17.090,-45.410,-14.648,-55.176,-140.137
1688306087.148,-7.324,-51.270,-26.855,-25.879,-1.953
1688306087.152,-81.543,-47.363,-36.621,-25.879,191.406
1688306087.156,-76.660,-17.578,-27.344,-44.922,-4.395
1688306087.160,7.324,11.719,-9.277,-37.598,-264.648
1688306087.164,41.504,-3.418,8.789,-23.926,-65.430
1688306087.168,2.441,-31.250,-10.254,-12.207,387.207
1688306087.171,-64.941,-15.137,-37.598,-20.020,186.035
1688306087.175,-59.570,-10.254,-28.320,-41.504,-193.359
1688306087.179,-9.766,-32.715,-32.715,-53.711,-236.328
1688306087.183,18.066,-40.039,-36.621,-47.852,-135.254
1688306087.187,-0.977,-31.738,-31.738,-28.809,-38.574
1688306087.203,-69.336,-39.062,-32.227,-27.832,-30.273
1688306087.207,-75.684,-49.805,-25.879,-41.016,-38.574
1688306087.211,-15.625,-22.461,-26.855,-48.340,-117.676
1688306087.215,25.879,-22.949,-28.809,-30.273,-240.234
1688306087.219,12.695,-18.066,-29.297,-10.254,-154.785
1688306087.223,-64.941,-14.648,-27.344,0.488,317.871
1688306087.227,-87.891,-37.598,-24.902,-10.254,472.656
1688306087.230,-27.832,-41.504,-49.316,-37.598,-73.242
1688306087.234,17.578,-39.062,-40.527,-36.133,-302.246
1688306087.238,23.438,-11.719,-5.371,-13.184,47.852
1688306087.242,-37.598,4.883,-11.230,0.977,223.145
1688306087.246,-92.773,-27.344,-31.250,-31.250,-73.242
1688306087.251,-55.664,-45.410,-36.133,-61.523,-240.723
1688306087.255,3.906,-24.414,-32.715,-55.664,-188.477
1688306087.259,16.113,-20.020,-22.949,-29.785,-127.930
1688306087.263,-39.062,-31.738,-17.578,1.953,-146.484
1688306087.267,-87.402,-14.648,-30.762,-7.812,-116.699
1688306087.271,-53.711,-15.625,-59.570,-37.598,9.766
1688306087.275,-3.906,-24.414,-50.781,-47.363,-151.367
1688306087.278,18.555,-11.719,-18.066,-32.715,-218.750
1688306087.282,-30.762,-3.418,-8.789,-14.648,36.133
1688306087.286,-91.309,-19.043,-7.324,-20.020,373.047
1688306087.290,-61.035,-66.406,-12.207,-41.504,20.508
1688306087.294,-10.742,-60.059,-26.855,-54.199,-333.008
1688306087.294,15.625,-14.160,-30.273,-40.527,-170.898
1688306087.298,-29.785,0.488,-20.020,-16.113,49.805
1688306087.302,-102.051,-14.648,-34.668,-31.250,8.789
1688306087.306,-75.684,-24.414,-44.434,-54.688,-174.805
1688306087.310,2.441,-31.250,-46.387,-55.176,-194.824
1688306087.314,28.809,-38.574,-46.875,-47.852,-32.715
1688306087.318,-23.438,-17.578,-27.344,-37.598,75.195
1688306087.321,-90.332,-13.184,-20.996,-32.715,50.781
1688306087.325,-70.312,-35.156,-21.973,-46.875,160.645
1688306087.329,-11.719,-53.223,-23.926,-55.664,337.891
1688306087.333,20.996,-46.387,-23.926,-41.016,381.348
1688306087.337,1.465,-19.043,-12.695,-12.695,454.102
1688306087.338,-79.590,-10.742,-20.996,-6.836,96.680
1688306087.342,-75.195,-32.715,-29.297,-30.762,-260.742
1688306087.346,-9.766,-22.949,-34.180,-43.945,-367.188
1688306087.350,15.137,-1.465,-38.086,-28.809,-318.359
1688306087.354,-17.090,-5.371,-33.691,-16.113,17.578
1688306087.358,-92.773,-17.090,-31.738,-22.949,102.539
1688306087.362,-92.285,-45.410,-25.879,-47.852,-48.340
1688306087.365,-18.555,-47.852,-20.508,-47.852,-227.051
1688306087.369,31.738,-47.852,-21.484,-34.180,67.871
1688306087.373,12.207,-40.039,-24.902,-24.902,214.355
1688306087.377,-56.641,-23.926,-20.996,-9.277,-62.500
1688306087.381,-69.336,-19.043,-5.859,-14.160,-151.367
1688306087.383,-21.484,-17.090,-10.254,-32.227,-173.828
1688306087.387,23.926,-16.602,-35.645,-33.691,-289.551
1688306087.391,17.090,-13.672,-37.109,-32.227,-213.379
1688306087.395,-69.336,-18.066,-27.344,-30.762,8.789
1688306087.399,-99.609,-30.762,-24.414,-33.691,24.414
1688306087.403,-46.387,-32.715,-31.738,-45.410,-105.469
1688306087.407,16.602,-35.156,-23.926,-47.363,-202.148
1688306087.410,36.621,-51.758,-12.695,-22.949,41.992
1688306087.414,-48.828,-53.223,-10.742,-5.371,460.449
1688306087.418,-105.469,-42.969,-16.113,-31.250,35.156
1688306087.422,-42.969,-28.809,-19.531,-47.363,-330.078
1688306087.426,11.719,-1.465,-14.160,-33.203,-216.797
1688306087.443,14.648,-5.371,-28.320,-24.902,-135.742
1688306087.447,-51.270,-20.020,-24.902,-19.043,-98.633
1688306087.451,-108.887,-11.230,-14.160,-23.438,-12.695
1688306087.455,-72.266,-15.625,-38.574,-62.500,128.906
1688306087.459,0.977,-13.672,-38.574,-66.895,-106.934
1688306087.463,19.531,-33.203,-26.367,-41.016,-173.340
1688306087.467,-41.504,-59.082,-35.645,-28.809,101.562
1688306087.470,-110.352,-75.684,-32.715,-32.715,329.102
1688306087.474,-66.406,-66.895,-11.719,-44.434,18.066
1688306087.478,4.883,-22.461,-12.207,-53.223,-337.402
1688306087.482,33.203,-0.977,-27.344,-37.598,-195.801
1688306087.486,-10.254,20.020,-31.738,-15.137,47.363
1688306087.474,-85.449,9.277,-33.203,-19.531,46.387
1688306087.478,-63.965,-38.086,-40.039,-46.387,-117.676
1688306087.482,-7.324,-42.480,-31.250,-52.734,-111.328
1688306087.486,25.391,-9.766,-8.789,-22.949,-88.379
1688306087.490,-8.789,-20.508,-23.438,-10.254,-67.871
1688306087.494,-85.449,-66.895,-34.668,-20.996,132.324
1688306087.498,-71.289,-65.918,-27.832,-43.945,217.773
1688306087.501,1.465,-18.555,-30.273,-57.129,-30.273
1688306087.505,47.363,14.648,-22.949,-43.945,-170.410
1688306087.509,5.371,0.000,-18.555,-30.762,-134.766
1688306087.513,-67.871,-42.480,-20.508,-8.789,215.332
1688306087.517,-67.383,-20.508,-5.859,-11.719,505.859
1688306087.518,-20.508,0.977,-4.883,-31.738,-5.371
1688306087.522,-3.418,-34.668,-21.973,-28.809,-298.828
1688306087.526,-10.742,-30.762,-36.621,-13.184,-94.238
1688306087.530,-73.242,-19.531,-55.664,-17.578,-28.320
1688306087.534,-96.680,-40.527,-50.293,-39.062,-142.578
1688306087.538,-16.602,-45.898,-17.090,-40.527,-117.188
1688306087.542,31.738,-28.809,-20.508,-25.391,140.625
1688306087.545,14.648,2.441,-21.484,-8.301,58.594
1688306087.549,-55.664,16.113,-12.207,0.977,-104.980
1688306087.553,-97.656,-21.484,-19.043,-18.066,-78.125
1688306087.557,-45.898,-40.039,-25.391,-50.293,-34.668
1688306087.561,9.277,-34.180,-26.855,-49.805,-226.074
1688306087.578,12.695,-46.387,-32.227,-30.762,-210.938
1688306087.582,-47.363,-27.832,-29.297,-8.301,36.133
1688306087.586,-87.402,-16.113,-25.391,-23.438,38.574
1688306087.590,-38.086,-23.926,-29.297,-60.059,-227.539
1688306087.594,9.766,-4.883,-14.160,-45.410,-302.734
1688306087.598,13.184,-33.691,-23.926,-27.832,2.441
1688306087.602,-49.805,-35.645,-43.945,-24.902,231.445
1688306087.605,-112.305,-9.277,-48.340,-41.504,150.879
1688306087.609,-55.176,-10.254,-24.902,-53.223,-77.148
1688306087.613,14.160,-29.785,-1.465,-33.203,-26.367
1688306087.617,14.160,-52.246,-33.203,-37.598,378.906
1688306087.621,-52.246,-67.383,-35.645,-45.898,187.012
1688306087.623,-107.910,-44.922,-24.902,-42.480,-79.102
1688306087.627,-64.941,-21.973,-30.762,-52.246,-100.586
1688306087.631,9.766,-20.508,-28.809,-56.641,-267.578
1688306087.635,33.203,-37.598,-15.137,-26.855,-259.766
1688306087.639,-9.766,-32.227,-6.348,9.277,-36.621
1688306087.643,-77.637,-9.766,-25.879,-4.395,132.324
1688306087.647,-66.406,-23.438,-49.805,-40.527,-10.254
1688306087.650,-11.230,-31.738,-35.156,-49.316,-266.602
1688306087.654,9.766,-19.531,-27.344,-33.691,-257.324
1688306087.658,-34.668,-20.020,-43.457,-21.484,228.027
1688306087.662,-111.328,-18.066,-35.645,-33.691,190.918
1688306087.666,-96.680,-41.016,-26.855,-68.359,-200.684
1688306087.668,-11.230,-40.039,-10.254,-58.594,-264.648
1688306087.672,36.133,1.953,1.465,-26.367,-163.086
1688306087.676,-20.508,-20.996,-22.949,-27.344,-82.031
1688306087.680,-104.004,-32.715,-41.992,-36.621,-10.742
1688306087.684,-79.102,-31.250,-31.738,-50.781,15.137
1688306087.688,-22.461,-28.320,-40.039,-59.082,-95.215
1688306087.692,9.277,-56.152,-43.457,-38.086,-144.043
1688306087.695,-12.207,-54.199,-21.484,-19.531,-79.102
1688306087.699,-74.219,-1.465,-15.625,-11.719,277.832
1688306087.703,-65.430,-2.441,-6.348,-21.484,481.934
1688306087.707,-16.602,-12.207,-25.391,-43.457,-112.793
1688306087.711,34.180,-1.465,-37.109,-29.785,-311.035
1688306087.713,26.855,-23.926,-24.902,-13.672,79.102
1688306087.717,-74.707,-41.992,-26.367,-26.367,79.102
1688306087.721,-108.887,-32.227,-34.180,-44.434,-91.797
1688306087.725,-39.062,-23.438,-27.832,-47.363,-170.898
1688306087.729,17.578,-3.418,-25.391,-33.203,-162.109
1688306087.733,20.020,13.672,-17.578,-21.973,-59.082
1688306087.737,-57.617,-26.855,1.953,-16.602,46.875
1688306087.740,-92.285,-40.039,0.488,-26.855,73.730
1688306087.744,-30.273,-39.551,-36.133,-49.316,179.199
1688306087.748,13.672,-37.109,-57.617,-56.641,-60.059
1688306087.752,10.742,-25.879,-38.574,-35.156,-206.543
1688306087.756,-58.105,-24.902,-27.344,-20.508,2.930
1688306087.758,-101.562,11.230,-22.461,-20.996,21.973
1688306087.762,-43.945,14.160,-40.039,-32.227,-168.945
1688306087.766,11.230,-12.695,-30.273,-48.340,-301.758
1688306087.770,21.973,-24.902,-10.254,-28.320,-61.035
1688306087.774,-38.086,-72.266,-19.531,-9.766,131.836
1688306087.778,-101.562,-53.223,-28.320,-22.461,50.781
1688306087.782,-47.852,-18.066,-37.598,-32.227,-89.844
1688306087.785,19.531,-18.555,-30.762,-38.086,50.781
1688306087.789,14.160,-1.465,-15.625,-30.762,404.785
1688306087.793,-27.344,23.926,-10.254,0.000,128.906
1688306087.797,-71.289,13.672,-23.438,-1.465,-83.984
1688306087.801,-63.965,-34.180,-37.109,-49.316,-94.238
1688306087.803,-13.672,-43.457,-36.133,-67.383,-262.695
1688306087.807,21.973,-28.320,-13.672,-38.574,-216.309
1688306087.811,-16.113,-29.297,-7.812,-13.184,-16.113
1688306087.815,-94.727,-55.176,-23.438,-20.996,8.301
1688306087.819,-76.172,-80.566,-18.066,-49.316,-59.570
1688306087.823,-3.418,-47.363,-17.090,-49.805,-105.469
1688306087.827,19.531,-11.719,-24.414,-34.668,-100.098
1688306087.830,-26.855,-11.230,-28.320,-36.133,376.465
1688306087.834,-106.445,-31.738,-34.180,-39.551,346.680
1688306087.838,-83.984,-25.391,-41.016,-38.574,-170.410
1688306087.842,-9.766,-0.977,-38.574,-38.574,-275.391
1688306087.846,25.391,-22.949,-32.715,-29.785,-227.051
1688306087.848,10.254,-43.457,-44.434,-14.160,-168.945
1688306087.852,-82.031,-24.414,-38.574,-31.738,-72.754
1688306087.856,-108.887,-22.949,-24.902,-60.547,-52.246
1688306087.860,-37.109,-49.316,-20.020,-55.176,-166.504
1688306087.864,5.371,-41.992,-19.043,-41.016,-209.473
1688306087.868,-8.301,-15.625,-20.020,-33.691,14.160
1688306087.872,-74.219,-21.973,-31.250,-25.391,367.188
1688306087.875,-84.473,-34.180,-24.902,-22.949,366.211
1688306087.879,-26.367,-35.645,-17.090,-33.691,-39.062
1688306087.883,32.715,-27.344,-9.277,-16.113,-213.379
1688306087.887,32.715,-48.340,-5.371,15.625,73.730
1688306087.891,-47.363,-48.340,-11.719,24.902,257.324
1688306087.893,-76.172,-23.438,-15.625,14.160,-77.148
1688306087.897,0.000,-28.809,-21.484,5.371,-250.488
1688306087.901,49.805,-33.203,-18.555,6.836,-224.121
1688306087.905,47.852,-21.484,-6.348,24.414,-151.855
1688306087.909,-26.367,-26.855,-8.301,35.645,-54.688
1688306087.913,-72.754,-42.969,-22.461,13.184,83.008
1688306087.917,-23.926,-77.148,-33.203,-21.484,273.926
1688306087.920,31.738,-35.156,-31.250,-10.742,-0.488
1688306087.924,45.410,9.766,-15.137,16.113,-217.773
1688306087.928,-23.438,5.859,-2.441,15.625,4.395
1688306087.932,-88.867,-6.348,-16.602,-17.090,187.988
1688306087.936,-51.758,-14.160,-30.762,-50.293,-121.094
1688306087.953,20.508,0.488,-24.414,-38.574,-354.004
1688306087.957,41.016,-6.836,-17.578,-7.324,-168.945
1688306087.961,-23.438,-20.996,-26.367,12.695,23.438
1688306087.965,-92.773,-27.832,-24.902,-1.953,-77.148
1688306087.969,-47.363,-33.203,-19.043,-31.250,-269.531
1688306087.973,24.902,-33.691,-23.926,-24.902,-116.211
1688306087.977,37.598,-33.203,-17.578,-7.812,50.293
1688306087.980,-7.812,-23.438,-15.625,2.930,32.715
1688306087.984,-75.684,-46.875,-13.184,-1.953,111.328
1688306087.988,-41.504,-87.402,-2.441,-9.766,154.785
1688306087.992,17.090,-45.410,-20.020,-13.184,143.555
1688306087.996,15.625,-19.531,-40.527,-34.668,-158.691
1688306087.998,-20.020,-29.785,-50.781,-37.598,-128.418
1688306088.002,-74.219,-18.555,-32.227,-11.230,148.926
1688306088.006,-67.383,-25.879,-13.672,-15.625,-104.004
1688306088.010,-10.742,-10.742,-23.926,-33.203,-400.391
1688306088.014,19.531,-4.395,-38.086,-33.203,-311.035
1688306088.018,9.277,-7.324,-25.879,-8.301,8.301
1688306088.022,-61.035,-25.391,-7.812,2.441,125.977
1688306088.025,-65.918,-43.457,-8.301,-15.625,-107.422
1688306088.029,3.418,-37.598,-15.137,-36.621,-249.512
1688306088.033,28.809,-15.137,-21.973,-30.762,81.055
1688306088.037,4.883,-15.625,-16.602,-6.836,77.148
1688306088.041,-58.105,-28.809,-1.465,-0.488,-85.938
1688306088.043,-66.895,-35.645,-8.789,-17.578,-101.074
1688306088.047,-17.090,-42.480,-41.016,-36.133,-250.977
1688306088.051,13.672,-20.020,-39.551,-33.691,-278.320
1688306088.055,4.883,-35.156,-17.090,-19.531,-29.785
1688306088.059,-71.289,-71.289,-21.973,-14.160,139.648
1688306088.063,-103.027,-46.875,-46.875,-32.227,191.406
1688306088.067,-39.062,-14.648,-39.062,-44.922,-11.230
1688306088.070,15.137,-10.254,-25.879,-34.180,-230.957
1688306088.074,-2.930,-20.020,-36.621,-33.203,98.633
1688306088.078,-64.941,-24.902,-33.691,-25.879,555.664
1688306088.082,-79.590,-1.465,-16.602,-17.578,162.598
1688306088.086,-45.410,-25.879,-24.414,-44.434,-271.484
1688306088.088,-10.254,-51.270,-39.551,-49.316,-252.441
1688306088.092,-3.418,-27.832,-28.320,-23.438,-202.148
1688306088.096,-49.805,-31.250,-10.742,-6.348,-104.004
1688306088.100,-87.891,-40.039,-27.832,-22.461,-59.082
1688306088.104,-35.156,-29.785,-28.320,-45.410,-151.367
1688306088.108,16.602,-38.086,-15.625,-48.340,-143.555
1688306088.112,30.762,-41.016,-10.254,-32.227,-8.301
1688306088.115,-13.184,-41.992,-2.441,-8.789,90.332
1688306088.119,-75.684,-28.320,-18.066,-4.883,422.363
1688306088.123,-47.852,-1.465,-34.180,-18.066,236.816
1688306088.127,13.672,-16.113,-20.996,-30.762,-270.020
1688306088.131,36.133,-38.574,-13.184,-16.113,-202.637
1688306088.133,-30.273,-18.555,-24.414,-10.254,-15.137
1688306088.137,-107.910,-18.555,-29.785,-26.855,-58.594
1688306088.141,-59.570,-15.137,-29.297,-36.621,-217.285
1688306088.145,20.020,-8.789,-29.785,-27.344,-241.699
1688306088.149,45.410,-4.883,-18.066,-11.230,-194.336
1688306088.153,2.441,-15.137,-4.883,-3.906,59.082
1688306088.157,-84.473,-37.109,-16.113,-18.555,156.250
1688306088.160,-75.195,-25.879,-28.809,-25.391,131.348
1688306088.164,-14.648,-10.742,-45.898,-35.156,273.926
1688306088.168,12.207,-16.113,-35.645,-27.832,57.129
1688306088.172,-10.742,-25.879,-20.996,-4.395,-86.426
1688306088.176,-83.984,-33.203,-16.113,-0.977,200.684
1688306088.178,-88.379,-36.621,-19.043,-28.320,99.121
1688306088.182,-21.484,-25.391,-33.203,-55.664,-291.992
1688306088.186,30.273,-30.762,-32.715,-38.086,-251.953
1688306088.190,13.184,-29.785,-13.672,-14.648,-56.641
1688306088.194,-77.148,-18.555,-4.883,-18.066,20.996
1688306088.198,-86.426,-21.973,-20.020,-25.879,-8.789
1688306088.202,-14.648,-22.461,-27.832,-41.504,-90.820
1688306088.205,28.809,-34.180,-28.809,-38.086,137.207
1688306088.209,26.855,-19.531,-22.461,-7.324,80.078
1688306088.213,-56.641,1.465,-22.949,-5.371,-106.445
1688306088.217,-104.980,-39.551,-38.086,-40.527,-36.621
1688306088.221,-50.293,-33.203,-35.645,-55.664,-133.789
1688306088.224,7.324,-2.441,-20.996,-42.969,-271.484
1688306088.228,16.113,-24.902,-27.832,-28.320,-196.777
1688306088.232,-57.129,-32.715,-33.691,-20.508,57.129
1688306088.236,-94.727,-41.992,-32.227,-21.973,68.359
1688306088.240,-39.062,-59.570,-36.133,-40.527,-117.188
1688306088.244,3.906,-22.461,-30.273,-53.223,-119.141
1688306088.248,7.812,-15.137,-21.973,-36.621,112.305
1688306088.251,-57.129,-36.133,-20.020,-32.227,366.699
1688306088.255,-99.121,-26.367,-20.020,-39.062,139.160
1688306088.259,-38.574,-21.484,-5.371,-41.504,-225.586
1688306088.263,13.184,-29.297,-2.930,-41.016,-96.191
1688306088.267,22.949,-15.625,-22.461,-38.574,4.883
1688306088.269,-45.410,-19.043,-35.156,-22.949,-37.109
1688306088.273,-115.723,-50.293,-32.715,-25.391,147.461
1688306088.277,-55.664,-46.875,-36.621,-43.945,106.445
1688306088.281,8.789,-40.527,-45.410,-48.828,-204.102
1688306088.285,20.996,-35.156,-25.879,-34.180,-252.930
1688306088.289,-14.648,-54.688,-10.742,-5.371,60.059
1688306088.293,-80.078,-73.730,-16.602,-4.395,296.387
1688306088.296,-56.641,-25.879,-28.320,-30.273,-54.199
1688306088.300,5.371,-0.977,-10.742,-41.504,-394.531
1688306088.304,31.250,-13.672,-2.930,-36.621,-234.863
1688306088.308,-10.254,-11.719,-14.648,-16.113,139.160
1688306088.312,-92.773,-19.043,-17.090,-6.348,63.965
1688306088.314,-84.961,-40.039,-37.109,-44.434,-154.785
1688306088.318,-19.043,-38.086,-47.852,-61.523,-228.027
1688306088.322,19.043,-32.715,-34.180,-37.109,-187.500
1688306088.326,-16.113,-40.039,-27.832,-27.344,-5.859
1688306088.330,-92.773,-39.062,-12.695,-28.320,32.227
1688306088.334,-74.707,-39.062,-11.719,-32.227,159.180
1688306088.338,-12.695,-21.484,-31.250,-47.363,355.469
1688306088.341,21.484,-21.973,-41.016,-38.574,-23.438
1688306088.345,9.766,-40.039,-25.391,-13.672,-50.781
1688306088.349,-83.496,-26.367,-24.414,-21.484,248.047
1688306088.353,-95.215,-14.160,-39.551,-40.039,114.746
1688306088.357,-15.137,-14.160,-41.992,-52.246,-222.656
1688306088.374,27.344,-10.742,-33.203,-53.223,-285.156
1688306088.378,27.832,-9.766,-11.230,-28.809,-147.461
1688306088.382,-44.922,-28.320,-11.719,-14.160,-27.832
1688306088.386,-71.777,-33.203,-19.531,-30.762,-113.770
1688306088.390,-14.648,-24.414,-17.090,-49.805,-169.922
1688306088.394,22.949,-16.602,-36.621,-40.039,-64.941
1688306088.398,23.438,-20.996,-41.016,-16.602,26.367
1688306088.401,-60.059,-28.809,-37.109,-3.906,126.953
1688306088.405,-113.281,-31.738,-45.410,-27.832,71.289
1688306088.409,-66.895,-37.109,-43.945,-65.918,143.555
1688306088.413,-4.883,-43.945,-36.133,-69.824,-63.477
1688306088.417,9.277,-35.645,-23.438,-50.781,-242.188
1688306088.418,-56.152,-26.855,-17.578,-28.320,-26.367
1688306088.422,-100.586,-19.531,-21.973,-25.391,25.391
1688306088.426,-31.738,-1.465,-25.879,-30.762,-170.898
1688306088.430,26.367,-1.953,-15.137,-24.902,-327.637
1688306088.434,27.832,-29.785,-17.578,-13.184,-199.219
1688306088.438,-46.387,-51.270,-41.504,4.395,56.641
1688306088.442,-98.633,-35.156,-33.203,2.930,184.570
1688306088.445,-36.621,-23.438,-25.879,-28.320,-93.750
1688306088.449,13.672,-29.297,-30.273,-54.199,-104.980
1688306088.453,15.625,-28.320,-29.785,-41.504,336.914
1688306088.457,-34.668,-22.461,-29.297,-23.926,265.625
1688306088.461,-90.820,-44.434,-17.090,-35.156,-45.410
1688306088.479,-51.270,-48.340,-15.625,-51.270,-176.270
1688306088.483,18.066,-10.742,-17.090,-40.527,-300.293
1688306088.487,40.039,-1.465,-18.066,-27.832,-274.414
1688306088.491,-23.926,-25.879,-39.551,-27.832,-114.258
1688306088.495,-102.051,-24.902,-40.527,-33.203,-4.395
1688306088.499,-62.012,-5.859,-25.391,-38.086,-33.691
1688306088.503,10.742,-2.441,-34.180,-34.180,-121.094
1688306088.506,49.805,-31.738,-28.809,-20.508,-86.914
1688306088.510,3.906,-56.641,-20.020,-18.555,297.852
1688306088.514,-89.844,-46.875,-35.645,-31.738,229.492
1688306088.518,-84.961,-46.387,-21.973,-41.992,-143.066
1688306088.522,-14.648,-22.461,-14.160,-56.641,-70.801
1688306088.508,32.227,-14.160,-29.297,-40.039,-21.973
1688306088.512,3.418,-44.434,-19.043,-13.672,-115.234
1688306088.516,-77.637,-30.762,-20.508,-8.789,-58.594
1688306088.520,-80.078,-7.324,-23.926,-15.137,-82.031
1688306088.524,-19.043,-4.395,-30.762,-46.875,-212.402
1688306088.528,19.043,-29.785,-40.039,-42.480,-218.262
1688306088.532,14.648,-35.645,-48.828,-17.090,-58.594
1688306088.535,-77.148,-40.039,-43.945,-37.109,177.734
1688306088.539,-104.980,-38.574,-25.391,-58.594,108.887
1688306088.543,-24.902,-30.762,-18.555,-54.688,-203.125
1688306088.547,30.762,-28.809,-11.230,-38.574,-259.766
1688306088.551,17.578,-40.527,-20.020,-34.180,140.625
1688306088.554,-68.848,-39.062,-29.297,-22.949,517.090
1688306088.558,-103.516,-26.855,-37.109,-29.785,114.258
1688306088.562,-46.875,-27.832,-46.387,-56.641,-165.039
1688306088.566,14.160,-32.227,-39.062,-52.246,-84.961
1688306088.570,27.344,-40.527,-22.461,-29.785,-134.766
1688306088.574,-56.152,-58.594,-12.695,-16.113,-2.930
1688306088.578,-104.980,-61.523,-12.695,-23.438,119.141
1688306088.581,-38.574,-21.484,-13.184,-38.574,167.969
1688306088.585,7.324,-10.742,-34.180,-44.922,-71.777
1688306088.589,15.625,-28.320,-46.875,-30.762,-282.227
1688306088.593,-48.340,-20.020,-27.344,-15.625,-94.727
1688306088.597,-110.352,-24.902,-31.738,-37.109,-13.672
1688306088.598,-46.387,-9.277,-32.227,-51.758,-182.129
1688306088.602,25.391,-10.254,-14.648,-49.316,-270.996
1688306088.606,39.062,-21.484,-12.695,-38.086,-120.117
1688306088.610,-27.832,-18.555,-24.414,-9.766,56.152
1688306088.614,-96.680,-46.875,-22.949,-20.020,123.535
1688306088.618,-48.340,-34.668,-7.812,-47.852,-55.664
1688306088.622,9.277,-18.555,-15.625,-47.852,-4.395
1688306088.625,18.555,-31.250,-27.832,-35.645,378.906
1688306088.629,-18.555,-14.648,-20.996,-18.066,245.117
1688306088.633,-82.031,-47.363,-19.531,-22.949,-26.855
1688306088.637,-56.641,-76.660,-40.039,-39.551,-31.738
1688306088.641,17.578,-22.949,-36.133,-38.574,-179.199
1688306088.643,36.133,23.438,-15.137,-31.738,-342.285
1688306088.647,-23.438,7.812,-21.973,-28.320,-170.898
1688306088.651,-93.262,-16.602,-25.879,-18.555,0.977
1688306088.655,-81.055,-22.949,-25.879,-32.227,-120.605
1688306088.659,-15.625,-32.715,-18.555,-30.762,-257.812
1688306088.663,19.043,-39.062,-5.859,-3.418,-77.148
1688306088.667,-11.719,-36.621,-17.090,2.441,373.535
1688306088.670,-76.172,-14.648,-20.508,-9.766,290.039
1688306088.674,-74.219,-14.160,-22.461,-30.762,-122.070
1688306088.678,-19.531,-47.363,-25.391,-45.410,-216.309
1688306088.682,16.113,-57.129,-23.438,-42.480,-65.430
1688306088.686,-0.977,-33.203,-26.855,-17.090,-99.609
1688306088.688,-83.008,-36.133,-26.855,-2.441,-69.824
1688306088.692,-122.070,-31.250,-36.133,-36.621,-78.125
1688306088.696,-40.039,-11.230,-20.020,-43.457,-236.328
1688306088.700,41.504,-49.805,-0.977,-11.719,-264.648
1688306088.704,24.414,-34.180,-24.414,-14.648,-150.391
1688306088.708,-65.430,2.930,-38.574,-27.344,220.215
1688306088.712,-95.215,-4.395,-29.297,-23.438,202.637
1688306088.715,-38.086,-1.465,-22.461,-29.785,-134.277
1688306088.719,6.348,-12.695,-20.020,-41.016,-162.109
1688306088.723,0.000,-37.598,-13.184,-28.809,144.043
1688306088.727,-72.266,-78.125,-6.348,-15.137,525.879
1688306088.731,-104.492,-64.941,-9.766,-21.484,88.379
1688306088.748,-30.273,-11.719,-30.273,-27.832,-309.082
1688306088.752,14.648,-8.789,-35.156,-38.574,-235.840
1688306088.756,-0.488,-39.062,-20.020,-42.480,-150.391
1688306088.760,-68.359,-26.367,-38.086,-31.250,-68.359
1688306088.764,-96.680,0.000,-53.223,-27.832,-49.805
1688306088.768,-41.016,-9.766,-32.227,-44.922,-43.457
1688306088.772,8.789,-25.391,-8.301,-49.316,-76.172
1688306088.775,26.855,-37.598,-11.230,-29.297,-155.273
1688306088.779,-37.598,-42.480,-20.508,-15.137,-23.438
1688306088.783,-98.633,-48.340,-15.137,-32.715,286.133
1688306088.787,-56.152,-32.715,-30.273,-56.152,28.809
1688306088.791,5.371,-9.277,-46.875,-58.594,-218.262
1688306088.793,13.184,-24.902,-48.340,-45.898,-86.426
1688306088.797,-41.016,-41.504,-32.715,-25.391,65.918
1688306088.801,-109.863,2.930,-20.996,-29.785,1.953
1688306088.805,-84.473,-2.930,-29.297,-49.316,-134.277
1688306088.809,-8.789,-26.367,-38.086,-55.664,-217.285
1688306088.813,31.738,0.000,-37.598,-38.086,-91.797
1688306088.817,-8.301,-1.953,-35.156,-20.508,152.344
1688306088.820,-95.215,-18.066,-28.320,-31.250,87.402
1688306088.824,-70.801,-22.461,-10.742,-33.203,61.523
1688306088.828,-0.977,-21.973,-11.230,-30.273,222.656
1688306088.832,19.531,-30.762,-17.578,-33.203,-72.754
1688306088.836,-2.930,-32.227,-22.949,-16.113,-155.273
1688306088.839,-78.125,-29.297,-28.809,-16.602,40.039
1688306088.843,-91.797,-37.109,-27.832,-52.734,-98.633
1688306088.847,-26.855,-31.738,-18.066,-60.547,-234.863
1688306088.851,7.812,-30.762,-6.836,-41.504,-198.242
1688306088.855,-16.602,-35.645,1.465,-37.109,77.148
1688306088.859,-114.258,-29.785,-8.301,-57.617,174.316
1688306088.863,-157.715,-26.855,-15.625,-90.820,-58.105
1688306088.866,-101.562,-22.949,-11.230,-118.164,-206.055
1688306088.870,-68.848,-21.484,-4.395,-131.836,111.328
1688306088.874,-85.449,-6.348,-6.836,-142.578,98.633
1688306088.878,-167.969,-14.648,-12.695,-147.949,17.090
1688306088.882,-184.082,-30.273,-8.789,-154.785,55.664
1688306088.884,-121.582,-28.320,-8.789,-171.875,-130.371
1688306088.888,-78.125,-0.488,-27.832,-176.758,-255.371
1688306088.892,-77.637,21.973,-42.480,-160.156,-173.340
1688306088.896,-143.066,-2.930,-45.410,-140.137,2.441
1688306088.900,-174.316,-25.879,-53.711,-136.719,73.730
1688306088.904,-98.145,3.906,-47.852,-133.789,-7.324
1688306088.908,-32.227,20.996,-53.711,-130.371,-224.121
1688306088.911,-26.367,23.926,-73.242,-115.723,-4.395
1688306088.915,-69.336,51.270,-68.359,-77.637,608.398
1688306088.919,-91.797,54.688,-60.547,-56.641,309.570
1688306088.923,-24.414,11.719,-57.617,-57.129,-220.215
1688306088.927,54.199,2.930,-60.059,-40.527,-218.262
1688306088.928,85.449,3.418,-61.035,-3.906,-210.449
1688306088.932,33.203,-7.812,-59.082,10.254,-116.699
1688306088.936,-8.789,25.879,-65.430,-0.977,25.391
1688306088.940,58.105,13.184,-58.594,-1.465,-41.992
1688306088.944,136.230,2.930,-43.945,21.484,-213.867
1688306088.948,143.066,-9.766,-59.082,32.715,-100.098
1688306088.952,74.219,14.160,-72.754,41.016,99.609
1688306088.955,5.371,43.945,-73.242,47.363,405.762
1688306088.959,52.246,47.363,-66.895,36.621,188.477
1688306088.963,144.531,16.602,-52.246,54.199,-300.781
1688306088.967,177.734,-33.203,-40.527,86.426,-228.027
1688306088.971,125.488,-18.555,-41.504,91.309,-16.113
1688306088.973,43.945,7.812,-42.480,94.727,17.578
1688306088.977,66.406,9.277,-41.992,87.402,-122.559
1688306088.981,126.465,-5.859,-44.922,79.102,-221.680
1688306088.985,140.625,-14.648,-42.969,93.750,-174.805
1688306088.989,109.375,-24.902,-33.691,110.840,-48.340
1688306088.993,30.273,-40.039,-28.320,117.676,139.648
1688306088.997,25.391,-35.645,-29.785,100.098,225.098
1688306089.000,85.449,-38.574,-24.414,85.938,145.508
1688306089.004,128.906,-50.781,-13.184,98.633,-60.059
1688306089.008,108.398,-41.016,-18.555,107.910,41.504
1688306089.012,1.465,-45.898,-35.156,79.590,294.434
1688306089.016,-15.625,-54.199,-34.180,45.898,201.660
1688306089.018,62.500,-24.902,-21.973,18.066,-245.605
1688306089.022,99.121,-27.832,-22.461,21.973,-303.223
1688306089.026,82.031,-51.758,-24.902,43.945,-78.613
1688306089.030,1.953,-52.246,-28.809,49.316,-8.789
1688306089.034,-28.809,-34.180,-30.273,35.645,-103.027
1688306089.038,20.508,4.883,-31.250,6.836,-137.695
1688306089.042,55.664,-18.066,-26.367,15.137,183.594
1688306089.045,62.500,-69.824,-11.719,46.875,85.938
1688306089.049,-29.297,-21.973,-22.461,30.273,-98.633
1688306089.053,-74.707,-33.203,-28.320,17.578,-65.918
1688306089.057,-4.395,-47.363,-22.949,2.930,-206.055
1688306089.061,42.480,8.301,-24.902,-9.277,-295.410
1688306089.064,45.898,26.367,-21.973,5.859,-166.992
1688306089.068,-35.645,4.883,-23.926,11.230,-7.324
1688306089.072,-82.520,-11.719,-15.625,10.254,41.016
1688306089.076,-11.230,-21.484,-8.789,-3.906,-134.766
1688306089.080,50.781,-54.688,1.953,-0.977,-238.770
1688306089.084,53.223,-63.477,2.441,20.508,119.141
1688306089.088,-23.926,-50.781,-18.555,8.789,407.715
1688306089.091,-82.031,-42.480,-26.367,-11.719,90.332
1688306089.095,-31.250,-34.668,-16.602,-20.996,-184.082
1688306089.099,16.602,-27.832,-10.254,-34.180,-103.516
1688306089.103,20.020,-50.293,-21.973,-32.227,96.680
1688306089.107,-29.297,-61.035,-25.391,-6.348,-27.344
1688306089.124,-85.938,-44.922,-8.789,-8.301,-96.680
1688306089.128,-55.664,-22.461,-2.930,-37.598,-158.691
1688306089.132,-8.789,-2.930,-12.695,-37.109,-231.445
1688306089.136,8.301,-22.949,-18.066,-27.344,-272.949
1688306089.140,-32.715,-39.062,-13.184,-10.254,-139.648
1688306089.144,-103.516,-31.250,-6.348,-5.371,322.266
1688306089.148,-69.336,-36.133,-7.812,-31.738,138.184
1688306089.151,15.137,-53.223,-6.348,-24.902,-319.336
1688306089.155,42.969,-46.875,-4.395,-5.371,-249.512
1688306089.159,-6.836,-39.062,-8.301,3.906,118.652
1688306089.163,-72.754,-43.457,-7.324,-0.488,93.750
1688306089.167,-69.824,-54.199,0.488,-21.484,-131.836
1688306089.168,-12.207,-43.945,-11.230,-41.992,-192.383
1688306089.172,17.090,-26.367,-20.996,-43.457,-166.016
1688306089.176,-13.184,-14.648,-16.602,-34.180,-78.125
1688306089.180,-78.613,-24.414,-14.160,-18.555,-22.461
1688306089.184,-72.266,-48.828,-12.695,-9.766,8.301
1688306089.188,-5.371,-44.922,-12.695,-36.621,8.301
1688306089.192,32.227,-31.250,-19.531,-34.668,-1.953
1688306089.195,18.555,-29.785,-23.438,7.812,35.156
1688306089.199,-53.223,-36.133,-10.254,14.160,188.477
1688306089.203,-70.312,-26.367,-13.184,-13.184,492.188
1688306089.207,-12.207,-22.461,-30.762,-33.691,122.070
1688306089.211,26.367,-41.016,-31.738,-25.879,-298.340
1688306089.213,18.555,-20.996,-20.508,-7.812,-136.719
1688306089.217,-68.359,-5.859,-15.625,-16.113,-36.133
1688306089.221,-99.121,-6.836,-19.043,-38.574,-136.230
1688306089.225,-38.574,-22.461,-19.531,-50.293,-252.441
1688306089.229,8.301,-28.320,-11.230,-45.410,-183.594
1688306089.233,16.602,-17.090,-6.348,-21.484,45.410
1688306089.237,-57.617,-28.809,-7.324,-16.602,137.695
1688306089.240,-110.352,-55.664,-15.137,-31.250,53.711
1688306089.244,-55.176,-43.945,-15.625,-39.062,-20.996
1688306089.248,9.766,-20.508,-10.254,-35.156,-213.867
1688306089.252,24.414,-6.348,-3.906,-16.602,-253.906
1688306089.256,-41.016,-6.836,-11.719,2.930,-36.621
1688306089.258,-94.727,-26.855,-19.043,-1.953,282.227
1688306089.262,-43.457,-35.156,-24.414,-30.762,-40.527
1688306089.266,17.090,-51.270,-21.973,-28.809,-322.266
1688306089.270,37.598,-58.594,-8.789,-3.418,-156.250
1688306089.274,-38.574,-53.711,-14.648,-5.371,-21.973
1688306089.278,-84.961,-55.664,-16.602,-3.418,41.992
1688306089.282,-36.621,-24.414,-20.508,-17.578,-104.004
1688306089.285,-9.277,-9.766,-35.156,-34.180,-61.523
1688306089.289,21.484,-7.812,-29.785,-10.254,300.781
1688306089.293,-17.090,-13.672,-19.531,8.301,124.512
1688306089.297,-85.449,-43.457,-18.555,-1.953,4.883
1688306089.301,-61.035,-24.414,-24.902,-44.434,170.898
1688306089.304,-10.742,-8.789,-37.598,-79.590,-26.855
1688306089.308,21.973,-27.832,-22.461,-64.453,-209.473
1688306089.312,-10.742,-34.668,-5.371,-30.273,-65.918
1688306089.316,-96.680,-38.574,-17.090,-33.691,45.410
1688306089.320,-99.121,-39.551,-30.273,-58.105,-80.078
1688306089.324,-25.879,-17.578,-20.020,-63.965,-161.133
1688306089.328,30.762,-13.672,-17.578,-46.387,-60.059
1688306089.331,-0.488,-76.172,-34.668,-18.555,286.133
1688306089.335,-87.402,-69.824,-29.785,-7.812,239.258
1688306089.339,-90.332,-24.902,-15.625,-29.297,-115.723
1688306089.343,-25.879,-37.598,-22.461,-47.852,-256.836
1688306089.347,26.367,-26.367,-18.066,-27.832,-221.191
1688306089.349,8.789,-30.273,-18.066,-21.973,-68.848
1688306089.353,-79.590,-38.574,-40.039,-37.109,-16.602
1688306089.357,-87.402,-29.785,-45.898,-59.570,-5.859
1688306089.361,-21.484,-22.949,-20.508,-90.332,-112.305
1688306089.365,10.742,-23.926,-2.930,-68.359,-243.164
1688306089.369,4.883,-33.691,-7.812,-30.762,-100.098
1688306089.373,-74.219,-53.711,-13.672,-33.203,221.680
1688306089.376,-105.957,-54.199,-23.926,-47.852,441.406
1688306089.380,-37.598,-26.367,-27.344,-46.875,-41.992
1688306089.384,8.789,-25.879,-28.320,-44.922,-372.559
1688306089.388,13.184,-38.574,-27.832,-17.090,-75.195
1688306089.392,-51.758,-44.434,-20.508,6.348,64.453
1688306089.393,-94.727,-32.715,-18.555,-18.066,-138.672
1688306089.397,-38.574,-29.297,-18.066,-39.062,-295.898
1688306089.401,19.043,-40.039,-21.973,-26.855,-187.500
1688306089.405,24.902,-42.969,-22.949,-18.066,-13.672
1688306089.409,-48.340,-44.434,-19.043,-20.996,-34.668
1688306089.413,-107.422,-36.133,-25.879,-41.504,20.508
1688306089.417,-41.016,-41.992,-18.555,-36.133,273.438
1688306089.420,35.156,-22.461,-19.043,-20.508,125.000
1688306089.424,39.062,-4.395,-32.715,-15.137,-216.797
1688306089.428,-16.113,-23.438,-11.230,-20.508,-92.285
1688306089.432,-90.332,-50.293,-4.395,-33.691,19.043
1688306089.436,-62.012,-33.203,-15.137,-42.480,-164.062
1688306089.438,15.625,-35.156,-20.996,-48.828,-294.434
1688306089.442,41.016,-57.129,-24.414,-36.133,-211.426
1688306089.446,-36.133,-53.711,-19.043,-22.949,12.207
1688306089.450,-116.699,-54.688,-15.137,-32.227,52.246
1688306089.454,-78.125,-66.895,-10.742,-41.504,-74.219
1688306089.458,-13.672,-74.219,-16.113,-34.668,-33.203
1688306089.462,10.254,-67.383,-22.949,-26.367,16.602
1688306089.465,-20.020,-70.801,-9.277,-12.695,15.625
1688306089.469,-74.707,-97.656,0.488,1.953,28.809
1688306089.473,-61.523,-86.914,-8.301,-18.555,126.465
1688306089.477,-15.137,-77.148,-28.809,-52.734,135.742
1688306089.481,29.297,-76.172,-22.461,-33.203,-176.758
1688306089.499,0.977,-42.480,-10.742,-9.766,-173.828
1688306089.503,-86.914,-41.992,-26.367,-9.277,188.965
1688306089.507,-84.961,-45.410,-41.016,-33.691,131.836
1688306089.511,-28.320,-34.668,-27.344,-46.875,-277.832
1688306089.515,11.230,-45.898,-14.160,-29.297,-215.820
1688306089.519,3.906,-77.637,-6.836,-5.859,63.477
1688306089.523,-61.035,-67.871,0.977,-12.695,48.828
1688306089.526,-73.730,-31.250,-17.090,-33.203,-101.562
1688306089.530,-11.230,-10.742,-15.137,-34.180,-192.383
1688306089.534,31.738,-19.531,-1.465,-23.926,45.410
1688306089.538,22.461,-50.781,-13.672,-10.254,76.660
1688306089.542,-59.082,-72.754,-29.785,-13.184,-5.859
1688306089.543,-83.008,-61.523,-21.973,-23.438,27.344
1688306089.547,-6.348,-47.852,-16.602,-30.762,-158.691
1688306089.551,20.020,-49.805,-39.551,-38.086,-298.828
1688306089.555,8.301,-35.156,-45.410,-28.320,-229.492
1688306089.559,-73.242,-21.484,-39.551,-39.551,-5.859
1688306089.563,-110.352,-20.508,-42.969,-52.734,112.793
1688306089.567,-52.734,-25.879,-32.227,-54.199,-16.113
1688306089.570,5.371,-57.617,-21.973,-47.363,-216.797
1688306089.574,34.668,-41.016,-11.719,-15.137,31.738
1688306089.578,-45.410,-23.438,-17.578,-13.184,502.930
1688306089.582,-111.328,-46.387,-31.738,-45.898,240.723
1688306089.586,-49.805,-30.273,-26.855,-78.125,-212.891
1688306089.588,16.602,-8.301,-23.438,-63.965,-138.672
1688306089.592,21.973,-23.438,-34.668,-33.691,-82.520
1688306089.596,-42.480,-48.828,-43.945,-29.785,-80.078
1688306089.600,-104.492,-64.941,-39.551,-32.715,-13.672
1688306089.604,-70.312,-44.922,-33.203,-46.387,-112.793
1688306089.608,-13.184,-9.277,-23.438,-54.688,-137.695
1688306089.612,9.277,-10.742,-27.832,-37.109,-94.238
1688306089.615,-34.180,-21.484,-39.062,-17.578,-7.812
1688306089.619,-93.262,-46.875,-38.086,-10.742,306.641
1688306089.623,-60.547,-54.199,-20.020,-26.855,68.848
1688306089.627,5.371,-37.109,-15.625,-25.391,-272.949
1688306089.631,30.762,4.883,-11.719,-11.230,-167.969
1688306089.633,-26.855,19.043,-16.602,-24.902,-15.137
1688306089.637,-104.492,-9.766,-42.480,-42.480,26.855
1688306089.641,-83.008,-23.926,-55.176,-53.223,-125.000
1688306089.645,-18.555,-37.598,-45.410,-51.270,-194.824
1688306089.649,10.742,-38.086,-30.273,-37.598,-114.746
1688306089.653,-12.695,-47.852,-31.738,-11.719,25.391
1688306089.657,-83.984,-48.828,-31.738,-18.555,55.176
1688306089.660,-65.430,-31.250,-18.066,-37.109,143.555
1688306089.664,-6.348,-45.410,-19.531,-44.434,344.727
1688306089.668,23.926,-68.848,-29.785,-32.715,-10.742
1688306089.672,8.789,-66.895,-20.020,0.000,-190.918
1688306089.676,-67.871,-8.789,-11.230,4.883,2.441
1688306089.679,-88.379,10.742,-22.949,-36.621,-78.125
1688306089.683,-34.668,1.465,-47.363,-79.590,-288.086
1688306089.687,17.090,-15.625,-39.062,-61.035,-270.508
1688306089.691,11.230,-22.949,-1.953,-4.395,43.457
1688306089.695,-60.547,-17.090,4.883,-1.465,87.402
1688306089.699,-102.051,-22.949,-20.508,-44.922,-42.480
1688306089.703,-54.688,-20.020,-28.809,-55.664,-88.379
1688306089.706,5.859,-38.086,-20.508,-34.668,183.105
1688306089.710,31.250,-40.527,-31.250,-2.441,179.199
1688306089.714,-40.527,-35.645,-37.598,4.883,-69.824
1688306089.718,-93.262,-42.969,-22.461,-16.113,-54.688
1688306089.722,-35.645,-29.785,-12.695,-34.668,-127.930
1688306089.723,18.066,-13.672,-13.184,-39.551,-264.648
1688306089.727,24.902,-28.320,-16.113,-25.391,-208.008
1688306089.731,-46.875,-36.133,-22.461,-15.625,-32.227
1688306089.735,-109.863,-32.227,-31.738,-40.527,-61.523
1688306089.739,-51.758,-29.297,-35.156,-61.035,-159.180
1688306089.743,14.648,-20.508,-35.156,-41.992,-141.113
1688306089.747,25.391,-11.719,-35.156,-16.113,167.969
1688306089.750,-41.992,-12.695,-32.715,-17.090,563.965
1688306089.754,-90.820,-34.668,-29.785,-22.949,186.523
1688306089.758,-39.551,-64.453,-21.484,-26.855,-246.582
1688306089.762,14.648,-36.621,-13.184,-35.645,-181.152
1688306089.766,24.414,-2.930,-24.414,-22.949,-51.758
1688306089.768,-41.992,-11.719,-36.621,-13.184,-108.398
1688306089.772,-103.027,-41.016,-31.250,-26.855,-84.961
1688306089.776,-57.617,-32.715,-17.090,-32.227,-127.930
1688306089.780,16.113,-19.531,-25.391,-26.855,-307.129
1688306089.784,37.598,-13.672,-31.738,-20.508,-297.363
1688306089.788,3.418,-14.160,-18.555,-0.488,17.090
1688306089.792,-74.219,-35.156,-12.207,-12.695,386.230
1688306089.795,-73.242,-65.430,-25.391,-43.457,122.559
1688306089.799,-5.371,-68.359,-36.621,-51.270,-178.223
1688306089.803,28.809,-51.270,-36.133,-37.109,-122.070
1688306089.807,-11.719,-45.898,-34.180,-19.531,152.832
1688306089.811,-85.449,-36.133,-36.133,-38.574,101.074
1688306089.813,-71.289,-35.645,-28.320,-55.176,-146.973
1688306089.817,0.000,-19.531,-27.832,-47.363,-254.883
1688306089.821,21.484,-14.160,-44.434,-43.457,-233.887
1688306089.825,-6.348,-23.438,-34.668,-33.691,-100.098
1688306089.829,-69.824,-39.551,-15.625,-11.230,16.113
1688306089.833,-86.426,-50.293,-18.066,-34.668,107.910
1688306089.837,-29.785,-41.992,-31.738,-57.617,3.906
1688306089.840,18.066,-31.738,-42.480,-39.062,-133.789
1688306089.844,11.719,-44.434,-29.785,-17.578,-51.270
1688306089.848,-75.195,-67.871,-17.578,-23.438,226.562
1688306089.852,-91.797,-54.688,-28.320,-38.086,394.531
1688306089.856,-20.996,-18.555,-36.133,-43.945,-41.016
1688306089.873,30.762,-2.441,-20.508,-28.809,-264.648
1688306089.877,29.297,-16.602,-21.973,-15.625,11.230
1688306089.881,-66.895,-31.250,-57.617,-30.273,72.754
1688306089.885,-103.516,-30.762,-65.918,-55.664,-71.777
1688306089.889,-38.574,-32.227,-46.875,-47.363,-158.203
1688306089.893,8.789,-30.762,-36.621,-33.203,-82.520
1688306089.897,4.395,-31.738,-41.992,-30.762,-34.180
1688306089.900,-81.055,-20.020,-48.828,-16.113,-23.926
1688306089.904,-114.258,-20.996,-43.457,-16.602,31.738
1688306089.908,-43.457,-51.758,-35.156,-36.133,145.020
1688306089.912,21.973,-39.062,-38.574,-39.551,-74.219
1688306089.916,36.621,-6.348,-45.410,-28.320,-207.520
1688306089.918,-41.016,-32.715,-43.457,-25.879,-27.832
1688306089.922,-99.121,-43.457,-37.109,-38.086,40.527
1688306089.926,-42.480,-18.555,-25.391,-40.527,-150.879
1688306089.930,15.137,-16.113,-22.949,-40.039,-308.594
1688306089.934,10.742,-41.992,-34.180,-36.621,-64.941
1688306089.938,-40.039,-36.133,-41.504,-16.602,248.535
1688306089.942,-97.168,-26.855,-49.805,-20.996,164.062
1688306089.945,-56.641,-30.762,-35.156,-39.062,-81.543
1688306089.949,12.207,-44.922,-28.809,-46.875,-34.180
1688306089.953,12.695,-38.086,-44.922,-40.039,303.711
1688306089.957,-41.992,-13.184,-52.246,-33.691,153.809
1688306089.961,-99.121,-35.645,-64.941,-42.969,-36.621
1688306089.963,-65.430,-39.062,-57.617,-50.781,-23.438
1688306089.967,-2.930,-23.438,-41.016,-47.363,-255.859
1688306089.971,14.160,-30.762,-30.762,-42.480,-334.473
1688306089.975,-36.621,-50.781,-32.715,-25.391,-88.379
1688306089.979,-111.816,-58.105,-37.109,-27.832,187.988
1688306089.983,-94.238,-52.246,-35.156,-50.293,37.109
1688306089.987,-16.602,-44.922,-19.043,-46.387,-220.215
1688306089.990,19.531,-43.457,-15.137,-38.574,-201.660
1688306089.994,-12.695,-58.105,-36.133,-34.180,196.289
1688306089.998,-76.172,-35.645,-44.922,-32.227,138.672
1688306090.002,-72.266,-24.902,-36.621,-49.316,-203.613
1688306090.006,-16.602,-43.457,-30.273,-51.270,-277.832
1688306090.008,29.297,-43.457,-31.738,-41.504,-217.285
1688306090.012,17.578,-43.945,-31.738,-24.902,-81.055
1688306090.016,-70.312,-57.617,-30.273,-17.090,-23.438
1688306090.020,-86.914,-42.480,-38.574,-31.738,-60.059
1688306090.024,-28.809,-38.086,-45.898,-45.898,-129.883
1688306090.028,16.113,-22.949,-42.969,-40.527,-85.938
1688306090.032,12.207,-7.812,-25.879,-9.766,-2.441
1688306090.035,-77.148,-24.902,-40.039,-12.695,246.094
1688306090.039,-103.516,-25.391,-55.176,-30.273,561.035
1688306090.043,-29.297,-20.020,-34.668,-32.227,170.898
1688306090.047,35.645,-47.363,-24.414,-26.367,-233.398
1688306090.051,31.738,-59.570,-29.297,-16.602,-69.336
1688306090.053,-46.387,-25.391,-35.645,-13.672,22.461
1688306090.057,-97.656,-21.484,-52.246,-25.879,-79.590
1688306090.061,-41.992,-23.438,-62.988,-50.781,-222.168
1688306090.065,18.555,1.953,-52.734,-45.410,-196.289
1688306090.069,20.020,-4.395,-38.086,-21.973,-97.168
1688306090.073,-49.805,-29.785,-32.227,-8.789,12.695
1688306090.077,-96.680,-30.762,-37.109,-14.648,95.703
1688306090.080,-41.992,-41.992,-46.387,-25.391,129.395
1688306090.084,3.906,-68.848,-55.176,-29.297,-38.086
1688306090.088,31.250,-38.574,-40.039,-4.883,-245.605
1688306090.092,-32.227,-27.832,-37.109,12.695,-66.895
1688306090.096,-116.211,-51.758,-57.617,-26.855,126.953
1688306090.098,-79.590,-53.711,-66.406,-62.988,-113.770
1688306090.102,-12.207,-42.969,-62.500,-48.828,-305.176
1688306090.106,17.090,-50.781,-55.176,-29.297,-177.734
1688306090.110,-35.645,-68.359,-64.941,-40.527,1.953
1688306090.114,-92.285,-40.039,-75.195,-41.504,8.789
1688306090.118,-54.199,-19.531,-68.848,-46.387,-41.992
1688306090.122,8.789,-23.926,-54.688,-56.152,-4.883
1688306090.125,34.668,-28.320,-55.664,-50.781,181.641
1688306090.129,-1.953,-48.340,-41.504,-22.461,109.375
1688306090.133,-68.848,-55.176,-32.227,-8.301,-72.754
1688306090.137,-60.059,-40.527,-59.082,-33.203,33.203
1688306090.141,1.953,-33.691,-53.223,-37.109,13.184
1688306090.143,36.133,-57.617,-35.156,-21.973,-260.254
1688306090.147,-5.371,-92.285,-46.387,-13.672,-117.188
1688306090.151,-104.004,-57.617,-53.711,-18.066,196.777
1688306090.155,-111.816,-25.391,-50.293,-39.551,2.930
1688306090.159,-35.645,-18.066,-40.527,-48.828,-292.480
1688306090.163,21.484,-30.762,-37.109,-29.785,-135.254
1688306090.167,0.977,-66.406,-47.852,-9.277,376.465
1688306090.170,-91.309,-52.734,-64.453,-11.230,272.949
1688306090.174,-96.680,-41.992,-67.871,-33.203,-143.555
1688306090.178,-9.277,-52.246,-48.340,-36.133,-232.910
1688306090.182,29.785,-63.477,-31.250,-16.602,-163.574
1688306090.186,5.371,-59.082,-44.434,-14.160,-76.172
1688306090.189,-76.660,-39.062,-56.641,-30.762,-45.410
1688306090.193,-93.750,-40.039,-52.246,-40.527,-5.859
1688306090.197,-27.832,-43.945,-51.270,-41.016,-68.359
1688306090.201,7.812,-39.551,-51.758,-43.457,-221.680
1688306090.205,6.348,-70.801,-54.199,-28.809,-170.410
1688306090.209,-65.430,-92.773,-41.504,-16.602,185.059
1688306090.213,-102.539,-64.453,-37.598,-27.344,266.113
1688306090.216,-33.691,-42.480,-66.406,-41.504,-111.328
1688306090.220,11.719,-47.363,-73.730,-46.387,-209.961
1688306090.224,7.812,-53.223,-65.430,-27.344,104.004
1688306090.228,-50.293,-37.598,-67.383,-12.207,420.410
1688306090.232,-86.914,-15.625,-62.988,-20.508,3.906
1688306090.264,-28.320,-26.367,-66.406,-32.227,-288.086
1688306090.268,15.137,-52.246,-86.426,-39.062,-202.637
1688306090.272,17.578,-55.176,-75.195,-29.785,-170.898
1688306090.276,-44.434,-38.574,-50.781,-18.555,-94.238
1688306090.280,-110.352,-70.312,-51.758,-25.391,49.805
1688306090.284,-73.242,-79.102,-45.898,-41.016,251.465
1688306090.288,-16.602,-21.973,-44.922,-51.270,7.324
1688306090.291,6.348,4.883,-49.316,-47.363,-266.113
1688306090.295,-38.574,-14.160,-40.039,-28.809,-83.008
1688306090.299,-91.797,-41.504,-42.969,-28.809,165.039
1688306090.303,-50.781,-45.410,-44.434,-44.434,-118.164
1688306090.307,13.672,-33.203,-31.738,-37.598,-311.523
1688306090.293,37.109,-33.203,-27.832,-19.043,-158.203
1688306090.297,-12.207,-69.824,-33.691,-9.766,-77.637
1688306090.301,-88.379,-55.664,-43.457,-20.508,-56.152
1688306090.305,-67.871,-14.648,-56.641,-37.598,-134.766
1688306090.309,-9.766,-12.207,-52.734,-52.734,-192.383
1688306090.313,10.254,-18.555,-41.992,-46.387,-8.789
1688306090.317,-14.160,-10.742,-27.344,-20.996,-0.488
1688306090.320,-58.594,-20.508,-12.207,3.906,-0.488
1688306090.324,-67.383,-33.691,-29.785,-17.090,123.047
1688306090.328,-16.602,-15.137,-57.129,-58.594,-45.898
1688306090.332,38.086,3.418,-62.500,-50.293,-251.465
1688306090.336,15.625,-4.395,-64.941,-21.484,-180.664
1688306090.353,-60.547,-14.160,-62.988,-20.020,193.359
1688306090.357,-56.152,-15.625,-57.129,-45.898,449.219
1688306090.361,22.949,-17.090,-57.617,-57.129,-18.555
1688306090.365,65.918,-29.297,-57.129,-49.805,-287.598
1688306090.369,44.922,-32.227,-51.270,-32.227,-26.855
1688306090.373,-38.086,-32.227,-45.898,-15.137,127.930
1688306090.377,-71.289,-26.855,-41.992,-39.062,15.137
1688306090.380,-14.648,-19.043,-42.480,-49.805,-187.988
1688306090.384,33.203,-13.184,-43.457,-36.621,132.324
1688306090.388,30.273,-8.789,-36.133,-21.484,216.309
1688306090.392,-30.273,-19.531,-34.180,-14.160,-56.152
1688306090.396,-73.242,-33.203,-48.340,-44.434,-44.434
1688306090.383,-22.461,-30.273,-54.199,-55.664,-105.469
1688306090.387,40.527,-31.738,-53.223,-34.668,-236.816
1688306090.391,46.875,-20.996,-40.039,-10.742,-147.949
1688306090.395,-29.785,-7.812,-22.949,-7.812,42.969
1688306090.399,-90.820,-15.625,-23.438,-29.785,38.086
1688306090.403,-32.227,-27.832,-25.391,-46.387,-67.871
1688306090.407,31.250,-25.879,-22.949,-36.621,-143.066
1688306090.410,17.578,-39.062,-32.715,-16.602,40.527
1688306090.414,-55.176,-47.852,-37.598,-20.508,208.008
1688306090.418,-92.773,-29.297,-37.598,-30.762,47.852
1688306090.422,-41.504,-17.090,-35.645,-36.133,-176.270
1688306090.426,5.859,-44.434,-43.457,-44.922,-68.359
1688306090.428,22.461,-46.387,-44.922,-27.344,322.266
1688306090.432,-30.762,-19.531,-35.156,-12.207,185.059
1688306090.436,-101.562,-23.438,-42.480,-31.738,-86.426
1688306090.440,-66.895,-37.598,-46.875,-51.758,-139.160
1688306090.444,5.859,-41.016,-42.969,-42.969,-248.047
1688306090.448,20.996,-25.391,-41.504,-24.414,-178.711
1688306090.452,-38.574,-19.531,-49.316,-5.859,30.762
1688306090.455,-98.633,-31.250,-50.781,-5.371,311.035
1688306090.459,-72.754,-38.574,-39.551,-36.133,66.406
1688306090.463,-5.371,-46.387,-28.809,-42.969,-375.488
1688306090.467,34.668,-49.805,-23.926,-26.855,-265.625
1688306090.471,-0.977,-40.527,-32.715,-4.883,-52.734
1688306090.474,-76.660,-5.859,-45.410,-15.625,-39.062
1688306090.478,-68.848,-25.879,-48.340,-48.340,-180.176
1688306090.482,-17.578,-50.293,-47.852,-56.641,-190.430
1688306090.486,18.555,-28.320,-45.410,-40.527,-102.539
1688306090.490,-11.719,-23.926,-59.082,-32.715,-61.523
1688306090.494,-92.773,-46.875,-44.434,-26.855,55.664
1688306090.498,-84.961,-47.363,-34.180,-25.879,204.102
1688306090.501,-21.973,-19.531,-41.992,-40.527,235.352
1688306090.505,20.508,-12.207,-25.879,-40.039,-39.062
1688306090.509,14.648,-10.254,-20.996,-20.020,-154.297
1688306090.513,-66.406,-43.457,-36.133,-11.719,94.238
1688306090.517,-105.957,-52.734,-34.668,-43.945,42.969
1688306090.518,-49.805,-25.879,-20.996,-64.941,-304.688
1688306090.522,3.418,-29.297,-22.461,-52.246,-300.781
1688306090.526,-6.836,-52.246,-33.691,-36.133,-99.609
1688306090.530,-82.520,-42.480,-46.387,-35.645,20.996
1688306090.534,-96.680,-18.066,-47.363,-47.363,-5.859
1688306090.538,-14.160,-30.762,-31.738,-54.199,-34.668
1688306090.542,40.039,-35.645,-26.855,-41.992,227.539
1688306090.545,27.832,-28.320,-20.996,-26.855,245.605
1688306090.549,-73.730,-35.645,-20.508,-41.992,-7.812
1688306090.553,-132.324,-42.480,-19.043,-68.359,-95.215
1688306090.557,-90.332,-59.570,-14.648,-95.703,-162.598
1688306090.561,-62.012,-69.336,-32.227,-113.770,-282.227
1688306090.563,-73.730,-65.918,-30.762,-101.074,-271.484
1688306090.567,-139.160,-65.918,11.230,-80.566,-47.852
1688306090.571,-215.820,-62.012,20.996,-114.746,16.113
1688306090.575,-201.660,-65.918,13.184,-175.781,-182.617
1688306090.579,-162.598,-83.984,8.789,-204.590,-266.113
1688306090.583,-177.246,-98.145,-0.977,-222.656,4.395
1688306090.587,-250.000,-55.176,-11.230,-228.516,175.781
1688306090.590,-304.199,-26.367,-9.766,-219.238,115.234
1688306090.594,-250.000,-41.504,5.859,-210.938,-65.430
1688306090.598,-169.434,-62.012,-15.625,-202.148,-78.125
1688306090.602,-149.902,-72.266,5.859,-176.758,285.156
1688306090.606,-193.359,-72.754,43.457,-167.969,179.688
1688306090.623,-230.469,-69.336,21.973,-142.090,-26.367
1688306090.627,-217.285,-96.191,-5.859,-151.367,-76.660
1688306090.631,-159.668,-88.379,8.789,-169.922,-227.539
1688306090.635,-123.535,-70.801,14.648,-158.691,-284.668
1688306090.639,-156.738,-68.848,5.371,-135.254,-83.008
1688306090.643,-188.477,-67.871,35.156,-93.750,219.727
1688306090.647,-138.184,-49.316,52.246,-88.379,63.965
1688306090.650,-100.586,-59.082,12.207,-134.766,-261.719
1688306090.654,-94.238,-104.492,-13.672,-135.742,-212.891
1688306090.658,-110.352,-119.629,-12.695,-106.445,312.500
1688306090.662,-149.902,-89.844,3.418,-70.312,271.484
1688306090.666,-126.465,-58.105,20.508,-59.570,-165.039
1688306090.669,-53.223,-67.383,12.695,-63.477,-237.305
1688306090.673,-5.371,-70.312,1.465,-51.270,-200.684
1688306090.677,-20.996,-43.945,8.301,-24.414,-143.066
1688306090.681,-95.215,-76.660,32.227,-12.695,-22.461
1688306090.685,-102.051,-85.938,52.734,-30.762,-51.758
1688306090.689,-10.254,-32.227,56.152,-26.367,-150.879
1688306090.693,34.180,-32.227,37.598,-16.602,-133.301
1688306090.696,-11.719,-51.270,16.113,-15.137,-83.496
1688306090.700,-72.266,-31.738,20.996,-5.859,255.371
1688306090.704,-86.426,-32.227,17.578,-15.625,482.422
1688306090.708,-25.391,-46.875,15.137,-36.621,-65.918
1688306090.712,48.340,-42.480,27.344,-14.648,-312.500
1688306090.713,49.805,-55.176,28.809,19.043,132.324
1688306090.717,-38.086,-68.848,16.602,5.859,143.555
1688306090.721,-81.543,-56.641,1.953,-23.438,-90.820
1688306090.725,-15.625,-45.898,-3.906,-37.109,-213.867
1688306090.729,38.574,-39.551,9.277,-40.527,-227.539
1688306090.733,30.762,-36.621,19.531,-25.391,-86.426
1688306090.737,-30.273,-44.922,13.672,-0.488,132.324
1688306090.740,-63.965,-39.062,21.484,6.348,104.004
1688306090.744,-9.766,-24.902,26.855,-17.578,161.133
1688306090.748,30.273,-24.902,0.977,-38.086,-40.527
1688306090.752,37.109,-44.922,-13.672,-19.043,-233.398
1688306090.756,-14.160,-57.129,-8.301,3.418,-30.273
1688306090.759,-78.125,-42.969,-1.465,-2.930,44.434
1688306090.763,-40.527,-31.738,-10.742,-16.602,-151.855
1688306090.767,23.438,-33.203,-17.090,-19.043,-285.156
1688306090.771,42.969,-48.828,-19.043,-2.930,-147.461
1688306090.775,-17.578,-25.879,-14.648,7.812,56.641
1688306090.779,-85.938,-0.977,-0.977,-13.672,147.461
1688306090.783,-48.828,-3.906,0.977,-32.227,-6.348
1688306090.786,20.020,-28.809,-10.742,-29.297,-13.672
1688306090.790,34.668,-44.434,-27.832,-18.066,415.527
1688306090.794,-17.090,-15.625,-12.695,-2.441,176.270
1688306090.798,-79.590,-36.133,-13.672,4.395,-85.938
1688306090.802,-63.965,-69.336,-16.602,-18.066,-104.004
1688306090.803,0.977,-46.387,-12.207,-40.039,-307.617
1688306090.807,52.246,-8.789,-32.715,-14.648,-291.016
1688306090.811,17.090,-7.324,-30.762,2.441,-95.215
1688306090.815,-88.379,-15.625,-9.766,-14.160,19.531
1688306090.819,-85.938,-23.438,-8.301,-38.086,-98.633
1688306090.823,-3.418,-33.691,-9.277,-35.645,-202.637
1688306090.827,38.086,-30.273,-13.184,-13.672,-128.906
1688306090.830,8.301,-26.855,-10.742,5.371,376.465
1688306090.834,-75.195,-21.484,-12.695,4.883,390.625
1688306090.838,-87.891,-28.809,-31.250,-18.066,-169.922
1688306090.842,-11.719,-42.480,-26.855,-14.648,-340.820
1688306090.846,37.598,-37.598,0.000,-2.930,-271.484
1688306090.848,20.508,-40.039,0.000,9.277,-146.484
1688306090.852,-65.430,-29.297,-9.766,17.578,-63.965
1688306090.856,-88.379,-17.578,-33.203,-5.859,-70.312
1688306090.860,-18.066,-20.020,-35.156,-23.438,-158.691
1688306090.864,36.621,-9.766,5.859,-18.066,-236.816
1688306090.868,25.391,-20.020,11.230,-10.254,-129.395
1688306090.872,-60.547,-50.781,-22.949,-10.254,260.742
1688306090.875,-105.469,-39.551,-36.621,-28.320,463.379
1688306090.879,-41.992,-33.203,-21.484,-41.504,38.574
1688306090.883,22.461,-37.598,-17.578,-30.273,-242.188
1688306090.887,35.156,1.465,-7.324,-6.348,3.906
1688306090.891,-39.062,-8.789,-9.766,1.953,172.363
1688306090.893,-97.168,-61.035,-24.414,-27.344,-88.867
1688306090.897,-41.016,-29.785,-33.691,-38.086,-285.645
1688306090.901,22.949,-18.066,-37.109,-31.738,-223.633
1688306090.905,34.180,-58.105,-8.789,-3.906,-143.555
1688306090.909,-23.926,-43.457,-0.488,16.113,-58.594
1688306090.913,-73.242,-34.180,-18.555,-7.812,70.801
1688306090.917,-40.039,-74.219,-21.973,-40.039,252.930
1688306090.920,10.742,-44.922,-31.250,-44.922,15.625
1688306090.924,38.086,16.602,-35.156,-32.227,-283.691
1688306090.928,-8.301,1.465,-27.832,-20.996,-34.180
1688306090.932,-81.543,-16.113,-30.762,-26.367,337.402
1688306090.936,-41.992,-3.418,-23.438,-30.762,34.180
1688306090.938,31.250,-21.484,-13.672,-28.320,-269.043
1688306090.942,29.297,-48.340,-36.621,-32.227,-194.336
1688306090.946,-22.461,-53.711,-37.109,-11.719,-59.082
1688306090.950,-83.984,-61.035,-9.277,-1.953,-12.695
1688306090.954,-76.172,-46.875,0.977,-22.461,-159.668
1688306090.958,-10.254,-11.719,-3.906,-31.738,-97.656
1688306090.962,25.391,-34.180,-18.555,-14.648,48.340
1688306090.965,-14.648,-36.621,-26.367,-0.488,-11.230
1688306090.969,-87.891,0.977,-18.066,-0.977,41.016
1688306090.973,-79.590,-21.973,-30.762,-21.973,70.801
1688306090.977,-4.395,-47.852,-53.223,-30.273,162.109
1688306090.981,27.344,-20.996,-39.062,-36.133,-70.312
1688306090.998,-20.996,-17.578,-25.391,-58.105,-25.391
1688306091.002,-91.797,-32.715,-10.742,-51.758,246.094
1688306091.006,-105.957,-51.270,-11.719,-71.777,-9.277
1688306091.010,-50.781,-33.691,-30.762,-97.168,-300.781
1688306091.014,-5.371,5.859,-39.062,-83.008,-261.230
1688306091.018,-24.902,-7.812,-44.922,-57.617,-12.207
1688306091.022,-108.398,-16.602,-50.293,-68.848,145.996
1688306091.025,-129.883,-1.953,-61.523,-98.633,-22.949
1688306091.029,-64.453,0.977,-65.430,-108.887,-153.809
1688306091.033,-8.301,-38.574,-54.688,-99.609,84.473
1688306091.037,-13.672,-64.941,-45.898,-79.590,47.363
1688306091.041,-75.684,-27.832,-37.598,-55.176,-45.410
1688306091.044,-99.121,-13.672,-41.016,-66.406,-20.996
1688306091.048,-51.270,-17.578,-60.547,-89.844,-159.668
1688306091.052,5.371,-0.488,-45.898,-78.613,-188.477
1688306091.056,16.113,-20.996,-32.715,-42.969,-23.438
1688306091.060,-51.270,-41.992,-33.691,-19.043,121.582
1688306091.064,-94.238,-27.832,-25.879,-26.855,296.387
1688306091.068,-36.133,-23.926,-22.949,-49.805,86.914
1688306091.071,20.996,-55.176,-20.996,-51.270,-239.258
1688306091.075,20.508,-35.156,-20.020,-25.391,74.219
1688306091.079,-44.434,-3.906,-26.855,-4.395,503.418
1688306091.083,-93.750,-16.113,-39.551,-22.949,112.305
1688306091.087,-46.875,-24.414,-36.133,-49.805,-251.465
1688306091.088,22.461,-20.020,-30.762,-38.574,-209.473
1688306091.092,33.203,-48.340,-32.715,-25.391,-179.688
1688306091.096,-30.273,-45.898,-28.320,-19.043,-68.359
1688306091.100,-89.844,-14.648,-28.809,-22.949,-14.160
1688306091.104,-46.387,-10.254,-18.555,-36.133,-123.047
1688306091.108,22.949,-12.207,-16.602,-40.527,-231.445
1688306091.112,29.785,-20.508,-27.344,-43.945,-156.738
1688306091.115,-25.879,-16.113,-26.855,-34.668,0.977
1688306091.119,-87.891,-23.926,-26.855,-15.137,323.730
1688306091.123,-73.242,-28.809,-27.832,-41.992,193.359
1688306091.127,-3.906,-21.973,-31.250,-64.941,-278.809
1688306091.131,30.762,-37.598,-31.250,-33.691,-293.945
1688306091.133,-0.977,-36.133,-27.344,1.953,-84.961
1688306091.137,-69.824,-25.391,-35.156,-12.207,-30.273
1688306091.141,-50.293,-46.875,-33.203,-28.809,-165.039
1688306091.145,36.133,-73.730,-31.250,-21.484,-232.910
1688306091.149,43.945,-37.109,-25.391,-28.320,-212.402
1688306091.153,-4.395,22.949,-10.742,-22.949,-4.395
1688306091.157,-78.125,17.090,-24.414,-19.043,161.621
1688306091.160,-87.891,-0.977,-43.457,-30.762,151.367
1688306091.164,-8.789,-24.902,-25.879,-32.227,411.133
1688306091.168,27.344,-22.949,-38.086,-40.527,155.273
1688306091.172,4.395,-12.207,-48.828,-33.203,-179.199
1688306091.176,-63.965,-33.691,-18.066,-12.207,63.477
1688306091.193,-87.402,-52.246,-7.812,-29.785,-25.879
1688306091.197,-22.461,-74.707,-18.066,-49.316,-310.059
1688306091.201,23.926,-37.109,-23.926,-47.852,-308.594
1688306091.205,7.324,-0.977,-33.203,-34.668,-104.980
1688306091.209,-61.035,0.488,-30.762,-4.395,99.121
1688306091.213,-80.566,0.977,-15.625,-9.277,77.637
1688306091.217,-19.531,18.555,-20.508,-39.551,-38.574
1688306091.220,22.461,10.742,-26.367,-31.250,88.379
1688306091.224,9.277,-18.555,-21.973,-22.949,34.180
1688306091.228,-70.801,-37.109,-21.484,-28.809,-95.215
1688306091.232,-102.539,-52.246,-29.785,-30.273,59.082
1688306091.236,-36.133,-45.410,-29.297,-34.180,-16.602
1688306091.223,14.648,-43.457,-20.996,-37.598,-297.852
1688306091.227,9.766,-34.180,-27.832,-37.109,-252.930
1688306091.231,-57.129,0.000,-33.203,-20.508,-48.828
1688306091.235,-86.914,7.324,-5.371,-12.695,-14.160
1688306091.239,-41.992,-26.855,-8.301,-29.785,-198.242
1688306091.243,10.742,-6.836,-14.648,-39.062,-278.320
1688306091.247,11.230,-5.859,-35.645,-54.199,-20.508
1688306091.250,-67.871,-23.438,-65.430,-57.129,140.625
1688306091.254,-129.395,-28.320,-41.016,-53.711,45.410
1688306091.258,-65.430,-32.715,-11.719,-51.758,-156.250
1688306091.262,10.742,-44.922,-20.508,-41.992,-84.961
1688306091.266,16.113,-52.734,-37.109,-39.062,289.062
1688306091.269,-30.762,-27.344,-22.461,-17.578,128.906
1688306091.273,-92.285,-17.578,-19.531,-10.254,-24.414
1688306091.277,-63.477,-10.254,-35.645,-39.062,-2.930
1688306091.281,5.859,-4.883,-17.578,-40.039,-207.520
1688306091.285,30.762,-16.602,-6.836,-19.043,-312.012
1688306091.289,-20.996,-52.246,-27.344,-16.113,-60.547
1688306091.293,-101.562,-62.012,-31.738,-29.297,366.211
1688306091.296,-83.984,-37.598,-38.574,-56.152,116.211
1688306091.300,0.000,0.488,-29.785,-55.664,-260.254
1688306091.304,38.574,-20.508,-17.578,-32.715,-196.289
1688306091.308,-7.812,-44.434,-33.203,-31.250,-4.883
1688306091.312,-83.008,-20.996,-17.578,-19.043,26.367
1688306091.313,-73.242,-11.230,-1.465,-19.043,-143.066
1688306091.317,-11.230,3.906,-27.832,-41.992,-190.430
1688306091.321,17.090,0.000,-35.156,-42.969,-132.324
1688306091.325,0.488,-38.574,-20.996,-19.043,28.809
1688306091.329,-75.195,-24.414,-33.691,-31.738,76.172
1688306091.333,-92.773,-19.531,-63.477,-50.781,142.578
1688306091.337,-29.785,-42.480,-51.270,-61.035,347.656
1688306091.340,16.113,-46.387,-24.414,-47.852,-7.812
1688306091.344,21.973,-51.758,-12.695,-13.184,-173.340
1688306091.348,-27.832,-59.570,16.113,13.184,144.043
1688306091.352,-62.988,-45.410,2.930,-0.977,169.434
1688306091.356,-23.438,-16.113,-39.062,-39.062,-246.582
1688306091.373,17.090,-27.832,-36.621,-39.551,-297.852
1688306091.377,5.859,-61.035,-29.297,-23.438,-0.488
1688306091.381,-58.594,-36.133,-30.762,-14.648,45.898
1688306091.385,-89.844,-5.859,-18.066,-29.297,-102.539
1688306091.389,-36.621,-20.508,-35.645,-61.523,-190.918
1688306091.393,24.414,-31.738,-42.480,-60.059,-99.121
1688306091.397,27.832,-23.926,-14.648,-23.926,-12.695
1688306091.400,-20.020,-28.320,-5.371,12.695,48.340
1688306091.404,-61.523,-60.547,-5.371,5.859,44.922
1688306091.408,-33.691,-62.012,-12.207,-29.785,147.461
1688306091.412,20.996,-38.086,-19.043,-38.086,13.672
1688306091.416,31.738,-35.156,-15.137,-20.020,-184.570
1688306091.418,-38.086,-32.715,-30.762,-9.766,-60.059
1688306091.422,-100.586,-14.648,-47.363,-24.414,-17.090
1688306091.426,-40.039,13.184,-27.832,-22.461,-203.125
1688306091.430,32.227,6.836,-13.672,-16.602,-327.148
1688306091.434,42.480,-21.484,-23.438,-9.766,-178.223
1688306091.438,-22.949,-34.668,-27.832,-4.883,125.488
1688306091.442,-96.191,-19.043,-16.602,-17.578,130.859
1688306091.445,-51.270,-22.461,-7.324,-33.691,-146.484
1688306091.449,15.625,-38.086,-3.418,-27.832,-107.910
1688306091.453,30.762,-34.668,-2.441,-11.719,388.184
1688306091.457,-16.113,-19.043,-12.695,-0.977,391.113
1688306091.461,-91.797,-17.578,-25.391,2.441,54.688
1688306091.463,-73.730,-23.438,-27.832,-13.184,-94.727
1688306091.467,-15.625,-3.418,-37.109,-23.926,-246.582
1688306091.471,15.137,-9.277,-39.062,-9.277,-266.113
1688306091.475,-12.695,-31.738,-36.133,-8.301,-149.902
1688306091.479,-85.449,-17.090,-32.715,-32.715,24.902
1688306091.483,-79.590,-12.207,-20.996,-57.129,-3.418
1688306091.487,5.371,-16.602,-10.742,-49.805,-195.801
1688306091.490,40.527,-29.297,-18.555,-46.387,-185.547
1688306091.494,-6.348,-50.293,-20.020,-45.898,241.211
1688306091.498,-90.820,-34.180,-8.301,-29.785,258.301
1688306091.502,-112.793,-21.973,-25.391,-43.945,-55.664
1688306091.506,-37.598,-13.672,-40.527,-53.223,-131.836
1688306091.508,5.859,-13.184,-38.086,-48.828,-124.512
1688306091.512,-16.602,-29.785,-29.297,-20.996,-125.000
1688306091.516,-77.148,-50.781,-34.668,-7.812,-37.109
1688306091.520,-85.449,-55.664,-27.344,-23.926,-19.043
1688306091.524,-18.066,-40.039,-17.090,-29.297,-204.590
1688306091.528,23.926,-27.832,-26.367,-26.855,-140.625
1688306091.532,2.930,-37.598,-27.344,-18.066,-59.570
1688306091.535,-72.754,-51.270,-29.297,-13.672,101.074
1688306091.539,-92.773,-64.453,-20.508,-15.625,560.059
1688306091.543,-11.719,-41.016,0.488,-3.906,152.832
1688306091.547,31.738,-0.488,-15.137,-6.836,-278.320
1688306091.551,18.555,-7.324,-27.344,-24.414,-110.840
1688306091.554,-48.828,-12.207,-17.090,-23.926,9.277
1688306091.558,-96.680,-6.348,-36.133,-38.086,28.809
1688306091.562,-36.133,-12.207,-37.109,-48.828,-196.289
1688306091.566,27.344,-43.945,-34.668,-39.551,-141.602
1688306091.570,23.926,-54.199,-30.762,-27.344,-45.410
1688306091.574,-49.805,-30.273,-12.207,-16.113,-21.484
1688306091.578,-111.328,-24.414,-17.578,-37.598,60.547
1688306091.581,-63.477,-33.203,-25.391,-54.688,230.469
1688306091.585,10.254,-7.812,-24.902,-36.133,-4.883
1688306091.589,32.715,-5.371,-20.996,-16.113,-257.812
1688306091.593,-37.598,-35.156,-24.414,-19.043,-46.875
1688306091.597,-112.305,-22.461,-25.879,-23.438,58.105
1688306091.598,-64.941,-23.438,-44.434,-40.039,-121.582
1688306091.602,13.184,-36.133,-48.340,-44.434,-287.598
1688306091.606,34.180,-14.648,-20.020,-14.648,-202.148
1688306091.610,-18.555,-18.066,-9.766,-5.859,63.965
1688306091.614,-85.938,-17.090,-11.719,-18.066,171.387
1688306091.618,-54.688,-2.930,-23.438,-29.297,-6.836
1688306091.622,17.578,-3.906,-5.859,-25.391,-69.336
1688306091.625,23.438,-18.066,-12.695,-18.066,313.477
1688306091.629,-33.691,-23.438,-31.250,-29.297,297.852
1688306091.633,-102.051,-44.434,-23.438,-35.645,-57.129
1688306091.637,-83.008,-55.664,-37.109,-36.621,-71.777
1688306091.641,-8.301,-40.527,-37.598,-38.574,-197.754
1688306091.643,32.227,-19.531,-30.762,-28.320,-334.961
1688306091.647,0.488,-10.254,-34.668,-16.113,-157.227
1688306091.651,-79.102,-10.742,-26.367,-17.090,44.922
1688306091.655,-86.914,-27.832,-32.715,-42.969,-41.016
1688306091.659,-21.484,-41.504,-24.902,-51.270,-261.230
1688306091.663,15.625,-30.273,-21.484,-27.344,-124.023
1688306091.667,-4.395,-24.414,-33.691,-20.996,340.820
1688306091.670,-72.754,-17.578,-28.320,-34.180,347.168
1688306091.674,-93.262,-25.879,-28.809,-53.223,-57.617
1688306091.678,-26.367,-37.598,-38.574,-52.734,-248.535
1688306091.682,24.902,-22.461,-21.484,-28.320,115.723
1688306091.686,14.160,-6.348,-19.043,-21.973,99.609
1688306091.688,-56.152,-17.090,-32.715,-15.137,-89.844
1688306091.692,-96.680,-32.227,-39.062,-25.879,-48.340
1688306091.696,-28.320,-33.203,-23.926,-43.945,-167.480
1688306091.700,30.273,-35.156,-1.953,-39.062,-267.090
1688306091.704,16.602,-33.691,-18.066,-36.621,-193.359
1688306091.708,-53.223,-18.555,-20.996,-16.602,202.637
1688306091.712,-99.121,-28.320,-5.371,-24.414,341.797
1688306091.715,-62.500,-47.852,-33.203,-62.500,-99.609
1688306091.719,-0.977,-22.949,-42.480,-56.152,-252.930
1688306091.723,24.902,-27.832,-36.133,-33.203,49.805
1688306091.727,-32.227,-46.387,-33.691,-15.625,407.227
1688306091.731,-101.074,-46.387,-22.949,-39.062,31.250
1688306091.748,-77.637,-57.129,-29.297,-76.660,-358.887
1688306091.752,-6.836,-44.434,-20.996,-56.152,-307.617
1688306091.756,17.090,-27.832,-8.789,-17.578,-214.844
1688306091.760,-46.875,-36.621,-6.836,-2.930,-77.637
1688306091.764,-104.980,-51.270,-12.207,-7.812,-21.973
1688306091.768,-57.617,-52.734,-19.531,-9.277,78.613
1688306091.772,21.973,-40.527,-19.043,-4.883,-41.016
1688306091.775,29.785,-34.668,-7.324,5.859,-237.793
1688306091.779,-27.344,-41.016,-6.348,28.320,-71.289
1688306091.783,-85.938,-41.992,-14.160,25.391,144.043
1688306091.787,-53.223,-34.180,-9.277,-5.371,-58.105
1688306091.791,20.508,-40.039,-8.789,-11.230,-203.125
1688306091.793,46.387,-52.246,-16.602,-2.930,-107.910
1688306091.797,6.348,-52.246,-20.996,11.719,205.566
1688306091.801,-62.988,-48.340,-30.762,5.859,86.914
1688306091.805,-56.641,-67.871,-47.363,-13.184,-204.102
1688306091.809,7.324,-57.129,-55.664,-23.438,-227.051
1688306091.813,46.387,-26.367,-38.086,-14.160,-114.746
1688306091.817,4.883,-6.348,-28.320,-0.977,8.301
1688306091.820,-79.590,-13.184,-30.273,-16.113,-12.207
1688306091.824,-73.242,1.953,-30.273,-32.715,66.895
1688306091.828,5.859,3.418,-32.227,-41.992,241.211
1688306091.832,35.156,-25.879,-39.062,-28.809,-52.734
1688306091.836,2.930,-37.598,-29.785,-9.277,-151.855
1688306091.839,-57.617,-42.969,-19.043,1.953,74.707
1688306091.843,-52.246,-41.016,-20.996,-2.441,-5.371
1688306091.847,7.324,-35.156,-21.484,-38.574,-218.262
1688306091.851,33.691,-35.156,-25.879,-40.039,-249.023
1688306091.855,28.809,-51.758,-28.320,-0.488,-0.977
1688306091.859,-48.340,-37.109,-22.461,5.859,196.289
1688306091.863,-76.172,-12.207,-15.137,-11.230,65.430
1688306091.866,7.812,-23.926,-20.020,-7.324,-162.109
1688306091.870,36.133,-42.480,-26.367,-16.602,37.598
1688306091.874,16.113,-44.922,-17.578,-29.785,89.355
1688306091.878,-38.086,-34.180,-16.113,-10.742,-44.922
1688306091.882,-84.473,-36.621,-21.973,-20.508,-33.203
1688306091.883,-37.109,-35.156,-22.461,-36.133,-176.758
1688306091.887,36.621,-40.039,-23.438,-29.785,-239.258
1688306091.891,39.062,-31.738,-26.855,-29.297,-164.551
1688306091.895,-40.039,-29.785,-31.250,-16.113,29.297
1688306091.899,-80.566,-49.316,-29.785,-14.648,125.488
1688306091.903,-21.484,-36.133,-24.902,-23.438,-38.574
1688306091.907,24.414,-5.859,-27.832,-29.785,-148.438
1688306091.910,16.113,-23.926,-41.992,-25.391,-14.648
1688306091.914,-47.852,-41.504,-43.945,-4.883,533.691
1688306091.918,-105.469,-28.320,-38.086,-23.438,369.141
1688306091.922,-50.781,-27.344,-25.879,-44.434,-229.980
1688306091.926,19.043,-24.902,-22.461,-36.133,-267.578
1688306091.928,19.531,-28.320,-25.391,-20.020,-199.707
1688306091.932,-36.133,-28.809,-20.508,6.348,-67.383
1688306091.936,-101.074,-34.180,-26.855,-8.301,6.836
1688306091.940,-57.617,-39.551,-28.320,-38.574,-56.641
1688306091.944,21.484,-55.176,-27.832,-28.809,-208.008
1688306091.948,31.738,-47.852,-28.809,-11.230,-179.199
1688306091.952,-13.184,-36.133,-15.137,2.930,126.465
1688306091.955,-78.613,-38.574,-15.625,15.137,501.953
1688306091.959,-55.664,-44.434,-23.438,-16.113,243.652
1688306091.963,24.902,-33.691,-11.719,-32.715,-283.203
1688306091.967,44.434,-15.137,-23.926,-26.367,-245.605
1688306091.971,-6.836,-10.254,-37.598,-23.438,109.863
1688306091.973,-77.637,-14.648,-16.113,-9.766,51.758
1688306091.977,-69.824,-49.316,-3.418,-18.066,-148.926
1688306091.981,3.906,-35.645,0.977,-30.762,-183.105
1688306091.985,21.484,1.953,-20.996,-38.574,-226.562
1688306091.989,-19.043,-34.668,-56.152,-31.738,-119.629
1688306091.993,-89.844,-60.059,-55.176,-23.926,16.602
1688306091.997,-99.121,-52.246,-31.738,-38.086,125.000
1688306092.000,-2.441,-27.832,-13.672,-35.645,198.730
1688306092.004,50.781,-13.672,-17.578,-20.508,-26.367
1688306092.008,1.465,-28.809,-33.203,-24.414,-55.176
1688306092.012,-84.473,-15.137,-35.156,-28.809,207.031
1688306092.016,-100.098,-13.184,-27.832,-46.875,222.656
1688306092.018,-25.391,-17.578,-28.320,-63.965,-172.852
1688306092.022,25.391,1.953,-10.742,-41.992,-276.367
1688306092.026,3.418,-11.719,-10.254,-28.320,-64.453
1688306092.030,-81.055,-45.898,-34.668,-39.062,23.438
1688306092.034,-116.211,-41.016,-49.805,-61.035,-49.316
1688306092.038,-61.035,-27.344,-46.387,-70.312,-97.168
1688306092.042,4.883,-27.832,-35.156,-58.594,124.023
1688306092.045,13.184,-35.156,-34.180,-34.668,81.543
1688306092.049,-62.500,-56.641,-28.809,-17.090,-89.844
1688306092.053,-94.727,-45.898,-26.367,-23.438,-75.684
1688306092.057,-36.621,-19.043,-26.855,-55.176,-187.012
1688306092.061,-0.488,-26.367,-26.367,-66.406,-237.305
1688306092.064,16.113,-44.922,-26.367,-32.715,-200.684
1688306092.068,-39.551,-37.598,-33.203,-12.207,-57.617
1688306092.072,-106.445,-27.344,-40.527,-36.133,56.641
1688306092.076,-60.547,-38.086,-39.062,-50.781,-179.688
1688306092.080,4.395,-27.832,-27.344,-41.504,-344.727
1688306092.084,25.391,1.465,-13.672,-17.090,-98.145
1688306092.088,-23.438,1.465,-22.461,3.418,217.285
1688306092.091,-78.125,-26.367,-36.133,-16.113,109.863
1688306092.095,-49.805,-37.109,-25.879,-40.039,-80.078
1688306092.099,5.371,-51.758,-26.367,-35.156,-25.879
1688306092.103,25.879,-51.270,-27.832,-25.391,171.875
1688306092.107,-9.277,-41.016,-20.020,-17.090,22.949
1688306092.138,-76.172,-25.879,-35.645,-25.391,-83.496
1688306092.142,-58.594,14.160,-40.527,-49.316,-91.309
1688306092.146,-4.883,5.859,-26.855,-52.246,-146.973
1688306092.150,7.324,1.465,-22.949,-34.668,-223.145
1688306092.154,-8.301,-4.395,-19.531,-12.695,-88.867
1688306092.158,-77.148,-49.316,-28.809,-16.113,398.926
1688306092.162,-68.359,-33.691,-28.809,-26.855,246.094
1688306092.165,12.207,-4.395,-19.531,-22.461,-279.297
1688306092.169,10.254,-25.879,-35.645,-41.016,-246.094
1688306092.173,-19.043,-76.172,-33.691,-33.203,148.438
1688306092.177,-66.895,-60.547,-23.438,-19.043,124.512
1688306092.181,-84.961,-24.414,-25.879,-33.691,-140.137
1688306092.168,-7.812,0.488,-12.207,-17.578,-225.586
1688306092.172,16.113,5.859,-31.738,-41.992,-229.004
1688306092.176,-41.016,-21.484,-53.223,-70.312,-160.156
1688306092.180,-105.469,-27.344,-31.738,-52.246,29.785
1688306092.184,-114.746,-31.250,-43.945,-74.219,121.094
1688306092.188,-69.824,-22.461,-60.547,-100.586,27.832
1688306092.192,-33.691,-35.645,-43.945,-96.680,-157.227
1688306092.195,-31.250,-32.227,-45.898,-94.238,-130.371
1688306092.199,-80.566,-42.969,-40.039,-77.148,148.926
1688306092.203,-141.602,-79.102,-49.805,-129.395,114.746
1688306092.207,-125.977,-27.344,-59.570,-180.176,-226.074
1688306092.211,-69.824,16.113,-41.504,-144.531,-357.422
1688306092.213,-57.129,-17.578,-41.992,-104.492,-60.059
1688306092.217,-99.609,-32.715,-44.434,-90.820,465.820
1688306092.221,-121.094,-26.367,-40.039,-95.703,251.953
1688306092.225,-73.242,-29.297,-36.621,-85.449,-192.871
1688306092.229,-28.320,-17.578,-26.367,-71.289,-262.695
1688306092.233,-10.742,-25.879,-31.250,-56.641,-130.371
1688306092.237,-36.621,-48.340,-35.645,-39.062,62.500
1688306092.240,-70.312,-39.062,-31.250,-41.016,61.035
1688306092.244,-41.016,-25.391,-35.645,-52.246,186.035
1688306092.248,-1.465,-27.832,-24.902,-50.781,8.789
1688306092.252,21.484,-52.246,-10.254,-34.180,-239.746
1688306092.256,-4.395,-45.410,-34.180,-16.113,-7.324
1688306092.258,-58.594,-33.691,-42.480,-19.531,40.039
1688306092.262,-46.875,-45.410,-28.320,-62.012,-219.238
1688306092.266,-24.414,-21.973,-42.480,-88.867,-364.746
1688306092.270,-7.812,-11.230,-38.574,-59.082,-240.234
1688306092.274,-22.461,-7.324,-12.695,-22.461,-72.754
1688306092.278,-60.547,-10.742,-15.625,-11.230,71.777
1688306092.282,-34.180,-34.668,-16.602,-32.227,29.297
1688306092.285,-3.418,-29.297,-12.695,-56.152,-50.293
1688306092.289,-3.418,-45.410,-24.902,-41.504,261.719
1688306092.293,-32.227,-43.457,-48.340,-26.855,167.969
1688306092.297,-69.336,-15.625,-43.945,-24.902,-41.504
1688306092.301,-43.945,-35.156,-22.461,-25.391,40.039
1688306092.303,-10.742,-52.246,-17.578,-45.410,-129.395
1688306092.307,8.301,-32.715,-20.020,-34.668,-337.402
1688306092.311,4.883,-14.648,-20.020,0.977,-133.789
1688306092.315,-60.547,-26.855,-31.250,-9.277,147.461
1688306092.319,-70.801,-22.949,-31.738,-29.785,-12.695
1688306092.323,-13.184,-22.461,-13.672,-33.203,-248.047
1688306092.327,22.461,-33.691,-31.250,-28.320,-136.230
1688306092.330,-2.441,-43.945,-47.363,-24.414,296.387
1688306092.334,-65.430,-37.109,-25.391,-25.879,321.289
1688306092.338,-72.266,-25.879,-20.020,-30.273,-56.152
1688306092.342,-16.602,-22.949,-24.902,-33.203,-224.609
1688306092.346,11.230,-20.020,-24.414,-28.320,-169.434
1688306092.349,1.465,-46.387,-25.879,-12.695,-53.711
1688306092.353,-45.410,-44.922,-22.461,-2.441,-1.465
1688306092.357,-73.730,-12.207,-32.227,-28.809,54.688
1688306092.361,-29.785,-26.855,-25.391,-41.992,-23.438
1688306092.365,5.859,-46.875,-23.438,-41.016,-264.160
1688306092.369,0.977,-50.293,-35.156,-30.762,-232.422
1688306092.373,-55.664,-54.688,-43.945,-21.484,191.406
1688306092.376,-90.820,-50.781,-46.875,-37.109,406.250
1688306092.380,-45.898,-28.809,-44.922,-65.918,16.602
1688306092.384,1.953,-12.695,-36.133,-50.293,-272.949
1688306092.388,4.395,-20.020,-21.484,-16.113,-88.867
1688306092.392,-45.898,-21.484,-17.090,-17.578,93.262
1688306092.393,-80.078,-29.785,-18.066,-30.273,-81.543
1688306092.397,-39.551,-49.805,-21.973,-51.270,-239.258
1688306092.401,1.953,-42.969,-23.438,-57.129,-94.238
1688306092.405,9.277,-39.551,-22.949,-30.273,-88.867
1688306092.409,-27.832,-66.406,-32.715,-2.930,-83.496
1688306092.413,-78.125,-72.266,-32.227,-1.465,69.824
1688306092.417,-57.129,-59.082,-25.879,-20.508,297.852
1688306092.420,-11.719,-35.645,-30.273,-40.527,193.359
1688306092.424,12.695,-5.859,-29.297,-31.738,-221.191
1688306092.428,-17.578,9.766,-33.203,-13.672,-108.398
1688306092.432,-84.473,11.230,-26.367,-28.320,43.457
1688306092.436,-68.359,-30.273,-15.625,-50.293,-151.367
1688306092.438,-10.742,-53.223,-17.090,-51.270,-322.266
1688306092.442,-4.395,-29.297,-20.020,-41.016,-240.723
1688306092.446,-29.297,-35.156,-24.902,-33.203,-64.453
1688306092.450,-72.266,-42.969,-26.367,-20.020,-11.719
1688306092.454,-62.012,-61.523,-19.531,-21.484,-56.641
1688306092.458,-3.906,-61.523,-32.715,-22.949,-39.551
1688306092.462,8.301,-51.270,-37.598,-25.391,0.488
1688306092.465,-1.465,-7.812,-14.648,-15.137,50.781
1688306092.469,-53.711,23.438,-15.625,-15.625,114.746
1688306092.473,-93.750,-7.812,-30.273,-53.223,150.391
1688306092.477,-46.387,-20.020,-32.227,-62.012,258.789
1688306092.481,-13.184,-27.832,-32.227,-48.340,-94.238
1688306092.498,-7.812,-32.715,-14.160,-11.719,-170.410
1688306092.502,-42.969,-23.926,-1.465,3.906,87.891
1688306092.506,-66.406,-37.598,-15.625,-21.484,-40.527
1688306092.510,-24.414,-43.945,-24.902,-34.668,-297.363
1688306092.514,15.625,-34.180,-28.320,-23.926,-295.410
1688306092.518,9.766,-40.039,-34.180,-2.441,-8.789
1688306092.522,-53.711,-13.672,-29.297,0.000,177.246
1688306092.525,-79.590,0.488,-30.762,-29.297,60.547
1688306092.529,-36.133,4.395,-37.109,-55.176,-187.500
1688306092.533,-4.883,8.789,-33.691,-53.711,1.465
1688306092.537,11.719,3.906,-29.785,-33.203,75.195
1688306092.541,-10.254,0.977,-9.277,-0.488,-46.387
1688306092.543,-50.781,-22.461,-6.348,-17.578,-27.832
1688306092.547,-37.109,-45.898,-17.090,-58.105,-162.598
1688306092.551,-13.184,-55.176,-37.109,-57.129,-268.066
1688306092.555,-16.113,-43.457,-65.430,-48.828,-244.141
1688306092.559,-46.875,-49.316,-59.082,-28.809,-0.488
1688306092.563,-75.195,-60.547,-31.250,-14.160,232.910
1688306092.567,-56.641,-49.805,-25.391,-44.922,41.016
1688306092.570,-13.672,0.488,-19.531,-57.129,-223.633
1688306092.574,13.672,23.438,-9.277,-20.508,-22.949
1688306092.578,-27.832,9.766,-18.066,-2.930,579.590
1688306092.582,-67.871,18.555,-17.578,-20.020,431.641
1688306092.586,-41.016,-9.277,-17.090,-48.828,-148.438
1688306092.588,-17.578,-46.875,-34.668,-61.523,-211.426
1688306092.592,-4.883,-42.480,-43.457,-42.480,-219.727
1688306092.596,-29.297,-31.250,-44.434,-27.344,-115.723
1688306092.600,-68.848,-40.039,-46.387,-30.273,46.387
1688306092.604,-47.852,-53.223,-44.922,-47.852,-77.148
1688306092.608,-25.391,-36.133,-32.227,-51.270,-230.469
1688306092.612,-14.648,-49.316,-19.531,-40.039,-212.402
1688306092.615,-26.367,-62.012,-29.785,-31.738,-41.504
1688306092.619,-61.035,-53.223,-23.438,-14.160,352.539
1688306092.623,-40.527,-53.711,-8.789,-19.043,159.180
1688306092.627,-20.020,-38.086,-18.555,-41.016,-292.480
1688306092.631,-15.137,-7.324,-23.438,-42.480,-338.867
1688306092.633,-24.902,-2.930,-35.156,-25.879,-114.258
1688306092.637,-44.434,-21.973,-43.945,-13.184,89.355
1688306092.641,-32.227,-19.531,-48.828,-42.480,-3.906
1688306092.645,-36.133,-17.090,-44.434,-59.570,-216.797
1688306092.649,-38.086,-46.387,-20.020,-51.270,-216.309
1688306092.653,-34.180,-33.691,-19.043,-30.762,-11.230
1688306092.657,-39.062,-32.715,-20.996,-13.184,150.391
1688306092.660,-29.785,-69.336,-19.043,-29.785,177.734
1688306092.664,-24.414,-38.086,-37.109,-51.270,320.312
1688306092.668,-17.090,-12.207,-39.062,-64.453,-58.594
1688306092.672,-18.555,-29.297,-44.922,-53.223,-270.996
1688306092.676,-37.598,-27.344,-53.711,-17.578,28.809
1688306092.678,-23.438,-4.883,-40.039,-8.301,-30.273
1688306092.682,-17.090,-26.367,-25.879,-34.180,-316.895
1688306092.686,-34.180,-47.363,-17.578,-51.758,-338.379
1688306092.690,-23.926,-21.484,-6.836,-31.250,-1.465
1688306092.694,-30.762,-8.301,-1.953,-14.648,97.168
1688306092.698,-46.875,-19.531,-22.461,-29.785,45.898
1688306092.702,-44.434,-21.973,-40.527,-55.664,-16.602
1688306092.705,-35.156,-24.902,-30.273,-57.129,49.316
1688306092.709,-23.438,-25.879,-19.531,-32.715,-28.320
1688306092.713,-22.949,-35.156,-19.043,8.301,-94.238
1688306092.717,-39.062,-44.922,-24.902,3.906,77.637
1688306092.721,-41.504,-39.062,-46.875,-48.340,18.555
1688306092.723,-39.551,-37.598,-61.035,-58.594,-284.180
1688306092.727,-19.531,-47.363,-44.922,-22.461,-328.613
1688306092.731,-30.762,-48.828,-35.156,-8.301,-62.012
1688306092.735,-57.129,-41.992,-47.363,-22.461,114.746
1688306092.739,-25.879,-24.414,-26.367,-35.645,17.578
1688306092.743,-20.996,-1.465,-8.301,-40.039,-122.070
1688306092.747,-23.926,-10.254,-10.254,-26.855,-24.414
1688306092.750,-32.715,-58.105,-11.719,-16.602,453.613
1688306092.754,-50.293,-57.617,-30.762,-20.508,375.488
1688306092.758,-35.156,-16.602,-48.828,-47.852,-59.082
1688306092.762,-28.320,-6.348,-34.180,-71.289,-134.277
1688306092.766,-22.461,-2.930,-39.062,-61.035,-99.609
1688306092.768,-27.344,-25.391,-43.457,-33.691,-122.070
1688306092.772,-38.086,-43.945,-9.277,-13.184,13.184
1688306092.776,-24.414,-28.809,2.930,-41.992,2.441
1688306092.780,-33.691,-5.371,-20.020,-78.125,-260.254
1688306092.784,-25.879,-16.113,-27.832,-59.082,-362.305
1688306092.788,-16.602,-30.762,-10.254,-32.715,-100.586
1688306092.792,-47.852,-24.414,-9.766,-14.648,373.047
1688306092.795,-37.109,-30.762,-20.508,-18.555,249.023
1688306092.799,-20.020,-33.691,-17.090,-34.668,-266.602
1688306092.803,-14.160,-33.691,-34.668,-31.738,-345.703
1688306092.807,0.977,-46.387,-34.180,-1.465,-16.113
1688306092.811,-24.902,-27.832,-25.879,12.207,72.266
1688306092.813,-32.715,-8.301,-33.691,-17.090,-68.359
1688306092.817,-24.414,-2.930,-23.438,-38.086,-159.180
1688306092.821,-28.320,-3.906,-17.090,-32.715,-138.672
1688306092.825,-18.066,-15.625,-20.020,-11.230,-104.492
1688306092.829,-47.852,-26.367,-20.996,-12.207,-14.648
1688306092.833,-59.082,-22.461,-34.180,-37.109,220.703
1688306092.837,-32.227,-5.859,-48.340,-54.688,128.418
1688306092.840,-22.461,-12.207,-31.250,-53.711,-218.750
1688306092.844,-25.879,-27.832,-19.043,-37.109,-218.262
1688306092.848,-54.199,-34.180,-34.668,-19.531,163.086
1688306092.852,-56.152,2.441,-36.133,-19.043,590.820
1688306092.856,-31.738,4.395,-37.598,-52.734,115.723
1688306092.873,-33.691,-32.227,-51.758,-71.289,-394.043
1688306092.877,-30.273,-35.156,-47.852,-50.293,-240.234
1688306092.881,-40.039,-6.348,-36.621,-20.996,-37.109
1688306092.885,-39.551,4.395,-18.555,-11.719,-18.066
1688306092.889,-22.949,-33.203,-21.973,-32.227,-136.230
1688306092.893,-7.812,-45.410,-33.203,-23.438,-83.984
1688306092.897,-12.695,-16.602,-39.551,-10.742,-5.371
1688306092.900,-43.945,-0.977,-51.758,-7.812,0.977
1688306092.904,-48.828,-22.461,-37.598,-8.301,48.828
1688306092.908,-20.508,-41.992,-15.137,-23.926,158.691
1688306092.912,-4.395,-8.301,-20.020,-39.062,-146.484
1688306092.916,-7.324,-19.043,-26.367,-25.391,-366.211
1688306092.918,-23.926,-61.523,-10.742,1.953,-25.879
1688306092.922,-52.246,-45.898,-21.484,-16.602,183.105
1688306092.926,-40.039,-20.996,-31.738,-40.527,-83.008
1688306092.930,-19.531,-22.461,-19.043,-46.387,-301.758
1688306092.934,-28.320,-29.297,-34.180,-45.898,-177.734
1688306092.938,-42.969,-23.926,-42.969,-27.344,59.570
1688306092.942,-53.223,-24.414,-35.645,-22.461,137.695
1688306092.945,-26.855,-33.203,-39.551,-38.574,-12.207
1688306092.949,-14.160,-30.273,-46.387,-51.270,-68.848
1688306092.953,-19.531,-38.086,-42.969,-39.062,212.402
1688306092.957,-28.809,-61.523,-32.227,-12.695,138.184
1688306092.961,-57.617,-49.316,-30.273,-14.160,0.000
1688306092.963,-49.805,-53.223,-20.508,-36.133,8.789
1688306092.967,-32.227,-74.707,-12.695,-52.734,-240.723
1688306092.971,-25.391,-39.551,-14.160,-53.711,-354.004
1688306092.975,-30.273,-19.531,-24.414,-37.109,-108.887
1688306092.979,-62.012,-31.250,-36.621,-33.203,228.027
1688306092.983,-63.965,-14.648,-44.434,-60.059,132.812
1688306092.987,-46.387,-19.043,-50.781,-79.590,-131.348
1688306092.990,-32.715,-23.438,-49.316,-53.711,-242.188
1688306092.994,-13.184,-43.945,-27.344,-10.254,77.148
1688306092.998,-26.855,-74.707,-14.648,2.441,229.980
1688306093.002,-34.180,-43.457,-21.973,-14.648,17.090
1688306093.006,-18.066,-31.738,-25.391,-33.691,-146.973
1688306093.008,-20.508,-42.969,-23.438,-47.363,-260.742
1688306093.012,-33.203,-18.066,-16.602,-39.062,-219.238
1688306093.016,-57.617,-12.207,-23.438,-23.438,-23.438
1688306093.020,-49.805,-18.066,-17.578,-19.043,48.828
1688306093.024,-25.879,-33.691,-23.438,-42.480,-117.188
1688306093.028,-22.949,-24.902,-20.508,-39.062,-180.664
1688306093.032,-22.461,-8.789,-27.344,-19.531,-86.914
1688306093.035,-43.945,-7.324,-45.410,-14.648,195.801
1688306093.039,-44.922,-15.137,-27.344,-14.160,654.297
1688306093.043,-23.926,-52.734,-19.531,-34.180,305.664
1688306093.047,-25.391,-35.645,-25.391,-52.246,-314.941
1688306093.051,-29.785,-11.719,-26.855,-40.039,-268.555
1688306093.053,-52.734,-22.461,-24.902,-26.367,-59.082
1688306093.057,-44.922,-24.902,-9.766,-17.090,-20.996
1688306093.061,-5.859,-22.949,-14.160,-26.855,-158.203
1688306093.065,-8.301,-30.762,-32.715,-44.434,-231.445
1688306093.069,-15.137,-36.133,-33.203,-28.320,-226.074
1688306093.073,-17.090,-20.508,-18.066,11.230,12.207
1688306093.077,-34.668,-23.926,-30.762,2.930,194.824
1688306093.080,-20.508,-34.668,-40.039,-26.367,234.863
1688306093.084,-10.254,-45.410,-30.762,-33.203,5.371
1688306093.088,-19.531,-15.137,-24.902,-26.855,-305.664
1688306093.092,-31.250,-21.484,-23.438,-16.113,-48.828
1688306093.096,-47.852,-35.645,-26.367,-24.414,242.676
1688306093.098,-39.062,-23.438,-38.574,-54.199,-5.371
1688306093.102,-12.207,-20.020,-26.855,-64.941,-292.969
1688306093.106,-3.418,-25.391,-5.859,-40.039,-229.980
1688306093.110,-20.020,-38.086,-10.254,-12.207,-35.156
1688306093.114,-42.969,-44.434,-28.809,-20.020,59.082
1688306093.118,-24.902,-42.969,-27.344,-39.551,-33.203
1688306093.122,-18.555,-36.133,-41.992,-56.641,-27.344
1688306093.125,-13.672,-10.742,-31.250,-49.316,156.738
1688306093.129,-35.645,-9.277,-14.160,-40.039,41.504
1688306093.133,-80.566,-32.715,-36.621,-39.551,0.488
1688306093.137,-68.359,-30.762,-50.781,-50.293,111.328
1688306093.141,-47.363,-46.387,-40.527,-62.012,-83.984
1688306093.143,-35.156,-76.172,-20.996,-45.410,-325.195
1688306093.147,-30.273,-43.945,-23.926,-26.367,-265.625
1688306093.151,-49.805,-41.992,-23.926,-5.371,177.246
1688306093.155,-46.875,-68.359,-23.438,-16.602,264.160
1688306093.159,-24.902,-50.781,-22.461,-52.734,-248.535
1688306093.163,-20.996,-20.020,-14.648,-46.387,-214.844
1688306093.167,-26.367,-3.906,-22.949,-20.996,242.188
1688306093.170,-50.781,-2.930,-21.484,-8.789,276.855
1688306093.174,-46.875,-5.371,-31.738,-15.137,10.742
1688306093.178,-15.137,-15.625,-12.207,-25.391,-178.711
1688306093.182,-1.465,-36.133,-3.906,-22.949,-264.160
1688306093.186,-1.465,-46.387,-29.297,-19.531,-182.129
1688306093.189,-38.574,-54.688,-27.832,-9.766,-23.438
1688306093.193,-62.500,-78.125,-17.578,-26.855,158.203
1688306093.197,-48.828,-66.895,-19.043,-65.918,153.320
1688306093.201,-36.133,-29.785,-21.484,-66.406,-216.797
1688306093.205,-28.320,-17.090,-17.578,-32.227,-298.828
1688306093.209,-38.574,-14.160,-20.020,-7.812,126.953
1688306093.213,-41.992,-2.930,-31.738,-19.531,344.727
1688306093.216,-17.090,-16.602,-31.250,-40.039,-5.859
1688306093.220,0.000,-26.855,-21.973,-33.691,-306.641
1688306093.224,-10.742,-28.809,-29.297,-13.672,-166.992
1688306093.228,-41.992,-55.176,-38.086,-8.301,244.141
1688306093.232,-51.758,-50.781,-32.715,-16.113,84.961
1688306093.248,-41.016,-41.016,-33.203,-45.898,-122.559
1688306093.252,-35.645,-39.062,-27.344,-64.941,-176.270
1688306093.256,-20.996,-52.246,-23.926,-44.434,-242.676
1688306093.260,-35.645,-48.828,-40.527,-15.625,-59.082
1688306093.264,-40.039,-28.320,-32.227,-10.254,182.129
1688306093.268,-10.254,-31.250,2.930,-23.926,377.930
1688306093.272,10.742,-36.133,3.418,-16.602,106.445
1688306093.275,0.977,-22.949,-20.508,-9.766,-293.457
1688306093.279,-21.973,-12.695,-18.066,-0.977,-128.906
1688306093.283,-52.246,-22.949,-35.156,-17.090,157.715
1688306093.287,-51.270,-44.434,-49.316,-60.547,-35.156
1688306093.291,-25.391,-36.133,-41.992,-66.895,-325.195
1688306093.293,-12.695,-14.648,-29.297,-43.457,-309.570
1688306093.297,-31.250,-29.785,-27.832,-25.879,-104.492
1688306093.301,-51.270,-50.293,-27.344,-21.973,43.945
1688306093.305,-18.555,-47.363,-6.348,-15.137,-21.484
1688306093.309,5.371,-26.855,-4.395,-34.668,-142.090
1688306093.313,-5.859,-32.715,-17.090,-56.641,-130.371
1688306093.317,-27.832,-44.434,-30.762,-38.574,-41.992
1688306093.320,-50.293,-37.598,-51.270,-17.578,107.910
1688306093.324,-41.016,-23.926,-42.480,-36.621,191.406
1688306093.328,-37.598,-15.137,-26.367,-56.641,315.430
1688306093.332,-38.086,-10.254,-22.461,-46.387,47.363
1688306093.336,-33.691,-14.160,-13.672,-18.066,-224.609
1688306093.338,-42.969,-32.227,-25.879,-2.930,-35.156
1688306093.342,-35.645,-41.504,-37.598,-27.832,-45.898
1688306093.346,-12.207,-29.785,-19.043,-30.762,-263.672
1688306093.350,-4.883,-19.531,-7.324,-20.020,-309.570
1688306093.354,-20.020,-23.438,-20.996,-32.227,-90.332
1688306093.358,-44.434,-27.832,-26.855,-22.461,131.836
1688306093.362,-48.828,-22.949,-33.691,-36.621,157.715
1688306093.365,-30.762,-42.969,-45.898,-58.594,-133.789
1688306093.369,-22.461,-89.844,-42.969,-42.969,92.773
1688306093.373,-22.461,-71.777,-26.855,-26.367,199.707
1688306093.377,-23.926,9.277,-22.949,1.465,-86.426
1688306093.381,-32.715,29.297,-20.508,3.906,-58.105
1688306093.398,-15.625,2.930,-7.812,-24.902,-126.465
1688306093.402,-12.695,-26.855,-29.297,-45.898,-284.180
1688306093.406,-6.348,-39.062,-38.574,-35.645,-286.621
1688306093.410,-24.414,-30.762,-25.879,-12.695,-28.809
1688306093.414,-65.430,-38.574,-28.809,-29.297,139.648
1688306093.418,-36.621,-39.551,-36.621,-49.805,-2.930
1688306093.422,-6.348,-22.461,-30.273,-46.387,-204.590
1688306093.425,-8.789,-7.324,-23.438,-30.273,-80.566
1688306093.429,-33.691,8.301,-37.598,-2.441,541.016
1688306093.433,-59.570,2.441,-43.945,-4.395,333.496
1688306093.437,-45.898,-9.766,-41.504,-39.551,-163.086
1688306093.441,-32.227,-31.738,-18.555,-51.758,-166.992
1688306093.428,-24.414,-38.086,-3.906,-46.387,-223.633
1688306093.432,-32.227,-41.504,-9.766,-25.391,-136.719
1688306093.436,-51.758,-44.922,-20.508,-18.066,40.527
1688306093.440,-46.387,-46.875,-42.480,-53.711,35.156
1688306093.444,-28.809,-23.926,-50.293,-71.777,-198.242
1688306093.448,-18.066,-33.203,-36.133,-49.805,-286.133
1688306093.452,-40.039,-33.203,-31.738,-35.645,47.852
1688306093.455,-50.781,14.160,-34.668,-24.902,311.523
1688306093.459,-20.508,36.621,-24.902,-27.344,65.430
1688306093.463,-28.320,26.367,-38.574,-54.199,-251.465
1688306093.467,-22.949,-8.301,-40.039,-47.363,-242.676
1688306093.471,-6.836,-48.340,-14.160,-13.672,208.984
1688306093.474,-42.480,-29.785,-11.230,-5.371,287.109
1688306093.478,-50.293,-11.719,-28.809,-32.227,-4.395
1688306093.482,-18.555,-18.555,-39.062,-50.781,-150.879
1688306093.486,-20.508,-26.367,-37.598,-50.293,-205.566
1688306093.490,-40.039,-31.250,-40.039,-35.645,-189.941
1688306093.494,-61.035,-34.668,-36.133,-20.020,24.902
1688306093.498,-58.105,-44.434,-34.668,-30.762,259.766
1688306093.501,-36.621,-41.992,-28.809,-48.340,265.137
1688306093.505,-26.855,-2.441,-22.461,-41.016,-69.824
1688306093.509,-16.602,9.277,-28.809,-16.602,-239.258
1688306093.513,-41.992,-23.438,-33.691,-4.395,76.660
1688306093.517,-45.898,-41.992,-29.785,-13.184,166.992
1688306093.519,-10.254,-27.832,-15.137,-33.203,-186.523
1688306093.523,-10.254,-13.672,-27.832,-46.387,-332.520
1688306093.527,-17.090,-23.438,-45.410,-30.273,-201.660
1688306093.531,-27.344,-42.969,-31.250,-8.301,20.996
1688306093.535,-30.273,-22.461,-15.137,-11.719,177.734
1688306093.539,-15.625,-21.484,-7.812,-37.109,20.996
1688306093.543,-15.625,-17.578,-4.883,-40.527,59.082
1688306093.546,-2.441,-3.418,-10.742,-16.113,136.230
1688306093.550,-12.207,-7.812,-17.090,1.465,-81.055
1688306093.554,-34.180,-13.184,-17.090,-1.465,-45.410
1688306093.558,-18.066,-19.043,-20.508,-33.203,-115.723
1688306093.562,-17.578,-2.441,-35.645,-53.711,-314.453
1688306093.563,-24.902,-7.812,-36.133,-38.086,-271.973
1688306093.567,-24.902,-17.578,-16.602,-4.395,-63.477
1688306093.571,-45.410,-25.879,-31.738,-7.812,76.660
1688306093.575,-31.738,-49.805,-31.738,-36.133,-87.402
1688306093.579,-0.977,-29.785,-4.395,-39.551,-342.773
1688306093.583,7.812,-21.484,2.441,-18.555,-104.492
1688306093.587,-17.578,-29.297,-5.371,3.418,304.199
1688306093.590,-51.270,-24.414,-14.160,-14.160,216.797
1688306093.594,-34.180,-13.672,-30.273,-43.945,-12.207
1688306093.598,-24.902,-15.137,-34.668,-47.852,-52.246
1688306093.602,-22.461,-8.789,-20.508,-27.344,173.828
1688306093.606,-19.531,0.000,-13.184,-1.465,65.918
1688306093.623,-31.738,-15.625,-22.461,8.789,-33.203
1688306093.627,-27.832,-25.391,-32.227,-16.113,-9.277
1688306093.631,-36.621,-19.043,-33.203,-43.457,-204.102
1688306093.635,-33.203,-13.184,-30.273,-37.598,-354.492
1688306093.639,-34.668,-17.090,-28.809,-13.672,-154.297
1688306093.643,-59.082,-37.598,-22.461,-10.254,238.770
1688306093.647,-55.176,-80.566,-18.066,-41.504,151.855
1688306093.650,-42.480,-64.453,-26.367,-65.918,-169.922
1688306093.654,-41.504,-38.574,-33.203,-57.617,-258.301
1688306093.658,-26.855,-30.273,-18.555,-24.414,230.957
1688306093.662,-47.363,-3.418,-29.785,-11.230,317.871
1688306093.666,-54.688,5.371,-37.598,-25.879,-73.730
1688306093.668,-32.227,-20.020,-40.527,-52.246,-242.676
1688306093.672,-16.602,-17.578,-57.617,-52.246,-262.695
1688306093.676,-13.184,-17.578,-39.062,-25.391,-213.867
1688306093.680,-70.312,-64.453,-23.926,-24.414,-41.016
1688306093.684,-79.102,-72.266,-17.578,-33.203,42.969
1688306093.688,-41.992,-41.016,-15.137,-32.715,-13.672
1688306093.692,-36.621,-32.227,-26.367,-40.039,-128.418
1688306093.695,-32.715,-37.598,-32.715,-30.762,-140.625
1688306093.699,-50.293,-43.945,-29.785,-9.766,222.656
1688306093.703,-46.387,-48.340,-19.043,-10.742,576.172
1688306093.707,-9.277,-30.762,-19.531,-24.902,89.844
1688306093.711,1.953,-48.340,-30.762,-27.832,-349.609
1688306093.713,6.836,-50.293,-30.273,-5.859,-160.645
1688306093.717,-11.230,-32.227,-17.578,26.367,-11.719
1688306093.721,-40.039,-37.598,-24.414,10.742,-30.762
1688306093.725,-28.320,-66.406,-39.551,-37.598,-162.109
1688306093.729,-7.812,-47.363,-44.434,-42.969,-225.586
1688306093.733,6.348,-5.371,-32.715,-17.578,-71.289
1688306093.737,-31.250,-2.930,-41.504,-25.879,71.777
1688306093.740,-55.176,7.324,-38.574,-28.809,63.965
1688306093.744,-24.902,-31.250,-39.062,-34.180,172.363
1688306093.748,-13.184,-56.641,-35.645,-51.270,-87.891
1688306093.752,-18.066,-23.926,-19.531,-35.156,-325.195
1688306093.756,-39.551,-17.578,-24.414,-12.207,-82.520
1688306093.759,-52.246,-63.477,-20.996,-5.859,42.969
1688306093.763,-30.273,-67.383,-8.789,-18.555,-51.270
1688306093.767,-20.020,-26.855,-10.254,-22.461,-179.199
1688306093.771,-14.648,-10.742,-23.438,-11.230,-237.793
1688306093.775,-25.879,-26.367,-21.973,2.930,-15.137
1688306093.779,-42.480,-17.578,-12.695,2.441,175.781
1688306093.783,-23.926,-20.020,-21.484,-28.809,-12.695
1688306093.786,-12.207,-23.438,-32.227,-39.062,-116.699
1688306093.790,-25.391,-35.156,-31.738,-50.293,269.531
1688306093.794,-38.574,-6.836,-28.320,-37.598,134.766
1688306093.798,-49.316,12.207,-5.859,-17.090,-94.727
1688306093.802,-41.992,-22.461,-15.625,-39.062,-0.977
1688306093.803,-42.480,-46.875,-26.367,-62.012,-200.195
1688306093.807,-40.527,-40.527,-14.648,-54.199,-384.766
1688306093.811,-29.785,-46.387,-18.555,-24.902,-193.848
1688306093.815,-51.758,-58.105,-24.414,-9.766,130.859
1688306093.819,-40.039,-33.203,-17.090,-17.578,93.262
1688306093.823,-14.160,-23.438,-10.254,-37.109,-144.043
1688306093.827,-14.160,-36.621,-23.926,-51.270,-230.957
1688306093.830,-6.348,-32.227,-30.273,-12.207,160.645
1688306093.834,-26.367,-22.949,-14.648,19.531,418.945
1688306093.838,-39.551,-38.086,-15.625,-6.836,62.012
1688306093.842,-30.762,-37.109,-39.551,-34.180,-178.223
1688306093.846,-28.320,-28.809,-42.969,-35.156,-271.484
1688306093.848,-23.438,-15.137,-17.090,-14.160,-271.484
1688306093.852,-36.133,-1.953,-0.488,0.488,-75.684
1688306093.856,-30.762,-17.090,0.488,-6.348,37.109
1688306093.860,-1.953,-6.348,-0.977,-24.414,-97.656
1688306093.864,8.789,3.906,-15.625,-32.227,-227.051
1688306093.868,10.254,-14.160,-39.062,-19.043,-158.691
1688306093.872,-9.277,-43.457,-28.809,3.418,221.680
1688306093.875,-36.133,-27.344,-12.695,-3.906,634.277
1688306093.879,-20.996,20.508,-5.859,-31.738,219.238
1688306093.883,-21.973,4.395,-24.902,-54.199,-334.961
1688306093.887,-24.414,-15.137,-44.434,-43.945,-174.316
1688306093.891,-37.598,-10.742,-38.086,-19.043,173.340
1688306093.893,-55.664,-33.691,-38.086,-20.020,35.156
1688306093.897,-29.297,-60.059,-30.762,-48.828,-179.199
1688306093.901,-12.695,-39.062,-10.742,-52.246,-250.000
1688306093.905,-4.883,-25.879,-15.625,-38.086,-278.320
1688306093.909,-28.809,-37.109,-33.203,-28.320,-148.438
1688306093.913,-52.246,-49.805,-50.781,-25.879,121.094
1688306093.917,-23.438,-52.734,-46.875,-40.527,323.242
1688306093.920,-20.996,-31.738,-25.391,-63.477,-16.602
1688306093.924,-14.648,-19.043,-14.160,-43.945,-390.625
1688306093.928,-17.578,-28.320,-31.250,-15.137,-69.824
1688306093.932,-55.664,-25.879,-33.203,-11.719,333.008
1688306093.936,-33.203,-6.348,-21.973,-20.996,25.391
1688306093.938,-20.508,-18.555,-25.879,-50.293,-303.711
1688306093.942,-38.574,-50.781,-28.809,-71.289,-248.535
1688306093.946,-52.734,-50.293,-28.320,-55.664,-50.781
1688306093.950,-58.105,-30.273,-24.902,-26.367,93.262
1688306093.954,-37.109,-26.367,-38.574,-33.203,-1.465
1688306093.958,-23.926,-46.387,-38.086,-58.105,-12.695
1688306093.962,-11.230,-30.762,-12.207,-43.457,22.461
1688306093.965,-5.371,-21.484,-21.484,-12.695,-51.270
1688306093.969,-38.086,-31.250,-28.809,-6.836,83.984
1688306093.973,-42.969,-21.973,-19.531,-16.113,219.727
1688306093.977,-25.879,-39.062,-25.879,-41.016,219.238
1688306093.981,-17.578,-37.598,-25.879,-41.504,-198.730
1688306094.029,-32.715,-13.672,-33.203,-36.133,-266.113
1688306094.033,-56.152,-29.297,-38.574,-24.902,85.449
1688306094.037,-40.527,-39.551,-31.250,-15.137,40.527
1688306094.041,-38.086,-19.531,-34.180,-45.898,-282.227
1688306094.045,-38.574,-11.719,-33.203,-57.129,-348.145
1688306094.049,-27.344,-25.391,-17.578,-32.227,-33.691
1688306094.053,-41.992,-28.320,-11.719,-15.625,184.082
1688306094.056,-43.457,-23.438,-20.508,-16.602,25.879
1688306094.060,-20.996,-43.457,-18.555,-32.715,-111.328
1688306094.064,-21.973,-32.227,-18.066,-39.062,72.266
1688306094.068,-27.832,-9.277,-29.297,-26.855,-50.781
1688306094.072,-46.875,-23.438,-29.297,-19.531,-73.242
1688306094.035,-56.152,-43.945,-22.461,-29.297,39.551
1688306094.039,-11.230,-29.785,-16.113,-37.598,-134.277
1688306094.043,8.301,-2.441,-22.949,-32.227,-251.465
1688306094.047,-3.906,2.441,-23.438,-26.367,-270.020
1688306094.051,-11.230,-32.227,-1.953,-1.465,-36.133
1688306094.055,-24.414,-54.199,-7.324,-4.395,257.812
1688306094.059,-13.672,-21.484,-24.414,-36.133,46.875
1688306094.062,-9.277,-11.719,-24.414,-46.387,-267.090
1688306094.066,-9.766,-36.621,-34.180,-30.273,-151.367
1688306094.070,-4.883,-13.184,-14.648,1.953,83.496
1688306094.074,-11.230,3.906,6.348,11.719,92.773
1688306094.078,-3.418,-10.254,-8.789,-13.672,-93.262
1688306094.088,3.906,-21.973,-23.438,-35.645,-164.551
1688306094.092,14.648,-15.625,-18.066,-28.809,-206.543
1688306094.096,1.465,-24.414,-9.277,-4.883,-129.395
1688306094.100,-23.438,-38.574,0.488,10.254,42.969
1688306094.104,-21.484,-52.734,-17.090,-10.742,220.703
1688306094.108,-25.391,-30.273,-40.039,-29.297,400.879
1688306094.112,-20.996,-12.695,-31.250,-29.297,145.996
1688306094.115,-32.227,-40.039,-19.043,-12.695,0.488
1688306094.119,-57.617,-19.531,-25.391,2.930,302.734
1688306094.123,-35.156,3.906,-28.809,-12.207,79.590
1688306094.127,-17.578,-14.648,-10.254,-22.949,-363.770
1688306094.131,-9.277,-23.438,1.953,-12.695,-389.160
1688306094.133,-17.090,-24.414,-30.273,-6.348,-168.945
1688306094.137,-49.805,-28.320,-47.363,-5.371,9.766
1688306094.141,-41.016,-38.086,-20.020,-19.531,-90.332
1688306094.145,-27.832,-51.758,-10.742,-40.527,-253.906
1688306094.149,-34.180,-37.109,-18.066,-44.434,-293.945
1688306094.153,-28.809,-28.809,-33.691,-31.738,-109.375
1688306094.157,-42.969,-48.340,-32.715,-12.695,109.863
1688306094.160,-44.922,-25.879,-27.832,-24.902,145.508
1688306094.164,-30.762,0.977,-24.902,-51.270,359.863
1688306094.168,-3.418,10.742,-6.348,-38.086,173.828
1688306094.172,6.348,-3.418,-8.789,-23.926,-206.543
1688306094.176,-32.715,-30.273,-20.508,-8.789,20.020
1688306094.178,-44.922,-27.832,-37.109,-18.066,64.453
1688306094.182,-34.180,-23.926,-43.945,-57.129,-229.004
1688306094.186,-23.438,-9.277,-18.066,-49.316,-371.582
1688306094.190,-11.719,-17.090,-5.859,-17.578,-211.914
1688306094.194,-45.898,-43.457,-14.160,-19.531,-0.977
1688306094.198,-46.875,-32.715,-6.836,-21.973,76.172
1688306094.202,-16.602,-38.574,-10.254,-36.133,0.977
1688306094.205,-17.090,-67.871,-30.762,-52.734,11.719
1688306094.209,-13.184,-42.480,-28.320,-32.227,-57.617
1688306094.213,-26.367,-19.531,-10.254,6.836,-45.410
1688306094.217,-39.062,-20.508,-13.672,-2.441,114.746
1688306094.221,-14.160,0.488,-29.297,-40.039,43.457
1688306094.223,-10.742,4.395,-32.227,-52.734,-250.000
1688306094.227,-24.902,-24.902,-41.992,-50.781,-338.867
1688306094.231,-35.645,-21.973,-42.480,-26.855,-77.637
1688306094.235,-43.457,-27.832,-26.367,-14.648,83.008
1688306094.239,-16.602,-38.086,-12.207,-31.738,-67.871
1688306094.243,-31.250,-32.227,-32.715,-61.035,-259.277
1688306094.247,-44.434,-33.203,-32.715,-59.082,-89.844
1688306094.250,-46.387,-39.062,-13.672,-17.578,316.406
1688306094.254,-58.105,-41.504,-21.484,-18.555,247.559
1688306094.258,-21.973,-33.691,-27.344,-41.504,-74.707
1688306094.262,-9.766,-42.480,-28.809,-49.805,-186.523
1688306094.266,-16.113,-53.711,-29.297,-41.992,-138.672
1688306094.269,-15.625,-41.992,-21.484,-13.672,-40.039
1688306094.273,-43.945,-17.090,-23.926,-7.812,95.215
1688306094.277,-33.203,-11.230,-39.551,-27.344,151.855
1688306094.281,-21.484,-21.484,-47.852,-51.270,-97.656
1688306094.285,-16.602,-9.766,-37.598,-38.086,-330.078
1688306094.289,-10.742,-0.488,-39.551,-8.301,-99.609
1688306094.293,-49.316,-27.344,-49.316,-7.324,383.301
1688306094.296,-36.133,-33.691,-20.020,-19.531,267.090
1688306094.300,-14.648,-35.645,-13.184,-43.945,-254.395
1688306094.304,-17.090,-27.832,-30.273,-54.688,-347.656
1688306094.308,-14.648,-22.949,-31.738,-31.250,-133.789
1688306094.312,-41.016,-51.270,-30.762,-15.625,44.922
1688306094.313,-31.738,-24.902,-21.973,-25.879,5.859
1688306094.317,-8.789,11.230,-2.930,-42.480,-190.918
1688306094.321,-26.855,-17.090,-20.996,-57.617,-218.262
1688306094.325,-34.668,-37.109,-45.410,-39.551,-53.223
1688306094.329,-39.551,-17.090,-43.945,-10.254,27.832
1688306094.333,-50.781,-29.297,-42.480,-26.367,204.102
1688306094.337,-45.410,-45.898,-39.551,-59.082,372.070
1688306094.340,-23.926,-19.043,-30.273,-55.664,-82.520
1688306094.344,-7.812,-4.883,-35.645,-23.438,-212.402
1688306094.348,-32.227,-14.160,-33.691,-2.441,167.969
1688306094.352,-50.293,-22.461,-24.414,-21.484,309.570
1688306094.356,-27.832,-20.996,-22.461,-41.016,-106.445
1688306094.373,-12.695,-25.391,-23.926,-45.898,-368.164
1688306094.377,-13.672,-49.805,-28.320,-34.180,-212.891
1688306094.381,-37.598,-47.852,-30.762,-10.254,13.672
1688306094.385,-59.082,-33.203,-35.645,-21.973,105.469
1688306094.389,-38.086,-15.137,-31.250,-45.898,-97.168
1688306094.393,-20.996,-8.301,-26.855,-48.828,-166.504
1688306094.397,-25.879,-20.996,-45.410,-41.992,-76.172
1688306094.400,-36.133,-33.203,-35.156,-13.184,28.809
1688306094.404,-42.969,-56.641,-15.625,2.441,104.980
1688306094.408,-15.625,-51.758,-17.090,-19.531,216.797
1688306094.412,-19.531,-31.738,-24.414,-41.016,6.348
1688306094.416,-44.434,-33.203,-20.996,-49.805,-295.410
1688306094.419,-56.152,-31.738,-27.832,-33.691,-79.102
1688306094.423,-72.754,-45.898,-37.109,-29.785,81.543
1688306094.427,-33.691,-59.570,-24.902,-41.504,-94.727
1688306094.431,-5.371,-46.387,-27.832,-50.293,-314.941
1688306094.435,-20.996,-23.438,-44.922,-49.316,-307.617
1688306094.439,-39.062,-25.391,-41.504,-27.344,4.395
1688306094.443,-52.734,-40.527,-28.809,-7.812,181.641
1688306094.446,-41.992,-40.527,-31.738,-27.832,-26.367
1688306094.450,-33.203,-43.945,-23.438,-55.176,-125.488
1688306094.454,-36.133,-52.246,-23.438,-55.176,317.871
1688306094.458,-25.879,-9.766,-22.949,-17.578,312.500
1688306094.462,-38.574,1.953,-31.738,2.441,75.684
1688306094.463,-52.734,-31.738,-34.668,-32.227,-2.930
1688306094.467,-22.461,-38.574,-10.742,-60.059,-254.395
1688306094.471,-10.742,-60.547,-34.668,-60.059,-365.723
1688306094.475,-16.113,-39.551,-42.480,-21.484,-209.473
1688306094.479,-33.203,-2.930,-21.973,11.719,66.895
1688306094.483,-46.387,-16.602,-24.902,-20.996,136.230
1688306094.487,-13.184,-28.320,-7.812,-43.457,-47.363
1688306094.490,0.000,-23.926,4.883,-24.414,-203.613
