timestamps,TP9,AF7,AF8,TP10,Right AUX
1690053160.921,-377.441,-37.598,-17.578,-560.059,-518.066
1690053160.925,-312.988,-34.668,-16.113,-487.305,-620.605
1690053160.929,111.816,-27.344,-16.113,179.199,-152.344
1690053160.933,379.883,-30.273,-18.555,627.930,341.309
1690053160.937,84.961,-38.574,-20.508,176.758,193.848
1690053160.941,-355.469,-45.898,-22.949,-528.809,-321.289
1690053160.945,-359.863,-46.387,-28.320,-551.758,-483.887
1690053160.948,42.480,-39.551,-25.391,79.102,-91.797
1690053160.952,377.441,-38.086,-22.461,607.422,471.191
1690053160.956,153.320,-40.527,-20.996,276.367,802.734
1690053160.960,-318.848,-41.504,-21.973,-469.238,189.941
1690053160.964,-379.395,-40.527,-29.297,-603.516,-601.074
1690053160.965,10.742,-32.715,-25.879,0.000,-278.320
1690053160.969,378.418,-31.738,-27.344,587.402,356.934
1690053160.973,204.102,-37.109,-34.180,341.309,323.242
1690053160.977,-273.926,-42.969,-29.785,-401.367,-292.969
1690053160.981,-399.414,-48.340,-28.320,-614.258,-641.602
1690053160.985,-65.430,-41.992,-27.832,-86.426,-330.078
1690053160.989,336.914,-40.039,-27.344,548.340,317.383
1690053160.992,248.047,-47.852,-29.785,421.875,415.527
1690053160.996,-229.492,-53.711,-27.344,-331.543,-19.531
1690053161.000,-406.250,-49.805,-28.809,-644.531,-433.594
1690053161.004,-104.492,-44.922,-33.691,-179.688,-503.906
1690053161.008,311.035,-41.504,-35.645,499.023,135.254
1690053161.010,297.363,-37.598,-32.227,497.559,515.625
1690053161.014,-173.340,-39.062,-30.273,-237.793,-84.961
1690053161.018,-421.875,-41.992,-30.762,-642.090,-685.059
1690053161.022,-166.016,-39.551,-27.832,-250.488,-512.695
1690053161.026,273.926,-31.250,-25.879,443.359,187.500
1690053161.030,311.523,-25.391,-29.785,514.160,511.230
1690053161.034,-128.418,-26.367,-31.738,-155.273,95.703
1690053161.037,-416.992,-33.691,-30.273,-619.141,-359.375
1690053161.041,-216.309,-32.227,-24.414,-323.242,8.301
1690053161.045,224.121,-22.949,-24.902,378.906,410.156
1690053161.049,355.957,-19.531,-34.180,591.797,422.852
1690053161.053,-54.688,-21.973,-32.715,-43.945,50.293
1690053161.057,-408.691,-26.855,-31.738,-614.746,-513.184
1690053161.061,-265.625,-31.738,-32.715,-408.691,-597.168
1690053161.065,183.594,-26.367,-32.227,291.504,-59.082
1690053161.069,393.555,-23.438,-30.273,619.629,519.531
1690053161.073,10.254,-31.738,-32.227,48.340,158.203
1690053161.077,-396.484,-37.109,-33.203,-596.191,-523.438
1690053161.081,-308.105,-33.203,-29.297,-484.863,-559.570
1690053161.084,123.535,-34.180,-28.320,202.637,180.176
1690053161.088,379.883,-34.668,-29.297,618.652,668.457
1690053161.092,61.523,-33.691,-28.809,132.324,115.723
1690053161.096,-373.047,-38.086,-25.391,-549.805,-502.441
1690053161.100,-349.121,-37.598,-22.949,-527.832,-569.336
1690053161.100,63.965,-32.227,-25.391,116.699,-209.473
1690053161.104,374.512,-35.156,-28.320,608.887,284.668
1690053161.108,123.047,-47.363,-25.879,227.539,217.773
1690053161.112,-332.031,-53.223,-24.414,-503.418,-343.262
1690053161.116,-362.305,-48.828,-23.926,-588.379,-586.426
1690053161.120,16.602,-44.922,-24.414,20.508,-104.980
1690053161.124,358.398,-46.387,-26.855,569.336,552.734
1690053161.127,185.059,-51.270,-23.926,306.152,846.191
1690053161.131,-284.668,-46.875,-21.484,-437.500,204.102
1690053161.135,-385.254,-43.945,-20.996,-623.047,-625.488
1690053161.139,-41.992,-44.434,-20.020,-73.242,-355.957
1690053161.143,346.680,-33.691,-14.648,545.410,361.328
1690053161.146,235.840,-32.227,-16.602,390.137,281.738
1690053161.150,-245.605,-36.621,-19.043,-364.258,-355.957
1690053161.154,-397.461,-32.715,-16.113,-630.371,-629.883
1690053161.158,-85.938,-26.855,-11.719,-131.836,-386.230
1690053161.162,326.660,-24.902,-9.277,533.691,190.918
1690053161.166,263.184,-31.250,-16.602,444.824,450.684
1690053161.170,-203.613,-34.668,-19.531,-295.410,172.363
1690053161.173,-396.484,-28.809,-19.043,-630.859,-316.406
1690053161.177,-140.625,-26.367,-23.438,-221.191,-472.656
1690053161.181,292.969,-26.367,-26.855,464.844,124.023
1690053161.185,339.844,-23.926,-20.508,542.480,687.500
1690053161.189,-131.836,-29.297,-17.578,-172.852,151.367
1690053161.191,-414.551,-31.738,-20.996,-634.766,-603.027
1690053161.195,-188.965,-20.996,-25.391,-301.270,-470.215
1690053161.199,249.023,-21.973,-34.668,398.926,168.945
1690053161.203,352.051,-29.785,-39.551,572.754,464.844
1690053161.207,-80.078,-35.156,-40.527,-94.727,-55.176
1690053161.211,-413.086,-38.086,-36.621,-623.535,-546.387
1690053161.215,-253.418,-30.273,-31.250,-375.000,-295.898
1690053161.218,184.082,-24.414,-34.668,312.500,274.414
1690053161.222,364.258,-23.926,-32.227,597.656,543.457
1690053161.226,-33.691,-30.273,-27.344,9.766,205.078
1690053161.230,-414.551,-38.574,-27.344,-598.633,44.434
1690053161.234,-299.316,-32.227,-27.344,-455.078,-244.141
1690053161.251,143.066,-32.227,-30.762,232.910,-104.980
1690053161.255,379.883,-37.598,-33.691,618.164,431.152
1690053161.259,42.969,-38.086,-34.180,102.539,168.457
1690053161.263,-371.094,-40.039,-29.785,-559.570,-486.328
1690053161.267,-318.359,-39.551,-21.484,-495.117,-609.863
1690053161.271,97.656,-33.691,-22.949,175.781,30.273
1690053161.275,383.301,-33.691,-29.785,628.906,557.617
1690053161.278,118.164,-44.434,-31.738,210.938,257.812
1690053161.282,-291.016,-48.828,-30.273,-462.891,-372.559
1690053161.286,-321.777,-40.527,-29.297,-508.789,-407.715
1690053161.290,20.020,-31.738,-36.621,71.289,-24.902
1690053161.294,341.797,-32.227,-40.039,581.543,327.148
1690053161.295,128.418,-35.645,-33.203,259.766,325.684
1690053161.299,-342.773,-43.457,-28.320,-479.492,-131.348
1690053161.303,-426.270,-50.781,-26.855,-633.789,-567.383
1690053161.307,-68.848,-50.293,-26.855,-74.707,-332.520
1690053161.311,295.410,-46.875,-33.691,507.812,382.812
1690053161.315,130.859,-53.711,-37.109,288.086,529.297
1690053161.319,-344.727,-57.617,-31.250,-473.633,-139.648
1690053161.322,-479.004,-53.223,-32.715,-718.750,-536.621
1690053161.326,-152.344,-51.270,-33.691,-196.289,-155.273
1690053161.330,255.859,-45.410,-26.367,446.777,512.695
1690053161.334,168.457,-44.434,-33.203,327.148,462.402
1690053161.338,-325.684,-55.176,-35.645,-436.523,-244.141
1690053161.341,-511.719,-59.570,-29.785,-749.512,-541.504
1690053161.345,-219.238,-53.711,-26.855,-298.340,-31.250
1690053161.349,203.613,-50.293,-31.250,372.559,335.449
1690053161.353,204.102,-45.898,-35.156,386.719,383.301
1690053161.357,-262.207,-44.434,-30.762,-336.914,58.594
1690053161.361,-501.465,-45.410,-25.391,-739.258,-347.168
1690053161.365,-266.113,-45.898,-27.344,-382.812,-311.035
1690053161.368,168.945,-49.805,-33.203,308.105,131.836
1690053161.372,270.508,-55.176,-31.250,462.891,622.070
1690053161.376,-168.945,-58.105,-31.250,-217.285,189.941
1690053161.380,-479.004,-55.176,-35.645,-725.098,-664.062
1690053161.384,-277.344,-49.805,-34.668,-427.246,-590.820
1690053161.385,172.363,-46.875,-41.016,287.109,136.230
1690053161.389,324.707,-40.527,-41.992,534.668,396.973
1690053161.393,-75.684,-41.504,-41.016,-82.031,-30.273
1690053161.397,-432.129,-47.852,-43.457,-660.156,-541.992
1690053161.401,-308.105,-44.922,-38.574,-476.562,-522.461
1690053161.405,139.648,-41.016,-39.551,229.980,95.215
1690053161.409,355.469,-43.457,-41.016,585.938,528.809
1690053161.412,-12.695,-50.781,-36.621,33.691,262.207
1690053161.416,-395.996,-48.828,-31.738,-596.680,-196.289
1690053161.420,-313.477,-44.434,-32.227,-499.023,-519.531
1690053161.424,102.539,-42.969,-38.086,168.945,-161.621
1690053161.428,377.441,-40.039,-40.527,617.188,493.164
1690053161.431,89.844,-46.875,-33.691,173.828,621.582
1690053161.435,-353.516,-51.758,-35.156,-531.738,-184.570
1690053161.439,-335.449,-48.828,-36.621,-541.016,-712.402
1690053161.443,80.078,-45.898,-30.273,107.422,-226.562
1690053161.447,391.602,-44.922,-29.297,615.234,295.898
1690053161.451,145.020,-52.246,-29.785,248.047,250.977
1690053161.455,-324.219,-57.129,-26.855,-485.840,-315.430
1690053161.458,-369.629,-62.500,-23.438,-588.867,-373.047
1690053161.462,21.973,-59.570,-20.020,22.461,204.102
1690053161.466,387.207,-51.758,-24.414,597.656,396.973
1690053161.470,212.402,-56.152,-24.902,342.773,248.535
1690053161.474,-272.949,-56.641,-20.996,-403.320,-292.480
1690053161.476,-383.789,-49.805,-21.973,-602.051,-712.891
1690053161.480,-27.832,-45.898,-21.973,-50.293,-368.652
1690053161.484,373.535,-40.527,-23.438,585.449,301.270
1690053161.488,277.344,-34.668,-20.020,438.477,464.844
1690053161.492,-209.473,-32.715,-15.137,-320.801,-137.207
1690053161.496,-389.648,-32.715,-13.184,-605.469,-613.281
1690053161.500,-86.914,-31.250,-17.578,-123.047,-228.027
1690053161.503,335.938,-24.902,-22.461,545.898,699.707
1690053161.507,308.105,-18.555,-26.855,495.117,684.570
1690053161.511,-175.781,-24.414,-28.320,-265.625,-233.887
1690053161.515,-410.645,-29.297,-24.414,-643.066,-596.191
1690053161.519,-150.879,-27.344,-28.320,-241.699,-300.781
1690053161.521,286.133,-32.227,-36.133,448.242,141.113
1690053161.525,340.332,-31.738,-32.227,541.016,373.047
1690053161.529,-105.469,-31.250,-27.344,-160.645,61.523
1690053161.533,-386.719,-34.180,-29.297,-629.395,-468.750
1690053161.537,-172.363,-28.809,-33.203,-312.500,-522.461
1690053161.541,282.227,-22.461,-35.645,398.438,118.652
1690053161.545,393.555,-20.020,-32.715,609.863,743.652
1690053161.548,-49.316,-26.855,-33.203,-44.434,336.426
1690053161.552,-395.020,-26.855,-32.715,-605.957,-596.680
1690053161.556,-241.211,-22.461,-30.273,-373.047,-632.812
1690053161.560,199.219,-17.578,-31.738,343.750,41.016
1690053161.564,387.695,-17.090,-34.180,639.648,422.852
1690053161.567,11.230,-29.785,-31.250,49.805,44.922
1690053161.571,-372.559,-35.645,-26.855,-563.965,-471.191
1690053161.575,-280.762,-31.250,-26.367,-438.965,-439.453
1690053161.579,146.973,-28.320,-28.809,234.863,-53.223
1690053161.583,388.184,-30.273,-30.273,631.348,334.961
1690053161.587,50.781,-33.203,-21.973,122.559,245.117
1690053161.591,-362.305,-34.668,-18.066,-535.645,-198.242
1690053161.594,-341.309,-38.086,-27.344,-516.113,-461.426
1690053161.598,81.055,-33.203,-36.133,131.836,-101.562
1690053161.602,405.762,-29.297,-38.086,645.508,488.770
1690053161.606,110.352,-35.156,-35.645,215.820,662.109
1690053161.610,-324.219,-37.598,-39.551,-497.070,-147.949
1690053161.625,-349.121,-32.715,-38.086,-555.664,-647.461
1690053161.629,27.832,-24.902,-40.039,42.969,-209.961
1690053161.633,400.879,-23.926,-40.039,620.605,399.902
1690053161.637,180.664,-23.926,-30.273,299.316,396.973
1690053161.641,-291.016,-20.020,-27.832,-435.059,-302.246
1690053161.645,-369.629,-22.461,-24.414,-576.172,-329.590
1690053161.649,-33.691,-23.926,-26.367,-38.574,191.895
1690053161.652,363.281,-21.973,-32.227,583.984,373.535
1690053161.656,226.074,-25.391,-33.691,376.953,275.391
1690053161.660,-254.395,-24.902,-30.762,-371.582,-134.766
1690053161.664,-385.254,-18.066,-29.297,-614.258,-562.988
1690053161.668,-73.730,-15.137,-30.762,-132.324,-395.020
1690053161.671,341.797,-19.043,-32.715,541.016,291.992
1690053161.675,283.691,-25.879,-30.273,465.820,480.957
1690053161.679,-201.660,-30.273,-28.809,-294.922,-152.832
1690053161.683,-406.738,-32.227,-27.344,-635.742,-669.922
1690053161.687,-123.047,-34.180,-19.043,-190.918,-420.410
1690053161.691,306.152,-34.668,-20.996,495.605,310.059
1690053161.695,321.777,-38.086,-24.902,539.062,610.840
1690053161.698,-138.672,-37.598,-20.508,-173.828,56.152
1690053161.702,-402.344,-37.109,-19.043,-621.582,-458.496
1690053161.706,-154.297,-34.180,-17.578,-253.418,34.180
1690053161.710,291.992,-25.879,-20.508,451.660,631.348
1690053161.714,372.559,-25.391,-24.414,588.867,445.801
1690053161.715,-64.941,-33.691,-24.902,-85.938,-122.559
1690053161.719,-388.672,-37.598,-26.855,-613.281,-608.398
1690053161.723,-212.402,-32.715,-29.785,-352.051,-572.754
1690053161.727,226.074,-30.273,-40.039,352.051,5.859
1690053161.731,387.695,-31.250,-43.945,608.887,461.914
1690053161.735,-7.812,-34.668,-37.598,-29.785,142.090
1690053161.739,-370.117,-28.809,-37.109,-585.449,-425.781
1690053161.742,-229.980,-22.461,-38.086,-361.328,-501.465
1690053161.746,195.801,-26.367,-35.645,292.480,296.875
1690053161.750,395.020,-26.367,-33.691,638.184,909.180
1690053161.754,32.715,-27.344,-34.668,93.750,252.930
1690053161.758,-371.094,-31.738,-29.785,-560.059,-453.613
1690053161.761,-310.547,-26.855,-23.926,-480.957,-499.023
1690053161.765,109.863,-19.531,-25.391,179.688,-103.027
1690053161.769,391.602,-17.578,-24.414,633.301,380.371
1690053161.773,93.750,-21.484,-17.578,192.383,223.633
1690053161.777,-356.934,-27.832,-15.625,-514.648,-310.547
1690053161.781,-350.098,-33.691,-16.602,-541.016,-511.230
1690053161.785,59.570,-35.156,-20.020,95.703,-155.762
1690053161.788,387.695,-30.762,-20.020,625.977,525.391
1690053161.792,156.250,-30.273,-17.578,282.227,756.348
1690053161.796,-306.152,-32.715,-20.020,-457.031,-56.152
1690053161.800,-341.797,-37.598,-22.461,-554.688,-707.031
1690053161.804,26.367,-32.227,-27.832,39.551,-266.602
1690053161.805,346.191,-23.438,-31.738,590.332,344.238
1690053161.809,178.711,-33.203,-33.691,342.285,242.188
1690053161.813,-302.734,-35.156,-31.250,-416.992,-366.699
1690053161.817,-421.875,-32.715,-26.367,-628.906,-633.789
1690053161.821,-77.637,-32.715,-33.203,-98.145,-309.570
1690053161.825,299.316,-25.879,-39.551,524.414,365.723
1690053161.829,226.074,-23.438,-34.668,406.250,474.121
1690053161.832,-247.070,-30.273,-32.227,-338.379,41.992
1690053161.836,-433.105,-38.086,-34.668,-650.391,-303.711
1690053161.840,-124.023,-36.621,-42.480,-193.848,-356.445
1690053161.844,308.105,-32.715,-41.992,500.000,218.262
1690053161.848,294.434,-31.250,-31.738,500.488,467.285
1690053161.851,-181.641,-34.180,-33.203,-242.188,-148.926
1690053161.855,-417.480,-38.086,-36.621,-636.719,-632.324
1690053161.859,-166.992,-38.574,-36.133,-252.930,-418.945
1690053161.863,267.090,-35.156,-34.668,449.707,291.504
1690053161.867,328.613,-33.203,-38.086,546.387,520.996
1690053161.871,-121.582,-41.504,-36.133,-157.227,40.039
1690053161.875,-414.551,-47.363,-33.203,-634.766,-392.090
1690053161.878,-209.961,-39.062,-31.250,-332.520,15.625
1690053161.882,230.469,-37.109,-31.738,375.488,463.379
1690053161.886,358.398,-39.551,-37.109,584.473,371.094
1690053161.890,-49.316,-42.480,-29.785,-57.129,-59.570
1690053161.894,-395.996,-43.945,-27.344,-611.328,-578.125
1690053161.895,-259.277,-42.969,-28.320,-403.809,-593.750
1690053161.899,183.594,-43.457,-28.809,292.480,-42.480
1690053161.903,388.184,-40.039,-29.297,624.512,423.828
1690053161.907,20.508,-32.715,-23.438,62.500,144.531
1690053161.911,-372.070,-32.227,-21.484,-566.406,-473.633
1690053161.915,-287.598,-26.855,-21.973,-459.473,-596.680
1690053161.919,139.648,-23.926,-21.484,212.402,199.219
1690053161.922,394.043,-25.391,-17.578,628.906,898.438
1690053161.926,71.777,-24.414,-17.090,142.090,289.062
1690053161.930,-363.281,-26.855,-18.555,-542.969,-516.113
1690053161.934,-338.867,-29.297,-19.043,-523.438,-566.895
1690053161.938,78.613,-30.273,-22.461,140.625,-160.156
1690053161.941,387.695,-29.785,-18.555,641.602,313.965
1690053161.945,131.348,-33.203,-14.648,242.676,276.367
1690053161.949,-322.754,-36.621,-12.695,-480.469,-273.926
1690053161.953,-363.281,-36.133,-15.625,-565.430,-608.887
1690053161.957,21.484,-35.645,-21.484,41.504,-282.227
1690053161.961,374.023,-35.645,-20.508,614.746,395.996
1690053161.965,181.641,-41.504,-19.043,321.777,538.086
1690053161.968,-301.758,-46.875,-24.414,-433.105,-113.281
1690053161.972,-397.949,-42.969,-30.273,-601.562,-516.113
1690053161.976,-36.621,-41.992,-29.297,-36.621,-199.219
1690053161.980,355.469,-47.852,-33.203,588.867,686.523
1690053161.984,237.305,-48.828,-40.039,406.738,616.699
1690053162.001,-248.535,-52.734,-36.133,-362.305,-316.406
1690053162.005,-402.344,-51.758,-35.645,-632.324,-669.922
1690053162.009,-94.238,-45.410,-38.574,-138.672,-403.320
1690053162.013,326.172,-38.574,-41.016,530.762,164.551
1690053162.017,297.852,-35.156,-39.062,478.027,381.836
1690053162.021,-183.594,-43.457,-34.180,-258.301,-11.719
1690053162.025,-404.785,-44.922,-36.133,-619.629,-462.402
1690053162.028,-138.184,-37.598,-43.457,-221.191,-326.172
1690053162.032,296.875,-33.203,-43.457,465.820,204.590
1690053162.036,328.125,-30.273,-37.109,544.434,667.969
1690053162.040,-137.207,-34.668,-36.621,-177.734,251.465
1690053162.044,-412.598,-42.480,-42.969,-638.672,-624.023
1690053162.046,-192.383,-40.527,-41.992,-304.688,-580.078
1690053162.050,248.535,-34.668,-38.086,399.902,102.539
1690053162.054,358.398,-38.574,-40.039,584.473,441.406
1690053162.058,-78.125,-44.434,-34.668,-88.867,-21.484
1690053162.062,-402.832,-44.434,-28.809,-621.094,-557.129
1690053162.066,-172.852,-41.992,-30.762,-259.277,-338.379
1690053162.070,241.699,-37.598,-32.715,408.203,255.371
1690053162.073,365.723,-36.133,-30.273,605.469,537.598
1690053162.077,-20.996,-40.527,-32.227,14.160,274.414
1690053162.081,-399.902,-44.434,-29.297,-584.473,-55.664
1690053162.085,-293.945,-38.574,-28.809,-440.918,-267.578
1690053162.089,143.066,-30.762,-33.203,227.539,-86.426
1690053162.091,384.277,-34.180,-32.227,620.605,419.434
1690053162.095,46.387,-40.039,-34.668,99.609,197.266
1690053162.099,-367.676,-41.016,-37.598,-578.613,-531.250
1690053162.103,-325.195,-35.645,-36.621,-516.113,-687.500
1690053162.107,104.980,-30.762,-31.250,157.227,-91.797
1690053162.111,399.414,-29.785,-25.879,607.422,501.465
1690053162.115,107.910,-30.273,-21.484,197.266,371.582
1690053162.118,-338.867,-31.250,-20.508,-508.789,-332.520
1690053162.122,-340.332,-37.598,-20.508,-547.852,-426.270
1690053162.126,48.828,-30.273,-24.414,76.172,36.621
1690053162.130,368.652,-25.391,-36.621,594.727,364.258
1690053162.134,156.250,-32.715,-35.156,268.555,321.289
1690053162.137,-317.383,-33.203,-30.762,-473.145,-216.797
1690053162.141,-383.301,-32.227,-35.156,-616.211,-533.203
1690053162.145,-16.602,-30.273,-32.715,-31.250,-210.449
1690053162.149,355.957,-29.785,-27.832,588.379,361.328
1690053162.153,214.355,-34.180,-25.879,384.766,470.703
1690053162.157,-270.020,-37.109,-26.855,-381.836,-138.184
1690053162.161,-398.438,-38.086,-27.344,-619.629,-522.949
1690053162.164,-67.871,-34.668,-25.391,-95.703,-216.309
1690053162.168,341.309,-31.250,-28.320,562.500,731.445
1690053162.172,284.668,-27.832,-37.109,455.566,734.863
1690053162.176,-220.703,-34.180,-34.668,-323.730,-257.324
1690053162.180,-421.875,-40.039,-30.762,-639.648,-685.547
1690053162.181,-118.652,-29.785,-35.156,-184.082,-437.500
1690053162.185,304.199,-21.973,-41.016,486.816,169.922
1690053162.189,299.805,-27.832,-41.992,509.766,408.691
1690053162.193,-157.715,-33.691,-33.203,-215.820,-35.156
1690053162.197,-398.926,-33.203,-27.832,-625.977,-512.207
1690053162.201,-159.180,-28.809,-28.320,-220.215,-354.492
1690053162.205,285.645,-27.832,-28.320,456.055,206.055
1690053162.208,362.305,-32.715,-28.809,570.801,640.625
1690053162.212,-92.285,-32.227,-22.461,-112.793,425.293
1690053162.216,-411.621,-29.297,-25.391,-625.000,-453.125
1690053162.220,-219.727,-29.297,-26.367,-339.355,-561.035
1690053162.224,229.004,-26.367,-24.414,370.117,98.145
1690053162.225,371.582,-21.484,-26.367,610.840,435.547
1690053162.229,-42.969,-26.855,-26.367,-18.555,63.965
1690053162.233,-409.180,-36.621,-28.320,-599.609,-482.422
1690053162.237,-275.879,-34.180,-26.855,-414.062,-538.574
1690053162.241,164.062,-36.621,-25.391,275.879,-21.973
1690053162.245,379.395,-43.457,-26.367,625.977,421.875
1690053162.249,26.855,-48.828,-25.879,83.008,227.539
1690053162.252,-376.953,-55.664,-22.461,-574.219,-8.301
1690053162.256,-313.477,-50.293,-23.438,-494.141,-228.027
1690053162.260,112.305,-43.945,-29.297,181.152,-137.207
1690053162.264,387.207,-41.992,-27.832,618.652,419.922
1690053162.268,83.984,-38.086,-18.555,164.062,392.578
1690053162.287,-359.375,-34.668,-20.508,-544.922,-358.887
1690053162.291,-345.703,-30.273,-22.461,-556.152,-680.664
1690053162.295,67.383,-26.855,-21.973,102.051,-185.547
1690053162.299,388.672,-23.926,-23.926,616.211,372.559
1690053162.303,141.113,-22.461,-23.926,247.559,228.516
1690053162.307,-319.824,-25.879,-25.391,-479.980,-324.707
1690053162.311,-366.699,-27.832,-23.438,-576.660,-393.066
1690053162.314,5.859,-28.320,-26.855,13.672,55.664
1690053162.318,357.422,-21.973,-36.133,577.637,371.582
1690053162.322,174.316,-28.320,-36.133,325.684,383.301
1690053162.326,-296.387,-40.527,-34.180,-414.062,-102.539
1690053162.330,-405.762,-36.133,-38.574,-618.164,-560.059
1690053162.316,-65.918,-30.273,-38.086,-84.961,-380.859
1690053162.320,344.238,-24.902,-34.668,562.988,283.691
1690053162.324,245.605,-28.320,-35.645,416.016,483.887
1690053162.328,-246.582,-36.133,-37.598,-354.004,-135.254
1690053162.332,-411.133,-34.180,-37.598,-625.488,-630.859
1690053162.336,-44.434,-32.715,-39.062,-47.363,-154.297
1690053162.340,339.355,-30.762,-40.527,552.734,524.414
1690053162.343,253.418,-32.227,-41.992,426.758,487.793
1690053162.347,-182.617,-34.668,-36.621,-255.371,-92.773
1690053162.351,-395.020,-29.297,-33.691,-619.141,-517.578
1690053162.355,-145.508,-29.297,-37.598,-230.469,-268.555
1690053162.359,290.527,-23.926,-34.668,462.891,229.980
1690053162.362,334.961,-17.090,-26.855,547.852,388.184
1690053162.366,-139.648,-19.531,-28.320,-156.250,-27.344
1690053162.370,-418.945,-20.020,-26.855,-628.418,-166.016
1690053162.374,-198.242,-19.043,-28.320,-328.613,-251.953
1690053162.378,249.023,-16.602,-30.273,378.906,-46.387
1690053162.382,344.238,-24.902,-30.762,546.875,517.090
1690053162.386,-67.383,-26.855,-28.809,-90.332,216.797
1690053162.389,-384.277,-23.438,-27.832,-617.676,-542.969
1690053162.393,-258.789,-25.391,-33.691,-423.340,-605.957
1690053162.397,194.824,-22.461,-35.156,296.387,193.359
1690053162.401,399.902,-24.414,-36.621,611.816,641.602
1690053162.405,-1.465,-31.738,-29.785,-1.953,75.195
1690053162.422,-372.559,-39.551,-26.367,-585.938,-519.531
1690053162.426,-291.992,-41.504,-32.227,-463.379,-432.129
1690053162.430,134.277,-30.273,-37.109,208.496,65.918
1690053162.434,385.254,-23.438,-37.598,639.160,372.070
1690053162.438,31.738,-31.738,-26.855,118.164,144.531
1690053162.442,-360.352,-31.738,-13.672,-521.973,-140.137
1690053162.446,-310.059,-23.926,-12.695,-467.773,-361.816
1690053162.449,77.637,-22.461,-17.578,136.230,-149.414
1690053162.453,393.066,-23.438,-20.996,617.676,484.375
1690053162.457,114.258,-30.273,-18.555,198.730,605.957
1690053162.461,-336.914,-32.227,-19.531,-509.277,-180.664
1690053162.465,-356.445,-26.367,-20.996,-564.453,-734.375
1690053162.466,16.602,-24.902,-24.902,30.273,-304.199
1690053162.470,379.883,-28.320,-34.668,606.934,352.051
1690053162.474,168.945,-36.133,-36.133,286.621,293.945
1690053162.478,-298.340,-39.551,-26.855,-452.148,-304.688
1690053162.482,-379.883,-34.668,-22.461,-594.238,-414.551
1690053162.486,-21.973,-31.250,-27.344,-23.438,-36.133
1690053162.490,370.117,-30.762,-33.203,594.238,391.113
1690053162.493,209.961,-31.738,-35.645,377.930,269.043
1690053162.497,-268.555,-30.762,-26.855,-358.887,-74.707
1690053162.501,-395.020,-26.367,-26.855,-600.098,-173.340
1690053162.505,-93.750,-25.391,-32.715,-147.461,-287.109
1690053162.509,331.055,-22.949,-31.738,524.414,268.555
1690053162.511,257.812,-22.461,-34.668,440.430,544.922
1690053162.515,-234.375,-23.926,-36.621,-314.941,-171.387
1690053162.519,-417.969,-20.996,-37.598,-631.348,-689.941
1690053162.523,-157.227,-15.137,-37.598,-226.074,-517.578
1690053162.527,293.457,-14.160,-36.621,479.004,109.863
1690053162.531,292.480,-20.508,-34.668,477.539,444.336
1690053162.535,-168.945,-23.438,-32.715,-240.234,-35.156
1690053162.538,-400.391,-22.461,-33.203,-619.141,-566.406
1690053162.542,-192.383,-23.438,-31.250,-287.598,-0.488
1690053162.546,270.020,-18.555,-28.320,433.105,671.387
1690053162.550,362.793,-12.695,-27.344,579.590,484.375
1690053162.554,-98.633,-14.648,-26.855,-128.906,-50.293
1690053162.555,-390.625,-17.090,-29.785,-618.164,-541.992
1690053162.559,-234.375,-18.555,-34.180,-366.211,-586.426
1690053162.563,212.891,-19.531,-32.227,351.074,-22.461
1690053162.567,398.438,-19.043,-23.926,627.441,500.977
1690053162.571,-24.414,-21.973,-22.461,-17.090,133.789
1690053162.575,-368.164,-20.508,-26.367,-562.988,-434.570
1690053162.579,-261.719,-19.043,-32.715,-416.504,-452.148
1690053162.582,169.922,-22.461,-33.691,266.113,312.500
1690053162.586,415.527,-27.344,-30.762,645.020,762.695
1690053162.590,51.270,-28.809,-28.809,79.102,203.613
1690053162.594,-355.957,-28.320,-28.320,-561.035,-393.555
1690053162.598,-308.594,-28.809,-31.250,-499.023,-475.098
1690053162.602,108.887,-24.414,-35.156,149.902,-110.352
1690053162.606,402.344,-22.949,-37.109,621.582,307.129
1690053162.610,100.098,-28.809,-33.203,177.246,207.520
1690053162.614,-336.426,-34.180,-31.250,-518.066,-247.070
1690053162.618,-347.656,-39.062,-33.203,-547.363,-576.172
1690053162.622,43.945,-37.598,-33.203,78.613,-217.773
1690053162.626,386.719,-38.086,-38.086,625.977,530.762
1690053162.629,147.461,-44.922,-30.273,277.344,845.703
1690053162.633,-312.988,-44.434,-21.973,-465.332,17.578
1690053162.637,-374.023,-43.457,-24.414,-591.797,-698.242
1690053162.641,-15.137,-46.387,-29.297,-14.648,-326.660
1690053162.645,367.676,-42.969,-29.785,596.680,368.164
1690053162.647,197.266,-38.574,-21.484,352.539,358.398
1690053162.651,-279.785,-40.527,-21.973,-400.391,-353.516
1690053162.655,-389.648,-42.969,-21.484,-605.469,-574.219
1690053162.659,-67.871,-38.574,-18.066,-100.586,-243.164
1690053162.663,352.539,-32.715,-23.926,561.523,238.281
1690053162.667,259.277,-34.668,-25.391,433.105,386.719
1690053162.671,-221.191,-42.480,-14.648,-320.801,70.801
1690053162.674,-395.508,-44.922,-12.207,-604.492,-192.383
1690053162.678,-125.488,-34.668,-25.391,-190.918,-382.812
1690053162.682,320.312,-25.391,-27.832,495.117,103.027
1690053162.686,309.082,-31.250,-21.973,500.977,478.027
1690053162.690,-175.293,-41.992,-18.555,-247.559,-81.055
1690053162.692,-404.785,-44.434,-15.625,-631.348,-646.973
1690053162.696,-179.199,-43.945,-16.113,-277.344,-472.656
1690053162.700,270.508,-41.504,-21.973,430.664,295.410
1690053162.704,341.309,-38.086,-26.855,543.457,535.156
1690053162.708,-116.211,-37.598,-22.461,-165.039,-44.434
1690053162.712,-388.184,-37.109,-19.531,-610.840,-491.699
1690053162.716,-229.492,-32.227,-18.066,-346.191,-70.312
1690053162.719,208.496,-27.344,-21.973,355.469,485.352
1690053162.723,363.770,-30.273,-30.762,598.145,414.062
1690053162.727,-81.543,-41.992,-33.691,-76.660,-39.062
1690053162.731,-413.086,-46.387,-33.203,-623.535,-410.645
1690053162.735,-280.762,-41.016,-33.203,-428.223,-574.219
1690053162.751,151.855,-41.016,-29.297,271.484,-121.582
1690053162.755,375.488,-46.387,-27.832,618.652,440.430
1690053162.759,-2.441,-45.410,-25.391,31.738,125.488
1690053162.763,-381.836,-42.480,-20.020,-583.496,-501.953
1690053162.767,-305.664,-38.086,-21.484,-483.398,-595.703
1690053162.771,143.066,-41.016,-24.902,208.496,137.207
1690053162.775,411.621,-43.945,-29.297,635.254,747.070
1690053162.778,54.688,-41.016,-31.738,125.488,313.965
1690053162.782,-352.051,-39.551,-25.879,-532.227,-402.832
1690053162.786,-329.590,-38.574,-26.855,-527.832,-432.617
1690053162.790,54.199,-35.156,-37.598,93.750,1.953
1690053162.794,382.812,-29.785,-41.504,620.117,347.656
1690053162.795,110.352,-32.715,-41.016,216.797,252.441
1690053162.799,-339.355,-37.598,-42.969,-493.652,-292.480
1690053162.803,-375.000,-34.180,-39.062,-576.660,-600.586
1690053162.807,-3.906,-26.367,-37.598,-1.465,-292.480
1690053162.811,376.465,-29.785,-40.527,588.379,338.867
1690053162.815,165.039,-38.574,-40.039,293.457,509.766
1690053162.819,-302.734,-41.504,-34.668,-444.336,-84.961
1690053162.822,-393.555,-41.992,-27.832,-615.723,-515.625
1690053162.826,-67.871,-39.551,-25.391,-96.191,-118.652
1690053162.830,354.492,-30.762,-27.832,569.336,765.625
1690053162.834,227.051,-30.762,-31.250,395.508,803.711
1690053162.838,-263.672,-36.133,-31.738,-372.070,-188.477
1690053162.840,-407.227,-39.062,-31.738,-620.117,-666.504
1690053162.844,-126.953,-39.551,-36.133,-175.781,-356.934
1690053162.848,318.848,-38.086,-33.691,502.930,189.453
1690053162.852,287.598,-33.691,-23.438,457.520,318.848
1690053162.856,-201.660,-34.180,-17.578,-286.133,-184.570
1690053162.860,-394.531,-37.109,-15.137,-614.746,-550.293
1690053162.864,-158.691,-30.762,-15.137,-246.582,-423.828
1690053162.867,280.273,-30.762,-16.602,462.402,146.484
1690053162.871,318.848,-30.762,-12.695,557.129,656.250
1690053162.875,-157.715,-31.738,-11.230,-182.129,265.625
1690053162.879,-418.945,-35.645,-16.602,-634.766,-555.176
1690053162.883,-214.844,-37.109,-18.555,-329.590,-521.973
1690053162.885,242.676,-38.086,-22.461,395.020,264.160
1690053162.889,354.980,-36.133,-25.391,592.285,487.793
1690053162.893,-87.891,-40.527,-21.973,-91.797,-93.750
1690053162.897,-390.137,-41.992,-21.484,-606.934,-602.539
1690053162.901,-251.465,-44.922,-21.973,-398.926,-539.551
1690053162.905,204.102,-42.480,-21.484,320.312,106.934
1690053162.909,396.973,-36.133,-20.996,628.418,507.812
1690053162.912,-23.926,-43.457,-21.484,-1.953,183.594
1690053162.916,-380.859,-46.387,-17.090,-576.172,-21.484
1690053162.920,-290.039,-36.133,-16.602,-446.289,-201.172
1690053162.924,137.207,-30.273,-20.996,231.934,-60.059
1690053162.928,396.484,-32.227,-26.367,649.414,467.285
1690053162.931,41.504,-38.086,-30.762,110.840,291.504
1690053162.935,-360.840,-41.016,-27.344,-549.805,-417.969
1690053162.939,-322.754,-34.668,-28.320,-515.137,-662.598
1690053162.943,101.562,-28.320,-32.715,146.484,-78.613
1690053162.947,411.621,-28.809,-31.250,646.973,524.902
1690053162.951,79.102,-37.109,-23.438,168.945,286.621
1690053162.955,-354.004,-43.457,-19.531,-513.672,-319.336
1690053162.958,-353.027,-41.504,-17.578,-538.574,-333.008
1690053162.962,24.902,-34.180,-17.578,46.875,22.949
1690053162.966,377.930,-33.691,-29.785,603.516,233.887
1690053162.970,159.668,-39.062,-31.250,282.227,189.941
1690053162.974,-311.035,-47.363,-22.461,-455.566,-304.199
1690053162.975,-392.090,-54.199,-21.973,-599.609,-639.160
1690053162.979,-36.133,-55.176,-19.531,-41.504,-347.168
1690053162.983,361.328,-53.711,-15.625,583.008,337.402
1690053162.987,220.215,-50.293,-14.160,383.789,485.840
1690053162.991,-267.578,-50.293,-8.789,-364.258,-235.352
1690053162.995,-415.039,-49.805,-8.789,-606.934,-590.332
1690053162.999,-88.379,-42.969,-10.742,-102.539,-177.734
1690053163.002,346.191,-33.691,-10.742,567.383,736.816
1690053163.006,268.066,-28.320,-20.020,466.797,762.695
1690053163.010,-217.285,-29.785,-24.902,-289.551,-264.648
1690053163.014,-395.996,-33.203,-20.996,-603.516,-738.281
1690053163.018,-126.465,-26.367,-29.785,-179.199,-412.109
1690053163.020,307.129,-22.949,-37.598,507.324,133.789
1690053163.024,313.965,-32.715,-32.715,525.391,340.820
1690053163.028,-155.762,-34.668,-26.855,-210.449,-83.008
1690053163.032,-404.297,-37.598,-23.926,-621.094,-536.133
1690053163.036,-188.477,-39.062,-25.879,-282.715,-464.355
1690053163.040,265.625,-36.621,-33.203,440.430,172.852
1690053163.044,348.633,-39.551,-28.809,596.191,758.301
1690053163.047,-109.375,-41.992,-20.508,-110.840,385.254
1690053163.051,-410.156,-37.109,-25.391,-621.582,-496.094
1690053163.055,-234.375,-33.691,-25.879,-361.328,-565.918
1690053163.059,215.820,-31.738,-24.414,358.398,198.730
1690053163.063,370.605,-30.762,-27.344,614.258,508.301
1690053163.066,-42.969,-37.598,-26.855,-22.949,-29.785
1690053163.070,-394.531,-38.086,-22.949,-588.379,-539.062
1690053163.074,-283.203,-35.645,-26.855,-427.734,-522.461
1690053163.078,151.855,-35.645,-33.203,256.348,-4.395
1690053163.082,380.371,-34.180,-39.062,624.512,428.223
1690053163.086,17.090,-33.691,-38.086,75.684,241.699
1690053163.090,-380.371,-31.250,-29.297,-555.176,-34.668
1690053163.093,-321.777,-24.414,-29.297,-479.980,-359.863
1690053163.097,105.957,-16.113,-27.832,181.641,-135.742
1690053163.101,395.508,-16.602,-24.902,640.137,500.488
1690053163.105,89.844,-19.531,-19.531,187.988,548.828
1690053163.109,-352.539,-23.926,-20.996,-519.531,-280.273
1690053163.125,-347.168,-27.832,-26.367,-540.039,-700.684
1690053163.129,59.570,-17.090,-25.879,99.121,-177.246
1690053163.133,380.859,-14.648,-30.762,613.770,402.832
1690053163.137,139.160,-25.879,-38.574,255.859,307.129
1690053163.141,-332.520,-33.203,-35.156,-480.957,-324.219
1690053163.145,-390.625,-33.691,-32.227,-587.891,-534.180
1690053163.149,-4.883,-28.320,-33.691,12.695,-132.812
1690053163.152,358.887,-21.484,-34.668,592.285,336.914
1690053163.156,193.359,-20.508,-36.621,353.027,271.484
1690053163.160,-284.180,-26.855,-33.203,-397.949,-62.988
1690053163.164,-400.391,-24.414,-35.156,-616.211,-353.516
1690053163.168,-52.734,-14.648,-40.527,-83.008,-355.957
1690053163.170,354.980,-15.137,-41.016,562.500,227.051
1690053163.174,260.254,-18.066,-40.039,435.547,500.488
1690053163.178,-238.281,-20.996,-39.062,-341.797,-165.039
1690053163.182,-398.926,-27.832,-40.527,-632.812,-666.992
1690053163.186,-84.473,-26.367,-38.574,-108.887,-352.051
1690053163.190,320.801,-21.973,-34.668,533.691,349.121
1690053163.194,284.180,-31.738,-33.203,485.352,541.992
1690053163.197,-192.871,-37.109,-25.391,-252.441,-19.531
1690053163.201,-421.875,-37.109,-21.973,-646.484,-477.539
1690053163.205,-170.898,-41.016,-23.438,-249.023,-62.500
1690053163.209,258.301,-36.133,-33.203,423.828,458.008
1690053163.213,270.020,-30.762,-35.156,434.570,428.223
1690053163.215,-158.691,-28.320,-28.320,-212.891,36.133
1690053163.219,-431.152,-26.367,-23.438,-648.926,-492.676
1690053163.223,-244.629,-25.879,-22.949,-372.070,-580.078
1690053163.227,211.426,-25.391,-25.391,342.773,6.348
1690053163.231,359.863,-23.438,-23.438,569.336,518.066
1690053163.235,-56.641,-26.855,-20.508,-70.312,97.168
1690053163.239,-416.992,-29.297,-17.090,-623.535,-456.543
1690053163.242,-275.391,-21.484,-15.625,-416.992,-449.219
1690053163.246,172.852,-20.020,-19.043,284.180,177.734
1690053163.250,369.629,-28.320,-23.438,614.258,690.430
1690053163.254,-10.254,-35.645,-24.902,35.156,68.359
1690053163.258,-396.484,-41.504,-24.414,-590.820,-599.121
1690053163.260,-311.523,-40.527,-28.320,-478.516,-521.973
1690053163.264,118.164,-34.668,-31.738,202.148,3.906
1690053163.268,384.766,-36.133,-28.809,620.117,471.680
1690053163.272,59.082,-42.480,-26.855,125.488,410.645
1690053163.276,-359.375,-41.504,-24.902,-530.273,-151.367
1690053163.280,-315.918,-37.598,-23.438,-479.980,-471.191
1690053163.284,83.008,-35.156,-19.531,140.137,-56.152
1690053163.287,394.043,-32.715,-20.508,638.184,523.438
1690053163.291,110.352,-39.062,-21.973,234.863,691.406
1690053163.295,-338.867,-42.480,-23.438,-486.328,-21.484
1690053163.299,-363.770,-41.504,-25.879,-568.848,-679.199
1690053163.303,0.488,-41.016,-32.715,13.184,-280.762
1690053163.305,374.512,-36.133,-34.668,608.887,373.047
1690053163.309,166.992,-37.109,-39.551,301.270,253.418
1690053163.313,-300.781,-42.969,-48.340,-445.801,-359.863
1690053163.317,-373.535,-42.969,-44.434,-595.215,-601.562
1690053163.321,-39.551,-39.551,-43.457,-60.547,-280.273
1690053163.325,356.934,-38.086,-42.480,570.312,400.879
1690053163.329,241.699,-39.551,-34.668,394.043,499.023
1690053163.332,-234.863,-35.645,-28.320,-348.145,107.910
1690053163.336,-394.043,-38.086,-29.785,-599.121,-76.660
1690053163.340,-99.609,-36.133,-34.180,-130.371,-269.043
1690053163.344,333.984,-21.484,-29.785,538.574,164.062
1690053163.348,301.758,-15.625,-22.949,492.188,442.383
1690053163.365,-180.664,-20.508,-23.926,-260.254,-194.824
1690053163.369,-392.578,-20.508,-20.996,-628.906,-712.891
1690053163.373,-120.605,-20.996,-18.555,-205.566,-429.688
1690053163.377,308.594,-21.973,-21.484,483.887,249.023
1690053163.381,337.891,-24.414,-24.902,537.598,423.340
1690053163.385,-121.094,-32.227,-21.973,-168.457,-41.992
1690053163.389,-392.578,-35.645,-15.137,-611.328,-461.914
1690053163.392,-164.551,-30.762,-14.160,-256.348,34.180
1690053163.396,265.625,-28.809,-19.531,441.406,542.969
1690053163.400,355.469,-32.227,-24.414,585.449,464.355
1690053163.404,-61.035,-34.668,-21.973,-77.148,-32.227
1690053163.408,-388.184,-38.086,-23.926,-602.539,-514.160
1690053163.395,-233.887,-37.109,-31.250,-367.188,-617.188
1690053163.399,206.055,-33.203,-30.762,327.637,-97.656
1690053163.403,377.441,-35.645,-28.809,613.770,386.230
1690053163.407,-17.090,-42.969,-28.809,11.230,18.555
1690053163.411,-387.695,-44.434,-24.414,-588.379,-645.020
1690053163.415,-281.738,-41.992,-21.484,-440.918,-625.488
1690053163.419,149.902,-38.086,-24.414,250.488,183.594
1690053163.422,384.766,-35.645,-25.391,632.812,598.145
1690053163.426,36.621,-36.133,-30.273,91.309,90.820
1690053163.430,-367.188,-37.109,-34.668,-563.477,-560.059
1690053163.434,-320.312,-41.016,-26.367,-500.000,-323.730
1690053163.438,91.309,-39.062,-26.367,162.109,312.988
1690053163.441,386.230,-34.180,-28.809,627.441,433.105
1690053163.445,108.887,-36.621,-20.020,193.359,155.762
1690053163.449,-331.543,-42.480,-20.996,-501.953,-408.691
1690053163.453,-347.656,-41.504,-27.832,-551.270,-650.391
1690053163.457,39.551,-38.574,-28.320,53.711,-290.527
1690053163.461,386.230,-39.062,-24.414,607.910,412.109
1690053163.465,171.875,-39.551,-20.996,298.340,717.285
1690053163.468,-299.805,-37.598,-25.879,-453.613,-85.938
1690053163.472,-359.863,-30.273,-27.344,-587.891,-695.801
1690053163.476,17.578,-24.414,-25.879,3.906,-232.910
1690053163.480,369.141,-29.297,-24.902,588.379,568.359
1690053163.484,202.637,-36.621,-24.414,349.609,390.625
1690053163.486,-268.066,-41.016,-24.902,-397.949,-366.211
1690053163.490,-401.367,-43.457,-22.949,-618.652,-559.570
1690053163.494,-76.660,-43.945,-22.461,-115.723,-250.488
1690053163.498,330.566,-36.621,-26.855,519.531,233.398
1690053163.502,263.672,-33.691,-27.344,428.223,339.844
1690053163.506,-234.375,-39.062,-30.762,-348.145,-107.422
1690053163.510,-427.246,-39.062,-36.621,-658.691,-422.852
1690053163.513,-131.836,-38.574,-40.527,-192.871,-324.707
1690053163.517,296.387,-37.598,-42.969,476.074,175.293
1690053163.521,302.246,-41.504,-36.621,501.465,605.957
1690053163.525,-171.875,-41.992,-36.621,-239.746,97.656
1690053163.529,-416.992,-36.621,-40.039,-658.691,-614.258
1690053163.545,-183.594,-36.621,-37.598,-288.086,-449.707
1690053163.549,257.812,-36.621,-32.227,416.016,174.805
1690053163.553,343.750,-34.668,-26.855,560.547,418.945
1690053163.557,-108.887,-39.062,-26.367,-126.953,-45.898
1690053163.561,-415.527,-43.945,-24.902,-617.188,-504.395
1690053163.565,-232.910,-42.480,-20.508,-337.891,-146.973
1690053163.569,212.402,-34.180,-26.367,351.562,372.559
1690053163.572,372.070,-31.250,-28.320,599.609,538.574
1690053163.576,-35.156,-38.574,-26.855,-22.461,137.207
1690053163.580,-386.230,-38.086,-22.949,-588.379,-218.262
1690053163.584,-268.555,-32.715,-26.367,-414.551,-391.602
1690053163.588,159.180,-30.273,-33.691,266.602,-102.539
1690053163.593,381.348,-28.809,-30.762,607.910,435.547
1690053163.597,23.438,-31.250,-29.785,62.500,112.305
1690053163.601,-377.441,-29.785,-30.762,-571.777,-564.453
1690053163.605,-302.246,-23.926,-31.250,-481.445,-658.691
1690053163.609,124.023,-23.926,-26.855,210.449,-60.059
1690053163.613,348.145,-27.832,-23.926,567.871,517.090
1690053163.617,66.895,-29.785,-21.484,95.215,277.832
1690053163.620,-342.285,-34.668,-20.996,-533.691,-382.324
1690053163.624,-344.238,-36.621,-17.090,-532.227,-358.398
1690053163.628,62.012,-31.738,-13.672,108.398,269.043
1690053163.632,376.465,-29.785,-19.531,612.305,426.270
1690053163.636,132.812,-34.668,-22.461,248.047,217.773
1690053163.635,-319.824,-39.551,-19.531,-476.562,-304.688
1690053163.639,-368.164,-39.062,-19.043,-579.102,-647.461
1690053163.643,-2.930,-38.574,-23.926,15.625,-283.691
1690053163.647,355.469,-39.062,-25.879,593.262,357.910
1690053163.651,178.223,-44.922,-26.367,327.148,417.969
1690053163.655,-299.805,-49.316,-29.785,-423.828,-229.004
1690053163.659,-400.391,-47.363,-30.273,-606.445,-566.406
1690053163.662,-57.617,-43.457,-30.273,-65.918,-110.352
1690053163.666,338.379,-41.016,-32.715,562.500,755.371
1690053163.670,236.328,-41.992,-33.203,415.527,978.516
1690053163.674,-250.977,-42.969,-37.109,-345.215,214.355
1690053163.678,-418.945,-48.828,-45.898,-637.695,-528.809
1690053163.680,-120.605,-48.828,-41.504,-167.969,-289.062
1690053163.684,312.500,-39.551,-34.180,495.117,183.105
1690053163.688,299.805,-30.273,-30.273,473.145,286.133
1690053163.692,-184.082,-33.203,-31.250,-263.672,-122.070
1690053163.696,-409.668,-35.645,-36.621,-642.090,-523.438
1690053163.700,-89.844,-32.715,-42.480,-116.211,-377.930
1690053163.704,311.523,-34.180,-47.363,500.000,148.926
1690053163.707,315.430,-33.203,-45.410,500.977,575.195
1690053163.711,-126.953,-32.715,-40.527,-165.527,190.918
1690053163.715,-411.621,-33.203,-36.621,-633.301,-649.902
1690053163.719,-203.125,-30.273,-33.691,-315.430,-579.102
1690053163.723,246.582,-22.949,-31.738,386.230,216.797
1690053163.726,364.746,-23.438,-32.715,583.984,425.781
1690053163.730,-65.430,-28.809,-35.156,-72.754,-109.863
1690053163.734,-394.531,-27.832,-27.344,-614.746,-595.703
1690053163.738,-240.723,-25.391,-26.367,-393.555,-521.484
1690053163.742,189.453,-22.461,-34.180,295.410,-29.785
1690053163.746,369.141,-22.461,-33.203,600.098,498.535
1690053163.750,-8.789,-26.855,-25.391,23.438,326.660
1690053163.753,-395.508,-31.738,-22.949,-586.426,-16.602
1690053163.757,-307.129,-33.691,-21.973,-466.309,-193.359
1690053163.761,121.582,-33.203,-27.832,208.496,-97.168
1690053163.765,378.906,-37.598,-33.203,613.770,372.070
1690053163.769,52.246,-38.086,-33.691,107.422,146.973
1690053163.772,-356.934,-41.504,-27.832,-548.340,-504.883
1690053163.776,-329.590,-42.480,-21.973,-519.531,-599.609
1690053163.780,73.730,-31.250,-26.855,128.418,-109.375
1690053163.784,386.719,-25.879,-30.762,626.953,399.414
1690053163.788,104.980,-30.762,-28.809,196.777,222.656
1690053163.792,-327.637,-32.227,-27.832,-495.117,-316.895
1690053163.796,-346.191,-34.180,-27.832,-538.574,-329.590
1690053163.799,17.090,-36.133,-25.879,51.270,181.152
1690053163.803,373.535,-32.227,-30.273,598.633,373.047
1690053163.807,161.621,-34.668,-32.715,277.344,208.496
1690053163.811,-299.805,-34.180,-23.438,-450.684,-240.723
1690053163.815,-371.582,-28.320,-18.555,-593.262,-565.918
1690053163.816,-31.250,-25.879,-23.438,-36.621,-304.688
1690053163.820,356.934,-27.344,-24.902,577.148,291.504
1690053163.824,224.609,-32.715,-24.902,370.117,392.578
1690053163.828,-265.137,-37.109,-25.879,-396.484,-190.918
1690053163.832,-401.367,-38.086,-23.926,-624.512,-541.504
1690053163.836,-85.449,-34.668,-23.438,-116.211,-203.125
1690053163.840,321.777,-28.809,-25.391,540.527,714.844
1690053163.843,263.672,-26.855,-29.785,456.543,835.938
1690053163.847,-206.543,-30.762,-32.227,-297.852,-159.668
1690053163.851,-402.832,-31.738,-28.320,-625.000,-669.922
1690053163.855,-141.602,-30.762,-29.297,-208.496,-308.105
1690053163.859,292.480,-31.250,-36.621,465.332,165.039
1690053163.875,315.918,-31.250,-35.156,507.812,326.172
1690053163.879,-146.484,-30.762,-24.902,-208.984,-70.312
1690053163.883,-396.973,-31.250,-22.461,-634.277,-547.363
1690053163.887,-180.176,-32.227,-22.949,-288.574,-478.027
1690053163.891,264.648,-34.180,-24.414,417.969,139.160
1690053163.895,309.570,-30.762,-24.902,493.652,618.164
1690053163.899,-121.094,-28.809,-20.996,-167.480,195.801
1690053163.902,-392.578,-27.344,-19.531,-605.957,-447.266
1690053163.906,-242.676,-24.902,-27.832,-370.117,-552.246
1690053163.910,200.684,-24.902,-30.762,339.844,226.074
1690053163.914,372.070,-24.414,-30.273,614.258,820.801
1690053163.918,-33.203,-27.344,-29.297,-15.137,113.770
1690053163.921,-386.230,-34.180,-24.902,-590.820,-572.754
1690053163.925,-280.762,-34.180,-32.227,-437.988,-513.184
1690053163.929,151.367,-26.855,-38.086,250.000,-20.508
1690053163.933,380.371,-27.832,-34.668,624.512,397.461
1690053163.937,-4.883,-36.133,-30.273,41.992,138.184
1690053163.941,-377.930,-33.691,-25.391,-563.965,-355.957
1690053163.945,-314.453,-27.344,-25.879,-484.863,-473.145
1690053163.948,85.938,-28.809,-33.691,157.715,-53.711
1690053163.952,383.301,-29.785,-38.574,626.953,573.730
1690053163.956,72.266,-36.621,-37.109,161.133,694.824
1690053163.960,-354.980,-39.062,-37.109,-517.090,-154.297
1690053163.964,-355.957,-35.645,-39.062,-544.922,-699.219
1690053163.965,33.691,-31.250,-32.715,69.824,-199.707
1690053163.969,389.648,-26.367,-28.320,624.512,721.191
1690053163.973,143.066,-23.926,-33.203,257.324,416.504
1690053163.977,-313.965,-28.320,-31.250,-474.121,-431.641
1690053163.981,-364.746,-28.809,-28.320,-578.125,-614.258
1690053163.985,21.484,-26.367,-33.203,38.086,-198.730
1690053163.989,383.789,-25.391,-38.574,605.957,415.039
1690053163.992,187.500,-32.227,-40.527,322.266,269.043
1690053163.996,-273.438,-37.598,-31.738,-401.855,-138.672
1690053164.000,-382.812,-34.180,-30.273,-596.680,-247.070
1690053164.004,-57.617,-30.762,-35.645,-67.383,-267.090
1690053164.008,344.727,-29.297,-33.691,569.336,313.965
1690053164.011,245.605,-33.691,-34.668,415.527,599.121
1690053164.015,-234.863,-38.574,-35.156,-339.844,-140.137
1690053164.019,-399.414,-40.527,-37.598,-629.395,-705.566
1690053164.023,-114.258,-34.668,-37.109,-186.035,-450.684
1690053164.027,327.148,-26.855,-30.273,511.230,229.492
1690053164.031,308.594,-25.879,-23.926,499.512,521.484
1690053164.035,-166.992,-28.320,-27.344,-251.953,-38.086
1690053164.038,-388.672,-29.785,-29.785,-620.605,-498.047
1690053164.042,-157.227,-25.391,-21.973,-243.164,-13.672
1690053164.046,285.156,-20.508,-21.973,450.684,480.469
1690053164.050,337.402,-20.996,-25.879,555.176,416.016
1690053164.054,-124.023,-19.531,-22.461,-157.715,-44.922
1690053164.057,-395.996,-21.484,-19.531,-620.117,-567.871
1690053164.061,-187.500,-25.391,-17.090,-294.922,-533.691
1690053164.065,250.000,-24.902,-17.090,388.672,63.477
1690053164.069,369.629,-29.297,-18.066,589.844,487.305
1690053164.073,-61.523,-33.203,-20.996,-56.152,161.133
1690053164.077,-384.766,-34.668,-27.832,-593.750,-451.172
1690053164.081,-251.465,-30.762,-35.156,-411.621,-583.984
1690053164.084,197.266,-24.414,-32.227,296.387,140.137
1690053164.088,395.020,-24.902,-30.762,628.906,736.816
1690053164.092,-9.277,-32.227,-37.109,8.789,121.582
1690053164.096,-392.578,-39.062,-30.273,-603.027,-543.945
1690053164.100,-312.988,-34.180,-25.879,-485.840,-479.980
1690053164.101,117.188,-27.832,-31.738,191.895,-62.988
1690053164.105,377.441,-24.414,-32.227,622.559,328.613
1690053164.109,41.016,-29.297,-33.203,115.723,126.953
1690053164.113,-378.906,-35.156,-33.203,-549.805,-442.871
1690053164.117,-360.352,-34.180,-28.809,-521.973,-473.633
1690053164.121,44.434,-36.133,-28.809,116.211,20.508
1690053164.125,372.070,-40.527,-29.785,623.047,534.668
1690053164.128,113.770,-47.852,-30.273,231.934,745.605
1690053164.132,-329.102,-49.805,-34.180,-483.887,-79.102
1690053164.136,-370.605,-44.922,-31.250,-569.824,-782.715
1690053164.140,3.418,-35.156,-23.438,24.414,-274.414
1690053164.144,376.465,-35.645,-20.508,604.004,663.574
1690053164.145,175.781,-41.504,-25.879,303.223,439.941
1690053164.149,-294.434,-41.016,-22.949,-438.965,-416.016
1690053164.153,-384.277,-38.574,-19.531,-598.633,-646.973
1690053164.157,-41.504,-36.133,-26.855,-58.594,-303.223
1690053164.161,358.398,-33.203,-27.344,572.754,286.133
1690053164.165,234.375,-34.668,-28.320,398.926,382.324
1690053164.169,-240.723,-36.133,-33.203,-344.727,73.730
1690053164.172,-387.207,-35.156,-33.691,-602.539,-146.484
1690053164.176,-94.238,-36.621,-34.180,-143.555,-315.430
1690053164.180,337.891,-37.598,-33.203,534.180,133.789
1690053164.184,292.969,-34.180,-31.738,483.398,536.133
1690053164.188,-202.148,-39.062,-34.180,-269.531,-68.848
1690053164.191,-406.738,-41.504,-32.227,-617.676,-713.867
1690053164.195,-144.531,-32.227,-28.320,-225.586,-485.840
1690053164.199,304.199,-29.785,-29.297,477.539,291.992
1690053164.203,333.984,-33.203,-27.832,528.320,506.348
1690053164.207,-147.949,-35.645,-26.367,-193.359,-90.820
1690053164.211,-392.578,-33.691,-26.855,-595.703,-457.520
1690053164.215,-188.965,-35.156,-22.949,-293.945,-132.324
1690053164.218,259.277,-35.645,-23.926,408.203,326.660
1690053164.222,373.535,-33.691,-26.855,594.727,504.395
1690053164.226,-73.242,-42.480,-32.715,-90.332,170.898
1690053164.230,-382.324,-44.434,-28.809,-584.473,-171.875
1690053164.234,-235.840,-38.574,-27.344,-360.840,-419.434
1690053164.251,218.750,-34.180,-28.809,329.590,-107.422
1690053164.255,400.879,-36.621,-27.832,625.977,395.996
1690053164.259,-16.602,-46.387,-32.227,6.348,123.047
1690053164.263,-383.301,-45.898,-36.133,-594.238,-548.340
1690053164.267,-290.039,-38.086,-36.133,-449.707,-647.461
1690053164.271,150.391,-34.180,-33.203,261.230,140.625
1690053164.275,386.230,-30.762,-32.715,610.352,728.027
1690053164.278,42.480,-30.762,-35.156,78.613,190.430
1690053164.282,-353.516,-30.762,-29.785,-542.480,-511.719
1690053164.286,-312.988,-28.320,-26.367,-494.629,-414.062
1690053164.290,104.004,-30.762,-31.738,160.156,27.344
1690053164.294,410.156,-33.203,-35.156,639.648,374.023
1690053164.311,108.398,-35.156,-32.715,192.383,293.457
1690053164.315,-340.332,-41.016,-31.250,-506.836,-195.801
1690053164.319,-351.074,-41.992,-33.691,-550.781,-560.547
1690053164.323,39.062,-41.504,-32.227,64.941,-267.578
1690053164.327,393.555,-39.062,-32.227,627.441,374.512
1690053164.331,159.180,-41.016,-32.715,281.738,364.258
1690053164.335,-308.105,-38.086,-29.297,-447.754,-238.281
1690053164.338,-373.535,-33.691,-26.367,-576.660,-551.758
1690053164.342,-20.020,-36.621,-28.320,-20.508,-224.121
1690053164.346,381.836,-36.621,-26.367,602.051,707.031
1690053164.350,220.215,-36.621,-23.438,368.652,680.664
1690053164.354,-273.438,-40.527,-20.996,-386.230,-301.758
1690053164.356,-393.066,-38.574,-18.555,-600.098,-661.621
1690053164.360,-72.754,-28.809,-18.066,-103.027,-338.379
1690053164.364,350.098,-21.484,-19.043,556.152,315.430
1690053164.368,258.301,-26.367,-19.531,447.754,348.633
1690053164.372,-230.957,-34.668,-21.973,-304.688,-123.535
1690053164.376,-406.738,-37.598,-29.785,-616.699,-348.145
1690053164.380,-127.930,-35.156,-34.668,-188.965,-243.652
1690053164.383,314.453,-27.832,-31.738,502.930,215.332
1690053164.387,308.105,-25.391,-24.414,520.508,523.438
1690053164.391,-177.734,-27.344,-25.391,-221.680,-43.457
1690053164.395,-416.992,-29.785,-24.902,-619.141,-657.227
1690053164.399,-182.617,-33.691,-23.438,-269.043,-503.418
1690053164.385,278.809,-32.227,-28.809,435.059,381.836
1690053164.389,354.492,-32.227,-30.762,572.754,672.852
1690053164.393,-120.605,-43.945,-31.738,-145.020,-98.145
1690053164.397,-413.086,-47.852,-35.156,-629.883,-593.750
1690053164.401,-233.887,-42.969,-33.691,-360.840,-394.531
1690053164.405,225.098,-34.668,-31.250,350.098,187.988
1690053164.409,381.348,-30.273,-27.832,606.934,548.340
1690053164.412,-66.406,-35.156,-25.879,-72.754,282.715
1690053164.416,-401.367,-37.598,-26.855,-616.211,-266.602
1690053164.420,-278.809,-35.156,-30.273,-433.594,-436.035
1690053164.424,165.527,-30.762,-33.691,256.348,-1.465
1690053164.428,399.414,-33.691,-33.691,630.371,486.816
1690053164.430,12.695,-43.945,-25.879,52.734,559.570
1690053164.434,-390.137,-40.039,-27.832,-574.219,-82.520
1690053164.438,-330.566,-29.785,-34.668,-490.234,-597.656
1690053164.442,105.469,-26.367,-32.715,183.594,-137.207
1690053164.446,399.902,-25.879,-33.691,636.230,416.016
1690053164.450,68.848,-29.297,-33.691,149.902,287.598
1690053164.454,-356.934,-37.109,-36.621,-527.832,-301.270
1690053164.457,-342.773,-42.969,-41.504,-526.367,-279.785
1690053164.461,52.734,-37.598,-39.062,103.027,359.863
1690053164.465,386.719,-33.691,-40.039,622.070,518.555
1690053164.469,125.977,-41.504,-37.109,232.422,224.609
1690053164.473,-334.961,-41.992,-32.715,-478.516,-289.062
1690053164.475,-382.812,-36.133,-30.762,-566.406,-604.492
1690053164.479,-6.348,-32.227,-33.691,5.371,-284.180
1690053164.483,387.695,-29.297,-31.250,600.586,356.445
1690053164.487,199.219,-32.715,-24.902,328.613,478.516
1690053164.491,-290.527,-39.551,-22.949,-426.270,-234.863
1690053164.495,-388.672,-39.551,-22.461,-600.098,-632.812
1690053164.499,-43.457,-34.668,-21.973,-70.312,-234.375
1690053164.502,371.582,-31.738,-20.020,578.125,681.152
1690053164.506,255.371,-36.133,-21.973,411.621,691.895
1690053164.510,-236.328,-39.062,-20.996,-344.238,-250.000
1690053164.514,-398.926,-35.156,-19.531,-607.910,-595.215
1690053164.518,-106.934,-30.273,-20.508,-152.344,-293.945
1690053164.521,322.266,-30.273,-22.461,516.602,173.340
1690053164.525,287.109,-31.250,-26.855,465.332,327.148
1690053164.529,-200.684,-37.109,-25.879,-278.320,-114.746
1690053164.533,-423.340,-33.691,-20.508,-637.207,-582.031
1690053164.537,-166.016,-20.508,-18.555,-248.535,-488.281
1690053164.541,290.039,-19.531,-22.461,455.566,125.977
1690053164.545,337.891,-27.344,-25.879,548.340,646.973
1690053164.548,-138.672,-30.273,-29.785,-174.805,253.418
1690053164.552,-413.574,-32.227,-37.109,-629.883,-547.363
1690053164.556,-216.797,-35.156,-32.715,-324.219,-529.297
1690053164.560,234.375,-29.785,-27.344,395.996,129.883
1690053164.564,359.863,-26.367,-30.273,595.703,464.355
1690053164.566,-93.750,-30.762,-33.691,-82.031,52.246
1690053164.570,-421.387,-30.762,-37.598,-597.168,-496.094
1690053164.574,-268.066,-27.832,-41.016,-382.324,-383.301
1690053164.578,182.617,-23.438,-42.480,307.129,164.062
1690053164.582,392.090,-23.438,-37.109,615.723,472.656
1690053164.586,-1.465,-31.738,-31.738,19.531,189.453
1690053164.590,-383.301,-47.363,-31.250,-570.801,-73.730
1690053164.593,-297.852,-47.363,-33.691,-458.008,-296.387
1690053164.597,125.977,-36.621,-36.133,210.449,-69.336
1690053164.601,391.602,-32.715,-30.762,623.535,466.309
1690053164.605,55.176,-42.480,-28.320,114.258,435.547
1690053164.609,-377.441,-48.340,-31.738,-554.199,-331.055
1690053164.627,-348.145,-49.805,-28.809,-520.020,-669.922
1690053164.631,81.543,-45.898,-30.273,137.207,-129.883
1690053164.635,393.555,-39.062,-33.691,624.512,427.246
1690053164.639,104.492,-46.387,-32.227,196.777,226.074
1690053164.643,-347.168,-51.270,-32.227,-512.207,-462.891
1690053164.647,-365.723,-48.340,-34.668,-554.688,-383.301
1690053164.651,23.438,-43.457,-40.527,56.152,278.809
1690053164.654,374.512,-35.156,-44.922,585.449,447.754
1690053164.658,163.574,-32.227,-40.039,272.949,217.773
1690053164.662,-307.129,-35.156,-27.344,-454.102,-265.625
1690053164.666,-386.230,-35.156,-23.926,-601.562,-622.559
1690053164.670,-20.508,-31.250,-28.320,-36.133,-351.562
1690053164.671,374.023,-25.879,-28.320,574.707,279.785
1690053164.675,230.957,-23.926,-29.785,375.977,335.938
1690053164.679,-267.578,-32.227,-35.645,-379.883,-255.371
1690053164.683,-416.016,-40.527,-37.109,-629.395,-648.926
1690053164.687,-85.938,-36.133,-33.691,-117.188,-346.191
1690053164.691,326.172,-32.227,-38.086,516.113,426.758
1690053164.695,260.742,-33.691,-41.992,383.789,554.199
1690053164.698,-219.238,-35.156,-41.992,-329.590,-71.777
1690053164.702,-419.434,-38.574,-38.086,-638.184,-460.449
1690053164.706,-140.625,-34.180,-33.691,-215.820,82.520
1690053164.710,300.293,-26.367,-40.039,474.609,714.355
1690053164.714,307.617,-21.484,-43.457,494.629,469.238
1690053164.715,-169.922,-23.438,-38.574,-229.004,-149.414
1690053164.719,-418.945,-26.855,-38.086,-632.812,-635.254
1690053164.723,-193.359,-29.785,-39.551,-295.410,-559.082
1690053164.727,264.648,-31.738,-35.645,413.086,64.453
1690053164.731,352.051,-34.668,-31.250,560.059,484.375
1690053164.735,-129.883,-42.969,-35.156,-158.691,201.660
1690053164.739,-432.129,-47.852,-40.039,-636.719,-408.691
1690053164.742,-246.094,-41.992,-37.109,-363.281,-540.527
1690053164.746,208.984,-34.180,-36.133,339.355,223.633
1690053164.750,375.488,-30.273,-37.109,606.934,874.512
1690053164.754,-44.434,-33.203,-38.574,-30.762,111.328
1690053164.758,-396.973,-35.156,-35.645,-599.609,-619.629
1690053164.760,-277.832,-35.645,-29.297,-423.828,-542.969
1690053164.764,155.273,-34.668,-30.762,265.137,-52.734
1690053164.768,387.207,-30.273,-33.203,627.930,437.500
1690053164.772,28.320,-33.691,-27.832,79.590,197.266
1690053164.776,-378.906,-34.668,-19.531,-555.664,-382.812
1690053164.780,-321.777,-35.645,-18.555,-479.980,-477.051
1690053164.784,107.910,-36.621,-19.531,175.781,20.996
1690053164.787,389.648,-35.156,-18.555,620.117,539.062
1690053164.791,84.473,-39.062,-13.184,174.805,666.992
1690053164.795,-365.234,-41.504,-17.578,-526.855,-5.859
1690053164.799,-363.281,-37.109,-27.832,-544.434,-587.402
1690053164.803,49.316,-33.203,-31.738,93.750,-149.414
1690053164.805,385.742,-31.250,-33.203,609.863,464.355
1690053164.809,150.391,-34.668,-26.855,250.488,222.168
1690053164.813,-325.195,-35.156,-21.973,-483.887,-487.305
1690053164.817,-376.953,-30.762,-24.902,-592.773,-723.633
1690053164.821,4.883,-30.762,-30.273,-4.883,-291.504
1690053164.825,376.953,-32.227,-30.762,580.078,394.043
1690053164.829,204.102,-32.227,-27.832,329.102,438.477
1690053164.832,-284.180,-30.762,-22.949,-414.062,-36.133
1690053164.836,-396.973,-31.250,-22.949,-609.863,-310.547
1690053164.840,-44.434,-28.320,-25.391,-85.449,-309.570
1690053164.844,364.746,-28.320,-24.902,551.758,218.262
1690053164.848,250.977,-33.691,-24.902,411.621,458.984
1690053164.852,-237.305,-31.250,-22.461,-340.332,-116.699
1690053164.856,-405.762,-25.879,-30.273,-632.324,-638.672
1690053164.860,-113.281,-22.949,-36.621,-175.293,-367.676
1690053164.864,320.312,-18.555,-32.227,507.324,392.090
1690053164.868,303.711,-23.438,-32.715,488.281,497.070
1690053164.872,-174.316,-34.180,-25.879,-252.930,-62.012
1690053164.876,-404.785,-35.156,-22.461,-635.254,-451.660
1690053164.879,-154.297,-29.297,-22.461,-240.234,-15.137
1690053164.883,295.898,-21.973,-25.879,452.637,496.582
1690053164.887,360.352,-20.020,-30.273,546.387,431.641
1690053164.891,-110.840,-27.832,-28.320,-154.297,-69.824
1690053164.895,-399.902,-23.438,-22.461,-621.582,-574.219
1690053164.896,-202.148,-16.113,-20.508,-316.406,-576.660
1690053164.900,241.211,-15.625,-27.344,380.371,-46.387
1690053164.904,375.488,-17.578,-24.414,593.262,434.570
1690053164.908,-64.453,-27.344,-16.602,-62.500,125.000
1690053164.912,-409.668,-32.227,-20.508,-622.070,-507.324
1690053164.916,-263.672,-35.156,-25.391,-410.156,-548.340
1690053164.920,178.711,-40.039,-28.320,294.434,198.730
1690053164.923,377.930,-37.598,-26.855,610.840,877.930
1690053164.927,-16.602,-38.574,-27.344,19.531,241.699
1690053164.931,-400.391,-41.016,-32.227,-589.355,-548.828
1690053164.935,-305.664,-37.109,-36.621,-476.562,-571.777
1690053164.939,124.512,-32.227,-40.527,196.289,-85.938
1690053164.941,384.766,-36.621,-42.480,610.352,423.828
1690053164.945,52.734,-43.457,-45.410,107.910,191.406
1690053164.949,-368.652,-41.992,-41.992,-556.641,-403.809
1690053164.953,-344.727,-41.016,-34.180,-529.297,-580.566
1690053164.957,76.172,-37.598,-27.832,115.234,-174.805
1690053164.961,376.465,-35.645,-27.832,592.773,514.648
1690053164.965,112.305,-43.457,-28.809,208.008,650.391
1690053164.968,-336.914,-47.363,-29.297,-499.512,-131.836
1690053164.972,-381.348,-45.410,-31.738,-578.613,-525.391
1690053164.976,13.672,-39.062,-31.738,34.668,-87.402
1690053164.980,378.906,-36.621,-31.738,600.586,722.656
1690053164.984,171.387,-35.156,-35.645,295.410,547.363
1690053164.986,-310.547,-38.086,-38.574,-452.148,-346.191
1690053164.990,-395.508,-35.156,-41.016,-599.121,-651.855
1690053164.994,-28.809,-28.809,-36.133,-35.156,-312.988
1690053164.998,368.164,-30.273,-33.691,572.266,238.770
1690053165.002,224.609,-31.250,-34.180,374.023,292.480
1690053165.006,-272.461,-31.738,-31.250,-378.906,-83.984
1690053165.010,-412.109,-35.645,-30.762,-634.277,-444.824
1690053165.013,-84.961,-32.227,-31.250,-144.043,-313.965
1690053165.017,345.703,-27.344,-26.855,524.414,309.570
1690053165.021,293.457,-30.762,-23.438,459.961,649.902
1690053165.025,-187.500,-31.250,-22.461,-285.156,187.988
1690053165.029,-401.855,-31.738,-27.344,-632.324,-619.141
1690053165.045,-141.113,-38.574,-31.738,-213.867,-531.738
1690053165.049,304.688,-39.062,-32.227,484.375,205.566
1690053165.053,324.219,-38.574,-34.668,528.809,436.035
1690053165.057,-157.715,-34.668,-33.203,-199.219,-146.484
1690053165.061,-412.598,-25.879,-23.926,-618.164,-567.871
1690053165.065,-165.039,-20.996,-23.438,-250.977,-235.352
1690053165.069,266.602,-14.160,-26.367,424.316,360.840
1690053165.072,353.516,-13.672,-23.438,571.289,599.121
1690053165.076,-89.844,-21.484,-20.020,-96.191,167.969
1690053165.080,-412.598,-29.297,-19.043,-595.703,-186.035
1690053165.084,-241.211,-29.297,-21.973,-355.469,-228.516
1690053165.088,205.566,-21.973,-21.484,323.242,65.430
1690053165.091,373.535,-27.344,-18.555,603.027,511.230
1690053165.095,-29.297,-36.133,-22.461,-10.254,394.043
1690053165.099,-405.762,-34.668,-29.297,-609.863,-444.824
1690053165.103,-290.527,-30.273,-29.785,-438.477,-691.895
1690053165.107,151.855,-25.879,-31.738,250.000,-65.430
1690053165.111,383.301,-23.438,-36.133,611.816,432.129
1690053165.115,32.227,-24.902,-42.480,75.195,276.855
1690053165.118,-393.555,-31.250,-43.457,-580.078,-339.355
1690053165.122,-342.285,-36.133,-37.109,-498.535,-390.137
1690053165.126,92.773,-38.574,-40.039,156.738,157.715
1690053165.130,384.277,-37.109,-44.922,597.656,379.395
1690053165.134,93.750,-39.062,-38.086,165.039,131.836
1690053165.136,-347.168,-43.945,-33.691,-530.273,-381.836
1690053165.140,-347.656,-41.992,-32.227,-549.805,-576.172
1690053165.144,55.664,-37.109,-34.180,81.055,-196.777
1690053165.148,392.090,-37.109,-34.180,598.633,368.652
1690053165.152,150.391,-38.086,-24.414,260.742,397.949
1690053165.156,-317.383,-34.668,-23.926,-466.797,-304.688
1690053165.160,-354.492,-31.738,-22.949,-553.223,-642.090
1690053165.163,9.277,-26.367,-20.508,17.090,-176.758
1690053165.167,375.488,-27.344,-24.902,589.355,732.910
1690053165.171,206.543,-31.738,-27.344,349.609,694.336
1690053165.175,-281.738,-35.156,-20.508,-402.832,-267.578
1690053165.179,-395.996,-37.109,-18.555,-608.398,-674.805
1690053165.181,-57.617,-32.715,-23.926,-87.891,-372.559
1690053165.185,343.750,-29.297,-23.926,544.434,235.840
1690053165.189,229.004,-34.668,-20.020,381.348,346.680
1690053165.193,-236.328,-41.504,-19.043,-332.031,-109.375
1690053165.197,-394.531,-37.109,-20.020,-611.328,-529.785
1690053165.201,-104.980,-36.133,-16.113,-165.527,-403.320
1690053165.205,322.266,-40.527,-11.719,510.742,236.328
1690053165.208,312.988,-41.504,-11.230,501.465,656.250
1690053165.212,-161.133,-42.969,-13.184,-222.168,287.109
1690053165.216,-397.461,-41.992,-11.230,-616.699,-541.016
1690053165.220,-148.438,-35.645,-15.625,-237.305,-495.605
1690053165.224,291.992,-25.879,-24.414,452.637,213.867
1690053165.226,356.934,-25.879,-27.344,560.059,436.523
1690053165.230,-104.004,-33.691,-26.855,-128.418,-75.684
1690053165.234,-404.785,-40.527,-23.926,-604.004,-542.480
1690053165.238,-207.520,-42.969,-25.879,-311.035,-433.105
1690053165.242,242.676,-38.086,-28.320,374.023,110.352
1690053165.246,379.395,-37.109,-23.438,590.332,461.426
1690053165.250,-56.152,-49.316,-21.973,-50.293,132.324
1690053165.253,-411.621,-50.293,-22.949,-597.168,-26.855
1690053165.257,-264.648,-44.434,-27.832,-390.625,-123.535
1690053165.261,177.246,-41.016,-31.738,291.992,-57.129
1690053165.265,383.301,-40.039,-27.832,615.234,418.945
1690053165.269,7.812,-43.457,-27.344,47.852,301.270
1690053165.271,-400.391,-43.945,-29.785,-591.797,-472.168
1690053165.275,-312.500,-44.434,-24.902,-476.074,-647.461
1690053165.279,124.023,-37.109,-17.090,204.590,-62.500
1690053165.283,385.742,-32.227,-20.996,615.234,420.898
1690053165.287,68.359,-34.668,-26.367,140.625,201.172
1690053165.291,-373.047,-36.621,-24.902,-537.598,-410.645
1690053165.295,-332.520,-34.668,-20.508,-509.766,-354.980
1690053165.298,108.398,-29.785,-20.020,152.832,310.547
1690053165.302,403.320,-24.902,-20.508,619.629,564.453
1690053165.306,128.418,-31.250,-16.602,225.586,282.715
1690053165.310,-333.984,-43.457,-14.648,-484.375,-208.984
1690053165.314,-367.188,-41.016,-13.184,-567.871,-546.387
1690053165.315,26.855,-36.133,-15.625,38.574,-316.406
1690053165.319,373.047,-38.574,-22.461,603.516,323.730
1690053165.323,188.477,-45.898,-14.160,328.125,484.375
1690053165.327,-291.992,-51.758,-12.695,-423.340,-243.652
1690053165.331,-387.207,-46.875,-20.508,-600.098,-688.477
1690053165.335,-6.348,-43.945,-22.461,-8.789,-86.914
1690053165.339,365.234,-42.969,-28.809,595.215,735.352
1690053165.342,230.957,-41.016,-41.504,391.602,613.770
1690053165.346,-263.184,-37.598,-36.621,-364.746,-231.445
1690053165.350,-426.758,-40.039,-33.691,-615.723,-589.844
1690053165.354,-78.125,-41.992,-35.645,-94.238,-74.707
1690053165.358,332.031,-35.645,-36.133,526.367,347.656
1690053165.362,271.973,-34.668,-37.598,446.289,326.172
1690053165.366,-214.844,-43.457,-34.668,-285.156,-83.008
1690053165.370,-432.129,-45.898,-33.203,-645.996,-493.652
1690053165.374,-153.320,-39.551,-29.785,-228.027,-438.965
1690053165.378,293.457,-38.086,-21.973,461.426,145.508
1690053165.382,330.566,-47.852,-20.508,521.973,576.660
1690053165.386,-147.461,-55.176,-23.438,-191.406,173.340
1690053165.389,-421.875,-47.363,-26.367,-639.160,-553.711
1690053165.393,-188.965,-37.109,-26.367,-304.199,-557.129
1690053165.397,261.230,-32.715,-25.879,404.785,220.215
1690053165.401,356.445,-29.297,-30.762,571.777,562.988
1690053165.405,-82.031,-32.715,-31.738,-93.262,-54.688
1690053165.420,-393.066,-31.250,-26.855,-597.168,-576.172
1690053165.424,-230.469,-25.879,-32.227,-359.863,-415.527
1690053165.428,211.426,-24.414,-37.598,324.219,134.766
1690053165.432,380.371,-22.461,-36.133,588.867,411.621
1690053165.436,-19.043,-21.484,-33.691,-6.836,129.395
1690053165.440,-384.277,-22.461,-28.320,-581.055,-83.496
1690053165.444,-281.250,-24.902,-31.250,-440.918,-265.625
1690053165.447,155.762,-26.367,-37.109,235.840,8.301
1690053165.451,391.602,-31.250,-42.480,610.352,471.680
1690053165.455,36.133,-37.598,-45.898,87.402,174.805
1690053165.459,-375.977,-41.504,-43.945,-571.289,-484.375
1690053165.463,-327.148,-41.504,-44.922,-510.742,-676.758
1690053165.466,88.379,-39.551,-45.410,160.156,-102.051
1690053165.470,383.789,-35.156,-41.016,622.559,765.137
1690053165.474,86.426,-37.598,-40.039,174.805,371.582
1690053165.478,-361.328,-49.805,-40.039,-518.555,-447.266
1690053165.482,-364.746,-49.316,-35.156,-548.340,-451.660
1690053165.486,42.480,-40.527,-28.809,76.172,-64.453
1690053165.490,388.672,-40.039,-28.320,613.281,407.715
1690053165.493,145.508,-38.574,-36.133,257.324,203.125
1690053165.497,-316.895,-40.527,-36.133,-464.844,-256.348
1690053165.501,-376.953,-50.293,-32.715,-585.938,-355.469
1690053165.505,-13.184,-46.387,-33.203,-24.902,-260.254
1690053165.509,371.094,-41.992,-33.691,574.707,296.387
1690053165.511,216.797,-40.527,-32.715,356.934,399.902
1690053165.515,-274.902,-38.086,-28.320,-393.066,-239.258
1690053165.519,-400.879,-39.062,-31.250,-620.117,-660.645
1690053165.523,-42.480,-36.621,-32.227,-89.844,-395.020
1690053165.527,357.910,-37.598,-25.391,559.570,291.504
1690053165.531,186.523,-41.992,-19.531,285.156,403.809
1690053165.535,-269.531,-48.828,-18.555,-402.344,-167.480
1690053165.538,-408.691,-53.223,-20.508,-602.051,-564.941
1690053165.542,-116.211,-47.363,-16.113,-168.945,59.570
1690053165.546,315.430,-41.504,-19.043,513.184,828.613
1690053165.550,295.410,-41.016,-25.391,499.512,560.547
1690053165.554,-179.688,-41.992,-20.508,-232.422,-177.246
1690053165.555,-433.594,-47.363,-22.949,-636.230,-622.070
1690053165.559,-190.430,-48.828,-28.320,-262.207,-494.629
1690053165.563,262.207,-43.945,-29.785,424.805,76.660
1690053165.567,321.289,-41.992,-28.320,530.273,435.547
1690053165.571,-134.277,-49.316,-24.902,-151.367,41.504
1690053165.575,-420.898,-48.340,-25.879,-623.047,-524.414
1690053165.579,-227.539,-41.504,-23.438,-339.844,-491.211
1690053165.582,227.539,-38.574,-18.555,367.188,285.645
1690053165.586,362.793,-42.969,-21.973,593.262,776.855
1690053165.590,-68.359,-47.363,-27.344,-65.430,164.062
1690053165.594,-418.945,-47.852,-23.926,-631.836,-502.930
1690053165.598,-287.109,-50.293,-20.996,-439.941,-406.250
1690053165.602,169.434,-46.387,-25.391,260.742,54.199
1690053165.606,379.395,-41.016,-27.832,599.609,382.324
1690053165.610,-9.766,-39.062,-30.273,14.160,65.430
1690053165.614,-382.812,-35.645,-33.691,-592.773,-496.582
1690053165.618,-309.082,-34.668,-33.203,-479.492,-578.125
1690053165.622,117.188,-45.898,-32.227,189.453,-31.250
1690053165.626,395.996,-43.945,-33.203,596.191,575.195
1690053165.629,53.711,-41.016,-33.691,116.699,642.090
1690053165.633,-373.047,-40.527,-34.180,-544.922,-44.434
1690053165.637,-357.422,-27.344,-34.180,-544.922,-640.137
1690053165.641,55.664,-20.996,-28.320,97.656,-219.238
1690053165.645,388.672,-16.602,-24.902,620.605,515.625
1690053165.645,115.234,-11.230,-26.367,225.098,295.410
1690053165.649,-336.426,-20.020,-25.391,-487.793,-420.410
1690053165.653,-374.512,-23.926,-20.508,-565.918,-554.688
1690053165.657,-0.977,-19.043,-16.602,13.184,-133.789
1690053165.661,384.277,-14.648,-17.578,594.238,372.070
1690053165.665,182.129,-13.672,-21.484,301.758,349.121
1690053165.669,-297.852,-20.996,-16.602,-436.523,-110.840
1690053165.672,-387.207,-28.809,-8.789,-597.168,-183.594
1690053165.676,-56.152,-26.855,-16.113,-80.566,-196.777
1690053165.680,351.074,-28.809,-13.672,556.641,155.273
1690053165.684,230.469,-31.250,-5.859,394.043,392.578
1690053165.688,-261.719,-32.227,-16.602,-366.211,-208.496
1690053165.691,-404.297,-34.180,-24.414,-618.652,-705.566
1690053165.695,-102.051,-31.738,-33.203,-148.926,-394.043
1690053165.699,326.172,-31.250,-32.227,522.461,435.547
1690053165.703,288.086,-37.109,-22.461,477.539,462.402
1690053165.707,-192.871,-42.969,-21.973,-269.043,-218.262
1690053165.711,-418.945,-41.992,-29.297,-642.090,-570.312
1690053165.715,-178.223,-42.480,-37.109,-252.441,-94.238
1690053165.718,276.855,-38.574,-31.738,444.336,469.238
1690053165.722,306.152,-39.062,-26.855,488.770,441.406
1690053165.726,-180.176,-49.316,-28.809,-233.398,-52.246
1690053165.730,-445.312,-51.270,-29.785,-652.344,-288.086
1690053165.734,-246.094,-43.457,-33.203,-361.328,-324.707
1690053165.751,185.059,-42.969,-37.109,322.266,77.637
1690053165.755,299.316,-46.387,-33.203,523.438,458.496
1690053165.759,-146.484,-52.246,-23.926,-155.762,15.625
1690053165.763,-460.938,-52.246,-21.484,-672.852,-560.059
1690053165.767,-295.410,-50.781,-28.809,-435.059,-490.723
1690053165.771,157.227,-51.270,-26.367,263.672,243.652
1690053165.775,353.027,-53.711,-24.414,562.988,881.836
1690053165.778,-55.664,-55.664,-29.785,-47.363,217.285
1690053165.782,-426.758,-55.664,-29.297,-619.629,-596.191
1690053165.786,-318.359,-50.293,-22.461,-463.379,-550.781
1690053165.790,130.371,-41.016,-22.949,219.238,-49.805
1690053165.794,392.090,-39.551,-28.809,612.793,372.070
1690053165.796,43.945,-42.480,-23.926,89.844,138.672
1690053165.800,-357.910,-39.062,-20.020,-558.105,-375.000
1690053165.804,-308.105,-34.180,-19.531,-510.742,-527.344
1690053165.808,95.215,-35.156,-18.555,147.461,-110.840
1690053165.812,400.879,-39.062,-17.578,618.652,434.570
1690053165.816,96.680,-39.551,-8.301,163.574,411.621
1690053165.820,-329.590,-41.992,-6.836,-509.766,-205.078
1690053165.823,-313.965,-41.504,-16.113,-523.438,-504.395
1690053165.827,79.102,-40.527,-23.926,87.891,-43.457
1690053165.831,410.645,-40.527,-26.855,627.930,815.430
1690053165.835,180.176,-41.504,-25.391,305.176,825.684
1690053165.839,-300.781,-44.922,-28.809,-445.801,-222.656
1690053165.841,-368.652,-44.434,-29.785,-577.637,-696.289
1690053165.845,6.836,-38.574,-24.902,1.465,-298.828
1690053165.849,379.395,-38.574,-25.391,585.449,267.578
1690053165.853,229.492,-41.504,-24.902,370.605,284.668
1690053165.857,-259.766,-45.898,-20.508,-371.094,-261.230
1690053165.861,-396.973,-46.387,-26.855,-574.219,-512.695
1690053165.865,-52.734,-36.133,-34.668,-71.777,-247.070
1690053165.868,356.445,-32.227,-37.598,549.316,207.031
1690053165.872,279.297,-37.109,-40.039,455.078,498.047
1690053165.876,-208.496,-37.109,-39.062,-295.410,229.004
1690053165.880,-411.621,-32.715,-41.504,-634.766,-543.457
1690053165.884,-119.141,-35.645,-44.434,-184.570,-498.047
1690053165.885,315.918,-30.762,-43.945,496.582,270.020
1690053165.889,317.383,-26.367,-36.133,499.023,449.707
1690053165.893,-153.320,-33.203,-32.227,-221.680,-184.082
1690053165.897,-402.344,-40.527,-35.156,-625.488,-611.328
1690053165.901,-167.480,-41.016,-34.180,-262.207,-377.930
1690053165.905,264.648,-40.039,-35.156,430.664,250.000
1690053165.909,337.402,-40.039,-35.645,562.012,546.875
1690053165.912,-115.723,-38.574,-32.227,-119.629,127.930
1690053165.916,-414.551,-39.062,-32.227,-599.609,-91.309
1690053165.920,-218.262,-29.297,-36.133,-321.289,-129.395
1690053165.924,236.816,-25.391,-41.504,362.793,32.227
1690053165.928,380.371,-37.109,-38.086,590.820,407.227
1690053165.931,-46.387,-35.156,-33.691,-42.969,124.512
1690053165.935,-400.879,-33.203,-34.668,-602.051,-514.160
1690053165.939,-260.742,-33.691,-35.645,-410.645,-616.699
1690053165.943,188.477,-27.344,-36.621,286.133,-32.715
1690053165.947,397.949,-26.855,-36.133,618.652,448.242
1690053165.951,0.000,-36.133,-34.180,5.859,122.070
1690053165.955,-395.996,-41.504,-34.180,-591.797,-479.492
1690053165.958,-303.711,-37.109,-32.715,-463.867,-398.438
1690053165.962,114.746,-30.762,-35.645,200.195,229.492
1690053165.966,372.070,-24.902,-33.691,625.000,448.730
1690053165.970,68.359,-37.598,-26.367,148.926,168.457
1690053165.974,-354.492,-47.852,-23.926,-533.691,-364.746
1690053165.977,-347.168,-43.945,-22.461,-526.367,-628.906
1690053165.981,55.664,-39.551,-20.508,114.258,-191.406
1690053165.985,377.441,-38.086,-24.902,612.793,540.039
1690053165.989,129.883,-40.039,-28.320,238.281,543.945
1690053165.993,-336.426,-40.527,-34.668,-492.676,-264.648
1690053165.997,-376.465,-34.668,-34.668,-572.754,-560.059
1690053166.001,25.391,-30.273,-28.809,58.594,-73.242
1690053166.004,371.582,-28.320,-24.902,603.027,795.410
1690053166.008,167.480,-25.879,-26.855,304.688,838.867
1690053166.012,-295.410,-26.367,-35.156,-428.223,-241.699
1690053166.016,-384.277,-29.785,-40.039,-598.633,-702.637
1690053166.020,-41.504,-29.297,-37.598,-68.359,-340.820
1690053166.021,357.910,-25.391,-39.551,556.641,199.219
1690053166.025,231.934,-28.809,-39.062,389.160,254.395
1690053166.029,-252.930,-36.133,-40.039,-358.398,-273.926
1690053166.033,-394.043,-34.668,-49.316,-612.793,-592.285
1690053166.037,-92.773,-32.227,-46.387,-146.484,-345.703
1690053166.041,311.523,-35.156,-39.062,496.582,247.559
1690053166.045,267.090,-40.039,-36.621,443.359,677.734
1690053166.048,-203.125,-43.457,-34.180,-272.949,391.113
1690053166.052,-405.273,-38.574,-38.574,-619.629,-434.082
1690053166.056,-149.414,-29.785,-39.062,-225.586,-496.582
1690053166.060,281.250,-25.391,-34.180,461.426,176.270
1690053166.064,325.195,-23.438,-33.691,528.809,400.879
1690053166.065,-138.184,-23.438,-36.133,-175.781,-169.922
1690053166.069,-414.062,-20.508,-31.250,-610.352,-644.531
1690053166.073,-190.430,-21.484,-23.926,-288.574,-379.395
1690053166.077,247.559,-17.578,-24.902,390.625,144.043
1690053166.081,355.957,-20.020,-25.391,574.707,427.734
1690053166.085,-65.918,-29.297,-21.973,-72.266,209.473
1690053166.089,-390.625,-36.621,-13.672,-598.145,-75.195
1690053166.092,-231.445,-31.738,-10.254,-361.328,-255.371
1690053166.096,213.379,-27.832,-17.090,323.242,37.598
1690053166.100,385.742,-36.621,-20.996,602.051,466.797
1690053166.104,0.977,-46.387,-13.672,19.043,415.039
1690053166.108,-371.094,-50.293,-16.113,-580.566,-309.082
1690053166.111,-273.438,-41.992,-20.996,-434.570,-659.668
1690053166.115,156.738,-30.762,-26.855,245.117,-46.875
1690053166.119,392.090,-29.785,-37.109,623.047,476.074
1690053166.123,51.270,-37.598,-37.109,116.211,164.551
1690053166.127,-353.516,-39.551,-31.738,-533.203,-496.582
1690053166.131,-300.293,-38.574,-36.133,-442.871,-420.410
1690053166.135,110.352,-36.621,-38.086,178.223,115.723
1690053166.138,395.508,-27.832,-35.156,608.398,427.734
1690053166.142,123.535,-28.320,-32.227,200.684,200.195
1690053166.146,-315.430,-30.762,-22.949,-484.375,-177.246
1690053166.150,-332.520,-23.926,-24.414,-515.625,-316.895
1690053166.154,60.059,-14.160,-29.297,88.379,-160.645
1690053166.171,390.625,-16.113,-32.715,604.980,363.770
1690053166.175,170.898,-23.438,-25.879,289.551,389.648
1690053166.179,-293.457,-22.949,-22.461,-434.570,-304.199
1690053166.183,-356.445,-20.996,-22.949,-568.848,-691.406
1690053166.187,6.348,-17.578,-28.320,6.836,-264.648
1690053166.191,373.047,-19.531,-34.180,591.309,513.184
1690053166.195,225.098,-23.926,-30.762,371.582,557.129
1690053166.198,-247.070,-24.902,-32.227,-360.352,-164.551
1690053166.202,-376.953,-25.879,-31.250,-587.402,-516.602
1690053166.206,-45.410,-25.391,-27.832,-74.219,51.270
1690053166.210,354.004,-20.996,-34.668,553.711,503.418
1690053166.214,260.742,-26.855,-35.156,438.965,286.621
1690053166.215,-223.145,-34.668,-29.785,-294.434,-103.516
1690053166.219,-409.668,-35.645,-30.273,-610.840,-315.430
1690053166.223,-124.023,-30.762,-34.668,-181.152,-381.348
1690053166.227,301.270,-26.855,-34.668,486.816,65.430
1690053166.231,304.199,-30.762,-29.297,498.535,391.602
1690053166.235,-164.551,-33.691,-22.461,-229.004,-58.105
1690053166.239,-407.227,-29.785,-20.508,-617.188,-533.691
1690053166.242,-180.176,-31.250,-28.809,-269.043,-503.906
1690053166.246,259.766,-36.133,-30.273,407.227,226.562
1690053166.250,338.867,-38.086,-27.832,537.109,676.270
1690053166.254,-121.094,-41.504,-26.855,-155.762,-56.152
1690053166.258,-414.062,-40.527,-29.297,-631.836,-611.328
1690053166.262,-223.145,-31.738,-28.809,-339.844,-360.840
1690053166.266,214.355,-21.973,-33.691,347.168,118.164
1690053166.270,368.652,-26.855,-43.457,574.707,433.105
1690053166.274,-47.852,-41.016,-41.016,-44.434,199.219
1690053166.278,-401.855,-42.969,-31.738,-592.285,-307.617
1690053166.282,-249.512,-39.551,-33.691,-369.141,-437.012
1690053166.286,176.270,-36.621,-36.133,285.645,47.363
1690053166.289,380.371,-32.715,-39.062,593.750,575.195
1690053166.293,19.043,-33.691,-37.109,60.547,610.352
1690053166.297,-384.766,-35.645,-37.109,-573.730,-87.891
1690053166.301,-320.801,-35.645,-38.086,-497.559,-616.699
1690053166.305,98.633,-35.156,-34.668,164.062,-173.340
1690053166.321,362.305,-37.109,-36.133,590.820,354.980
1690053166.325,68.359,-38.086,-33.691,130.371,144.043
1690053166.329,-345.215,-41.016,-35.156,-535.156,-459.473
1690053166.333,-339.355,-41.016,-38.574,-529.297,-607.422
1690053166.337,60.547,-35.156,-39.062,99.609,-156.738
1690053166.341,389.648,-35.156,-41.992,608.887,375.488
1690053166.345,134.277,-42.480,-42.480,240.234,272.461
1690053166.348,-334.473,-50.293,-36.133,-479.004,-82.031
1690053166.352,-379.395,-51.758,-33.691,-567.383,-121.582
1690053166.356,-1.465,-44.434,-36.133,11.719,-183.105
1690053166.360,355.957,-40.527,-35.645,570.801,229.980
1690053166.364,179.688,-44.434,-31.250,316.895,328.613
1690053166.351,-287.109,-42.969,-33.203,-416.992,-353.516
1690053166.355,-392.578,-43.457,-33.203,-601.074,-711.914
1690053166.359,-45.898,-42.969,-28.320,-57.129,-309.082
1690053166.363,350.586,-39.062,-29.785,558.594,375.000
1690053166.367,245.605,-42.480,-29.297,400.391,391.113
1690053166.371,-236.816,-42.480,-25.391,-335.449,-179.199
1690053166.375,-396.484,-38.574,-25.391,-610.352,-431.641
1690053166.378,-85.449,-37.598,-28.809,-144.043,-104.980
1690053166.382,328.613,-29.785,-29.297,510.742,375.000
1690053166.386,294.922,-27.832,-29.785,465.820,508.789
1690053166.390,-179.688,-32.227,-32.715,-262.695,-47.852
1690053166.394,-400.879,-31.250,-32.227,-613.281,-189.453
1690053166.396,-144.531,-23.926,-36.621,-218.750,50.293
1690053166.400,284.668,-20.020,-43.945,444.336,182.129
1690053166.404,334.961,-22.949,-40.039,521.484,308.594
1690053166.408,-121.582,-28.809,-37.109,-178.711,-111.328
1690053166.412,-401.855,-35.156,-39.551,-623.535,-633.301
1690053166.416,-174.316,-33.691,-37.109,-269.043,-549.805
1690053166.420,255.371,-34.668,-27.344,407.715,278.320
1690053166.423,360.352,-38.086,-29.297,576.660,750.977
1690053166.427,-63.477,-35.156,-34.668,-72.266,28.320
1690053166.431,-399.414,-37.109,-29.297,-594.238,-640.625
1690053166.435,-244.141,-36.621,-28.320,-366.699,-455.078
1690053166.439,194.824,-29.297,-33.691,310.059,80.078
1690053166.441,367.188,-29.297,-34.180,592.285,346.680
1690053166.445,-17.090,-34.668,-35.156,7.324,29.297
1690053166.449,-375.000,-33.691,-38.574,-566.895,-439.453
1690053166.453,-282.715,-29.297,-44.922,-442.871,-542.969
1690053166.457,136.230,-32.715,-47.363,218.750,-79.590
1690053166.461,388.184,-38.574,-40.039,624.023,614.258
1690053166.465,52.734,-40.039,-29.785,124.023,637.207
1690053166.468,-359.375,-40.039,-28.809,-525.391,-169.922
1690053166.472,-318.848,-34.668,-29.785,-490.723,-630.859
1690053166.476,95.215,-30.273,-26.367,150.391,-131.836
1690053166.480,390.137,-38.574,-25.879,626.953,655.273
1690053166.484,107.910,-43.945,-34.180,206.055,368.652
1690053166.487,-329.102,-45.410,-32.227,-493.652,-389.648
1690053166.491,-345.215,-41.992,-29.785,-537.109,-525.879
1690053166.495,35.156,-35.156,-35.645,64.941,-87.891
1690053166.499,375.000,-31.250,-37.598,590.820,381.348
1690053166.503,169.922,-31.250,-41.504,285.645,291.992
1690053166.507,-298.828,-33.203,-40.039,-438.477,-201.660
1690053166.511,-373.047,-35.645,-38.574,-582.031,-458.496
1690053166.514,-18.066,-32.227,-43.945,-24.414,-212.402
1690053166.518,351.562,-31.738,-49.805,559.570,309.082
1690053166.522,223.145,-33.691,-46.875,365.234,554.688
1690053166.526,-257.812,-31.250,-43.457,-372.559,18.555
1690053166.530,-401.367,-28.809,-45.410,-618.164,-616.211
1690053166.546,-68.359,-23.926,-41.992,-101.562,-357.910
1690053166.550,329.102,-19.531,-40.527,529.297,275.391
1690053166.554,203.125,-25.391,-41.504,350.586,350.586
1690053166.558,-240.723,-30.273,-40.527,-337.402,-151.367
1690053166.562,-397.949,-31.738,-40.527,-617.676,-555.664
1690053166.566,-123.535,-30.273,-44.434,-204.102,-55.664
1690053166.570,300.293,-22.949,-45.898,475.586,506.348
1690053166.573,300.293,-22.949,-44.922,490.723,434.570
1690053166.577,-161.133,-27.832,-41.504,-218.750,18.066
1690053166.581,-398.438,-28.809,-33.203,-619.629,-215.332
1690053166.585,-175.293,-21.484,-33.203,-275.879,-209.961
1690053166.589,256.348,-17.578,-36.133,412.598,106.934
1690053166.591,343.750,-22.461,-31.250,556.641,372.559
1690053166.595,-102.051,-28.320,-24.902,-122.070,-57.617
1690053166.599,-409.668,-29.785,-28.809,-616.699,-582.031
1690053166.603,-228.516,-28.320,-24.902,-347.656,-540.039
1690053166.607,215.820,-33.203,-21.973,342.285,84.961
1690053166.611,357.422,-37.598,-27.832,583.496,569.824
1690053166.615,-49.805,-36.621,-27.832,-37.598,224.609
1690053166.618,-399.414,-41.992,-26.855,-605.469,-449.219
1690053166.622,-272.949,-44.434,-29.785,-421.387,-375.000
1690053166.626,158.691,-41.992,-30.762,259.277,384.766
1690053166.630,365.234,-34.668,-34.180,587.891,500.977
1690053166.634,17.578,-37.598,-29.785,47.852,77.637
1690053166.635,-369.141,-41.016,-21.484,-570.312,-444.336
1690053166.639,-306.641,-34.180,-21.484,-479.004,-629.395
1690053166.643,111.328,-32.715,-25.879,177.246,-173.828
1690053166.647,382.812,-28.809,-26.855,604.004,396.973
1690053166.651,83.984,-31.250,-20.996,153.320,244.141
1690053166.655,-353.027,-38.574,-20.508,-525.391,-332.520
1690053166.659,-345.215,-33.691,-26.855,-531.250,-471.191
1690053166.662,59.570,-30.762,-29.785,94.727,-29.297
1690053166.666,377.930,-35.645,-32.227,604.492,811.523
1690053166.670,130.371,-35.645,-31.738,254.883,823.242
1690053166.674,-333.984,-34.180,-30.273,-477.051,-274.414
1690053166.678,-385.742,-36.621,-27.832,-583.984,-740.234
1690053166.680,-7.324,-31.250,-27.832,7.324,-292.969
1690053166.684,359.863,-28.320,-31.250,579.102,260.742
1690053166.688,185.059,-36.621,-31.250,320.801,275.391
1690053166.692,-291.016,-43.945,-32.715,-425.293,-281.738
1690053166.696,-399.414,-41.504,-31.738,-613.281,-579.590
1690053166.700,-57.129,-41.992,-33.691,-76.660,-250.977
1690053166.704,335.449,-41.992,-38.086,532.715,325.684
1690053166.707,232.422,-45.898,-36.133,391.113,549.316
1690053166.711,-240.234,-45.410,-31.738,-342.773,151.367
1690053166.715,-405.762,-35.156,-36.621,-631.348,-562.988
1690053166.719,-106.934,-29.297,-34.668,-155.762,-435.059
1690053166.723,317.383,-27.832,-24.902,517.578,415.527
1690053166.725,295.898,-34.668,-23.926,479.492,488.281
1690053166.729,-178.223,-42.480,-25.879,-254.883,-215.820
1690053166.733,-403.809,-41.992,-18.555,-620.117,-633.789
1690053166.737,-153.320,-39.551,-21.484,-232.422,-432.617
1690053166.741,295.410,-28.320,-26.367,454.102,142.578
1690053166.745,346.191,-22.949,-24.902,543.945,479.004
1690053166.749,-134.277,-26.855,-23.926,-168.945,147.461
1690053166.752,-410.156,-29.297,-18.066,-624.023,-12.207
1690053166.756,-193.848,-25.391,-20.020,-312.012,-71.777
1690053166.760,236.328,-26.367,-23.438,363.770,37.109
1690053166.764,351.562,-29.785,-21.484,558.105,371.582
1690053166.768,-62.012,-26.367,-24.414,-72.266,29.297
1690053166.772,-391.602,-30.762,-27.832,-607.422,-550.293
1690053166.776,-237.793,-30.273,-25.391,-393.555,-532.227
1690053166.780,192.383,-23.926,-25.391,293.945,71.289
1690053166.784,374.023,-23.926,-26.367,594.238,523.438
1690053166.788,-6.836,-26.367,-24.414,17.578,83.008
1690053166.792,-399.902,-29.297,-20.508,-576.660,-490.723
1690053166.796,-309.570,-23.926,-24.902,-443.848,-375.488
1690053166.799,120.117,-18.066,-28.320,227.051,89.844
1690053166.803,363.770,-26.367,-24.414,611.328,391.602
1690053166.807,39.551,-41.992,-24.902,114.746,155.273
1690053166.811,-370.117,-53.223,-24.902,-531.250,-306.152
1690053166.815,-331.055,-49.316,-22.461,-495.605,-494.141
1690053166.815,82.520,-36.621,-28.809,137.207,-167.480
1690053166.819,384.766,-36.621,-41.016,617.188,388.184
1690053166.823,121.094,-47.363,-37.109,218.262,298.340
1690053166.827,-326.660,-53.711,-28.320,-492.676,-302.734
1690053166.831,-354.492,-49.316,-28.320,-545.898,-578.613
1690053166.835,33.691,-37.109,-26.367,69.336,-131.836
1690053166.839,383.301,-32.227,-29.297,618.164,812.500
1690053166.842,180.176,-31.738,-29.297,314.941,843.262
1690053166.846,-297.363,-32.715,-23.438,-435.547,-230.957
1690053166.850,-379.883,-35.156,-18.555,-579.590,-653.320
1690053166.854,-27.344,-30.273,-20.508,-12.207,-93.750
1690053166.858,345.703,-30.762,-27.832,573.730,328.613
1690053166.861,219.238,-32.227,-27.832,376.953,244.629
1690053166.865,-254.395,-33.203,-28.320,-364.258,-284.668
1690053166.869,-400.391,-36.621,-29.785,-608.398,-673.340
1690053166.873,-76.172,-28.809,-27.344,-98.633,-412.598
1690053166.877,330.078,-24.414,-29.785,538.086,214.844
1690053166.881,214.355,-29.785,-28.320,380.371,530.273
1690053166.885,-231.445,-34.668,-22.461,-324.219,98.145
1690053166.888,-389.160,-34.668,-20.020,-613.281,-479.492
1690053166.892,-128.906,-32.715,-23.926,-196.289,-464.844
1690053166.896,297.852,-39.062,-28.809,484.863,339.355
1690053166.900,312.500,-48.828,-31.250,522.949,721.191
1690053166.904,-153.809,-47.363,-26.367,-195.801,-71.289
1690053166.921,-414.062,-45.410,-24.902,-623.535,-644.531
1690053166.925,-184.082,-43.945,-24.414,-267.578,-440.430
1690053166.929,258.301,-39.062,-25.879,419.434,132.324
1690053166.933,354.980,-36.133,-31.250,563.477,380.371
1690053166.937,-72.754,-35.645,-32.715,-96.680,-18.555
1690053166.941,-384.766,-37.598,-34.180,-600.098,-422.363
1690053166.945,-208.008,-35.645,-35.156,-343.750,-392.578
1690053166.948,220.215,-42.480,-31.250,347.168,83.984
1690053166.952,374.512,-65.430,-25.879,599.121,566.406
1690053166.956,-10.742,-54.199,-23.438,-4.883,547.852
1690053166.960,-369.629,-54.688,-27.832,-583.496,-64.941
1690053166.964,-263.184,-48.828,-32.227,-418.945,-551.270
1690053166.966,155.273,-31.250,-37.598,265.137,-109.375
1690053166.970,382.812,-40.039,-44.434,621.582,383.301
1690053166.974,42.969,-46.387,-39.062,88.379,43.945
1690053166.978,-367.676,-44.434,-27.344,-557.129,-567.383
1690053166.982,-306.641,-43.945,-24.902,-481.445,-650.391
1690053166.986,144.043,-42.969,-30.762,229.980,12.207
1690053166.990,392.578,-38.574,-33.691,637.207,551.270
1690053166.993,79.102,-37.598,-32.227,154.297,243.164
1690053166.997,-331.055,-32.715,-26.855,-508.789,-248.535
1690053167.001,-335.938,-25.879,-28.320,-533.691,-347.656
1690053167.005,53.711,-26.367,-34.668,77.637,-200.684
1690053167.009,389.160,-27.832,-35.156,603.516,366.211
1690053167.011,142.578,-37.109,-37.109,250.000,463.867
1690053167.015,-318.848,-39.551,-37.109,-466.797,-265.625
1690053167.019,-374.512,-30.762,-32.227,-574.219,-624.023
1690053167.023,-2.930,-32.227,-34.668,10.254,-197.266
1690053167.027,371.094,-38.086,-41.504,598.145,413.086
1690053167.031,171.387,-42.969,-42.969,300.293,406.738
1690053167.035,-281.738,-43.457,-38.574,-414.062,-162.598
1690053167.038,-385.254,-37.598,-39.062,-588.867,-506.348
1690053167.042,-66.406,-38.086,-37.598,-75.684,136.719
1690053167.046,343.262,-40.527,-34.668,558.594,722.168
1690053167.050,237.305,-42.480,-38.574,406.250,375.977
1690053167.054,-249.023,-46.875,-38.574,-341.797,-261.719
1690053167.057,-416.992,-51.758,-34.668,-629.883,-663.574
1690053167.061,-112.305,-45.898,-24.902,-166.992,-402.832
1690053167.065,316.895,-35.645,-24.414,511.230,182.617
1690053167.069,286.621,-41.016,-25.391,488.770,417.480
1690053167.073,-181.641,-49.316,-22.949,-243.652,-10.742
1690053167.077,-363.770,-47.363,-26.855,-553.711,-482.422
1690053167.081,-140.625,-47.363,-29.297,-209.473,-396.973
1690053167.084,246.094,-46.875,-26.855,419.922,250.977
1690053167.088,306.641,-43.945,-20.996,525.879,572.754
1690053167.092,-141.113,-45.898,-25.879,-171.875,-23.438
1690053167.096,-416.992,-45.410,-32.227,-628.906,-601.074
1690053167.100,-215.820,-42.480,-34.668,-329.590,-347.656
1690053167.101,220.215,-42.969,-42.969,353.516,254.883
1690053167.105,349.609,-46.875,-40.039,569.824,448.730
1690053167.109,-66.895,-43.457,-35.156,-61.035,64.453
1690053167.113,-407.227,-37.598,-34.668,-603.516,-448.730
1690053167.117,-268.066,-39.062,-33.691,-400.391,-432.617
1690053167.121,169.922,-41.016,-37.109,287.109,89.844
1690053167.125,364.746,-39.062,-37.598,603.516,539.551
1690053167.128,-3.418,-45.898,-36.621,40.039,646.484
1690053167.132,-373.047,-48.340,-35.645,-565.918,151.367
1690053167.136,-298.340,-40.527,-41.504,-459.961,-493.652
1690053167.140,113.281,-32.227,-39.551,202.148,-172.852
1690053167.144,381.348,-25.879,-33.691,609.863,410.156
1690053167.145,71.777,-27.344,-34.180,126.465,153.809
1690053167.149,-354.980,-29.785,-28.320,-536.621,-462.402
1690053167.153,-324.219,-25.879,-21.484,-507.324,-617.676
1690053167.157,88.867,-27.344,-27.832,132.812,-170.410
1690053167.161,385.254,-32.227,-35.645,606.934,365.234
1690053167.165,83.008,-32.715,-31.250,157.227,245.117
1690053167.169,-337.891,-35.156,-23.438,-502.930,-145.996
1690053167.172,-345.215,-35.645,-23.926,-538.086,-149.414
1690053167.176,22.461,-28.320,-28.320,34.180,-135.254
1690053167.180,375.977,-28.320,-28.320,592.773,240.234
1690053167.184,187.988,-30.762,-23.926,311.523,358.887
1690053167.188,-281.250,-34.180,-21.484,-430.664,-284.180
1690053167.190,-378.906,-36.133,-23.438,-604.980,-702.148
1690053167.194,-30.762,-34.180,-23.438,-49.316,-302.734
1690053167.198,354.980,-36.621,-25.879,559.082,435.059
1690053167.202,231.445,-42.480,-20.996,382.812,431.152
1690053167.206,-251.465,-46.387,-19.043,-356.445,-201.172
1690053167.210,-393.555,-50.293,-21.484,-615.234,-518.066
1690053167.214,-83.984,-46.875,-27.344,-124.512,-6.836
1690053167.217,319.824,-42.969,-34.180,520.508,472.656
1690053167.221,274.902,-45.410,-31.250,452.148,425.781
1690053167.225,-201.660,-53.711,-27.344,-280.273,-13.672
1690053167.229,-413.086,-51.270,-20.996,-621.582,-236.816
1690053167.233,-144.043,-41.992,-23.438,-213.867,-201.172
1690053167.235,286.133,-42.480,-31.250,457.520,144.531
1690053167.239,310.059,-45.410,-36.133,514.160,395.020
1690053167.243,-151.855,-46.387,-36.133,-192.871,-55.176
1690053167.247,-414.551,-41.504,-33.691,-628.906,-604.004
1690053167.251,-183.594,-40.527,-33.203,-298.340,-560.547
1690053167.255,250.488,-40.039,-36.133,408.203,209.473
1690053167.259,331.543,-39.551,-41.504,567.383,635.254
1690053167.262,-96.191,-44.922,-36.133,-106.934,29.297
1690053167.266,-408.691,-49.316,-29.785,-625.000,-589.355
1690053167.270,-250.977,-49.316,-31.250,-373.535,-403.320
1690053167.274,184.570,-40.527,-32.715,320.312,175.293
1690053167.278,360.352,-34.668,-35.156,595.703,392.578
1690053167.295,-21.484,-39.551,-29.297,3.418,18.066
1690053167.299,-389.160,-40.527,-21.973,-593.750,-398.438
1690053167.303,-283.203,-31.738,-26.367,-441.895,-517.090
1690053167.307,142.578,-28.320,-30.273,235.352,-85.938
1690053167.311,354.980,-31.738,-31.250,580.078,438.965
1690053167.315,31.250,-32.227,-29.785,83.496,281.738
1690053167.319,-365.234,-33.691,-26.855,-549.316,-308.105
1690053167.322,-317.383,-32.227,-28.320,-498.047,-529.297
1690053167.326,100.098,-27.344,-36.133,154.785,-22.949
1690053167.330,391.602,-29.785,-41.016,616.699,809.082
1690053167.334,103.027,-33.203,-44.922,173.340,573.730
1690053167.338,-345.215,-33.203,-40.039,-522.461,-358.887
1690053167.341,-355.957,-33.691,-32.227,-553.711,-595.703
1690053167.345,36.621,-31.738,-28.320,59.570,-129.883
1690053167.349,372.070,-29.785,-30.273,592.285,422.852
1690053167.353,144.043,-30.273,-33.203,249.512,250.977
1690053167.357,-314.453,-29.785,-32.227,-463.867,-294.434
1690053167.361,-381.836,-25.391,-31.250,-579.590,-464.844
1690053167.365,-27.344,-24.414,-31.250,-20.020,-216.797
1690053167.368,342.773,-26.855,-33.203,567.871,215.820
1690053167.372,177.734,-36.133,-38.086,338.379,354.004
1690053167.376,-296.875,-45.898,-38.574,-405.762,-57.129
1690053167.380,-405.762,-40.039,-34.180,-627.930,-670.898
1690053167.384,-78.613,-32.715,-31.250,-114.258,-451.172
1690053167.386,330.078,-31.250,-25.879,537.109,283.691
1690053167.390,251.953,-37.109,-26.367,424.805,358.398
1690053167.394,-223.633,-40.039,-28.809,-324.219,-256.348
1690053167.398,-403.320,-37.109,-21.484,-631.836,-657.715
1690053167.402,-124.023,-40.527,-21.484,-183.105,-315.430
1690053167.406,298.828,-37.598,-27.344,487.305,274.414
1690053167.410,304.688,-32.715,-22.949,495.605,507.812
1690053167.413,-166.504,-41.504,-22.461,-230.469,15.625
1690053167.417,-407.715,-43.457,-19.043,-622.070,-210.938
1690053167.421,-161.621,-31.738,-20.996,-248.047,20.020
1690053167.425,268.555,-28.320,-28.809,427.734,218.750
1690053167.429,339.355,-29.785,-27.832,541.504,423.340
1690053167.431,-101.562,-32.227,-23.438,-142.578,-4.883
1690053167.435,-400.391,-34.180,-20.996,-620.117,-577.148
1690053167.439,-220.215,-29.297,-18.555,-333.984,-555.176
1690053167.443,223.633,-26.367,-23.926,363.281,29.297
1690053167.447,358.887,-25.391,-27.344,590.820,451.660
1690053167.451,-75.684,-34.180,-21.484,-61.035,157.715
1690053167.455,-400.391,-39.551,-18.555,-604.004,-383.789
1690053167.458,-259.277,-35.645,-20.508,-393.066,-350.098
1690053167.462,171.875,-36.621,-15.137,291.992,386.719
1690053167.466,380.859,-38.574,-10.742,617.676,580.078
1690053167.470,8.789,-43.457,-13.184,56.152,34.180
1690053167.474,-375.488,-43.945,-17.578,-566.406,-481.934
1690053167.476,-302.734,-41.016,-22.949,-479.492,-606.445
1690053167.480,112.793,-41.016,-25.391,185.059,-165.039
1690053167.484,374.023,-40.527,-18.555,613.770,361.328
1690053167.488,56.152,-42.969,-16.602,134.766,173.828
1690053167.492,-346.680,-44.434,-17.578,-519.043,-458.984
1690053167.496,-329.590,-46.875,-19.043,-511.230,-641.602
1690053167.500,57.129,-44.434,-22.949,109.863,-51.758
1690053167.503,395.508,-42.480,-14.160,641.602,863.281
1690053167.507,137.695,-42.969,-12.207,256.348,668.457
1690053167.511,-330.566,-46.387,-22.949,-479.004,-297.852
1690053167.515,-361.328,-49.805,-25.391,-567.871,-565.430
1690053167.519,13.184,-47.363,-24.902,16.602,-47.852
1690053167.520,361.328,-42.969,-29.297,587.402,402.832
1690053167.524,177.734,-44.434,-29.785,319.824,228.516
1690053167.528,-295.410,-51.758,-27.832,-427.734,-315.918
1690053167.532,-393.555,-50.293,-26.855,-613.281,-597.168
1690053167.536,-41.504,-45.410,-25.391,-70.312,-293.945
1690053167.540,353.516,-39.062,-23.926,557.617,376.465
1690053167.544,239.746,-42.969,-25.391,406.738,674.805
1690053167.547,-244.629,-49.805,-27.344,-346.680,184.570
1690053167.551,-399.902,-47.852,-27.832,-622.559,-570.312
1690053167.555,-90.332,-47.852,-30.762,-139.160,-456.055
1690053167.559,324.707,-46.387,-29.785,514.648,265.625
1690053167.563,286.621,-41.992,-27.344,472.168,486.816
1690053167.567,-187.500,-38.574,-30.273,-259.277,-56.641
1690053167.571,-398.926,-35.645,-24.902,-612.793,-581.055
1690053167.575,-134.766,-32.715,-14.160,-201.172,-254.395
1690053167.579,292.480,-27.832,-20.508,480.957,278.320
1690053167.583,325.684,-25.391,-26.855,542.969,390.625
1690053167.587,-132.812,-30.762,-28.320,-176.270,67.871
1690053167.591,-406.738,-34.668,-33.691,-621.094,-94.727
1690053167.594,-190.918,-36.621,-38.574,-306.152,-111.328
1690053167.598,251.465,-33.691,-37.109,382.812,152.344
1690053167.602,351.562,-32.227,-32.227,574.219,483.398
1690053167.606,-73.242,-39.551,-28.809,-83.008,309.570
1690053167.610,-401.367,-40.039,-32.715,-622.559,-396.973
1690053167.625,-258.789,-45.410,-35.156,-402.832,-604.004
1690053167.629,190.430,-44.434,-33.203,301.270,-9.766
1690053167.633,371.582,-37.598,-34.668,599.609,512.207
1690053167.637,-20.996,-40.039,-29.785,-0.488,116.699
1690053167.641,-391.602,-40.039,-29.297,-604.980,-600.098
1690053167.645,-296.387,-38.086,-33.691,-468.750,-417.969
1690053167.649,140.137,-36.133,-30.273,217.773,445.801
1690053167.652,379.395,-35.645,-32.227,602.051,626.953
1690053167.656,42.480,-46.387,-37.598,79.590,123.047
1690053167.660,-363.281,-55.664,-39.062,-579.102,-371.094
1690053167.664,-317.871,-50.781,-36.621,-523.438,-611.816
1690053167.668,102.051,-45.410,-38.086,131.836,-254.395
1690053167.701,402.832,-40.039,-35.645,603.027,344.238
1690053167.705,116.211,-48.340,-30.762,188.965,317.871
1690053167.709,-349.121,-51.270,-25.879,-515.625,-314.941
1690053167.713,-362.793,-42.969,-27.344,-558.594,-646.973
1690053167.717,27.832,-40.527,-31.250,61.523,-148.926
1690053167.721,348.145,-36.621,-28.320,584.961,656.250
1690053167.725,146.973,-36.621,-26.855,270.020,539.551
1690053167.728,-319.336,-38.086,-28.809,-466.309,-197.754
1690053167.732,-398.926,-36.621,-19.043,-611.328,-514.648
1690053167.736,-26.367,-35.156,-9.277,-26.367,141.602
1690053167.740,337.891,-34.180,-14.648,562.988,727.539
1690053167.744,189.453,-38.086,-21.484,346.680,365.723
1690053167.705,-283.691,-40.039,-19.531,-395.508,-307.129
1690053167.709,-414.062,-40.039,-20.020,-635.254,-647.461
1690053167.713,-79.590,-40.039,-24.902,-124.512,-355.957
1690053167.717,316.406,-36.621,-27.344,523.926,256.348
1690053167.721,237.793,-38.574,-25.879,426.758,438.965
1690053167.725,-232.910,-47.363,-20.020,-335.449,-104.004
1690053167.729,-400.879,-53.223,-21.973,-635.254,-539.062
1690053167.732,-125.977,-51.270,-23.926,-204.590,-301.270
1690053167.736,289.551,-44.922,-22.949,456.055,338.379
1690053167.740,291.016,-43.457,-25.879,481.445,512.695
1690053167.744,-178.223,-49.805,-27.832,-243.164,-89.844
1690053167.748,-423.340,-51.758,-28.809,-656.250,-589.844
1690053167.761,-189.941,-44.434,-32.715,-304.199,-376.953
1690053167.765,248.047,-40.527,-42.969,399.902,168.945
1690053167.769,329.590,-46.387,-49.805,540.527,402.832
1690053167.773,-114.258,-49.805,-41.992,-146.484,-73.730
1690053167.777,-410.645,-49.316,-33.203,-626.953,-294.434
1690053167.781,-218.750,-39.062,-28.809,-314.941,79.590
1690053167.785,214.844,-27.832,-28.809,345.703,274.414
1690053167.788,368.164,-28.320,-31.250,577.148,521.484
1690053167.792,-31.738,-34.668,-22.461,-29.785,494.141
1690053167.796,-385.742,-37.109,-20.996,-609.375,-206.543
1690053167.800,-261.230,-33.203,-28.809,-429.688,-627.930
1690053167.804,170.410,-29.297,-25.391,262.207,-104.004
1690053167.805,391.113,-25.391,-24.902,614.746,482.422
1690053167.809,43.945,-26.367,-29.297,76.172,85.938
1690053167.813,-359.863,-30.762,-27.832,-568.359,-573.242
1690053167.817,-288.086,-32.227,-24.414,-474.121,-640.137
1690053167.821,132.324,-28.809,-26.367,196.289,-130.371
1690053167.825,383.789,-25.391,-26.855,604.004,446.289
1690053167.829,87.891,-35.645,-30.273,163.574,225.586
1690053167.832,-343.262,-38.086,-25.879,-511.719,-313.965
1690053167.836,-337.402,-32.227,-20.508,-519.043,-346.191
1690053167.840,62.988,-27.832,-31.738,108.398,-127.441
1690053167.844,384.766,-27.344,-32.227,614.258,336.426
1690053167.848,148.438,-31.738,-24.414,263.184,354.980
1690053167.851,-312.988,-37.109,-24.902,-464.844,-306.152
1690053167.855,-355.957,-35.645,-23.926,-561.523,-612.305
1690053167.859,17.090,-32.227,-25.391,25.391,-188.477
1690053167.863,374.023,-34.180,-31.250,601.562,476.562
1690053167.867,205.566,-36.133,-35.645,349.121,414.551
1690053167.871,-282.227,-33.203,-35.645,-413.086,-244.141
1690053167.875,-386.719,-27.344,-40.039,-608.398,-557.617
1690053167.878,-37.109,-26.855,-37.109,-55.664,118.652
1690053167.882,348.633,-29.785,-33.203,563.965,707.520
1690053167.886,250.000,-34.180,-32.227,412.598,309.570
1690053167.890,-228.516,-43.945,-26.855,-334.473,-302.734
1690053167.894,-394.043,-46.875,-30.762,-621.094,-621.094
1690053167.897,-87.891,-38.086,-32.715,-147.461,-452.148
1690053167.901,319.824,-34.180,-31.738,512.695,129.395
1690053167.905,286.621,-36.621,-35.645,478.516,489.746
1690053167.909,-187.500,-34.668,-34.180,-253.906,-38.086
1690053167.913,-407.715,-29.785,-26.855,-626.953,-649.902
1690053167.917,-144.043,-24.902,-29.297,-233.887,-426.758
1690053167.921,288.574,-19.043,-27.832,451.172,403.320
1690053167.924,336.914,-21.973,-24.902,543.457,879.883
1690053167.928,-122.070,-28.320,-30.762,-160.156,74.219
1690053167.932,-400.879,-29.785,-24.414,-620.605,-648.438
1690053167.936,-192.383,-31.250,-19.531,-306.152,-476.562
1690053167.940,225.586,-29.297,-24.902,381.348,85.449
1690053167.941,344.727,-29.297,-28.320,585.449,435.547
1690053167.945,-71.289,-34.668,-31.738,-61.523,39.062
1690053167.949,-406.250,-33.691,-28.320,-606.934,-492.676
1690053167.953,-249.512,-32.715,-19.043,-377.441,-507.812
1690053167.957,184.570,-32.715,-20.020,303.711,-5.371
1690053167.961,376.465,-34.668,-25.879,604.492,536.621
1690053167.965,6.836,-36.621,-22.949,43.945,543.457
1690053167.968,-387.695,-39.062,-21.484,-582.031,-159.180
1690053167.972,-300.781,-40.527,-25.391,-463.867,-510.742
1690053167.976,122.559,-43.457,-30.762,216.797,-113.281
1690053167.980,368.164,-45.410,-29.785,619.629,680.176
1690053167.984,42.480,-43.945,-29.785,119.629,421.875
1690053167.986,-376.953,-47.363,-35.645,-560.547,-485.352
1690053167.990,-338.867,-48.340,-31.738,-530.762,-648.438
1690053167.994,70.312,-40.527,-26.855,124.512,-157.227
1690053167.998,367.188,-38.086,-28.809,614.258,378.906
1690053168.002,100.586,-41.504,-23.926,209.961,204.590
1690053168.006,-347.656,-41.992,-17.578,-500.977,-224.121
1690053168.010,-354.004,-47.363,-15.137,-495.117,-399.902
1690053168.013,18.066,-45.410,-19.531,76.660,-183.594
1690053168.017,348.145,-41.016,-27.832,588.867,312.500
1690053168.021,158.203,-44.434,-21.484,306.641,381.836
1690053168.025,-311.523,-47.852,-17.090,-452.637,-201.172
1690053168.029,-387.695,-47.852,-18.066,-603.516,-676.758
1690053168.045,-25.391,-41.504,-14.160,-37.598,-278.809
1690053168.049,343.750,-37.598,-18.066,565.430,532.227
1690053168.053,217.773,-38.086,-21.484,376.465,491.211
1690053168.057,-254.883,-37.598,-19.531,-375.000,-284.180
1690053168.061,-405.273,-41.016,-18.555,-622.070,-610.840
1690053168.065,-81.543,-39.551,-18.555,-119.629,-166.992
1690053168.069,326.172,-33.203,-21.484,527.832,411.133
1690053168.072,279.297,-39.551,-20.020,456.055,474.609
1690053168.076,-189.453,-47.852,-14.160,-291.016,-91.309
1690053168.080,-406.250,-42.480,-9.766,-619.141,-277.832
1690053168.084,-139.648,-35.156,-16.602,-188.477,37.598
1690053168.088,287.598,-26.855,-23.438,474.121,191.895
1690053168.092,308.105,-31.250,-18.555,518.555,327.148
1690053168.096,-147.461,-35.156,-18.066,-193.848,-8.301
1690053168.100,-407.227,-33.691,-21.973,-632.324,-591.797
1690053168.104,-186.523,-39.062,-24.902,-294.434,-509.766
1690053168.108,252.930,-37.109,-26.855,414.551,148.438
1690053168.112,325.195,-33.691,-29.297,541.992,543.945
1690053168.116,-93.750,-40.527,-33.691,-118.164,116.699
1690053168.119,-390.137,-43.457,-39.062,-604.492,-547.363
1690053168.123,-227.539,-38.086,-30.762,-366.211,-406.738
1690053168.127,212.402,-34.668,-35.156,330.566,335.449
1690053168.131,366.211,-31.250,-46.875,591.797,470.703
1690053168.135,-32.227,-30.762,-40.039,-20.508,-6.348
1690053168.135,-386.719,-31.738,-29.785,-591.309,-445.312
1690053168.139,-279.785,-30.273,-29.297,-440.430,-491.211
1690053168.143,139.160,-33.691,-37.598,233.398,-86.914
1690053168.147,365.723,-41.992,-35.156,609.375,419.434
1690053168.151,17.090,-46.387,-25.879,77.148,299.316
1690053168.155,-386.230,-41.504,-25.879,-571.289,-378.418
1690053168.159,-332.520,-36.133,-24.414,-503.418,-551.758
1690053168.162,84.961,-30.762,-25.879,161.133,20.020
1690053168.166,377.930,-25.391,-28.809,629.883,852.539
1690053168.170,90.820,-31.738,-26.367,190.918,787.109
1690053168.174,-354.004,-38.086,-26.855,-523.926,-276.367
1690053168.178,-360.352,-36.621,-26.855,-551.758,-687.012
1690053168.181,43.945,-33.691,-23.438,78.125,-202.148
1690053168.185,375.977,-28.809,-30.762,599.121,322.754
1690053168.189,140.137,-29.785,-31.250,260.254,206.543
1690053168.193,-317.383,-37.598,-22.461,-462.402,-246.094
1690053168.197,-373.047,-39.062,-18.555,-573.730,-431.152
1690053168.201,-14.648,-35.645,-11.719,-0.488,-159.668
1690053168.205,351.074,-36.133,-9.277,577.148,414.551
1690053168.208,203.613,-37.109,-11.719,354.492,524.902
1690053168.212,-264.160,-33.203,-10.254,-387.207,57.129
1690053168.216,-383.789,-31.250,-22.461,-615.234,-571.289
1690053168.220,-55.664,-34.668,-29.785,-100.586,-419.922
1690053168.224,341.309,-35.645,-22.461,542.480,294.922
1690053168.225,258.301,-40.039,-21.484,423.340,338.867
1690053168.229,-215.820,-43.457,-21.484,-328.613,-269.531
1690053168.233,-396.973,-38.086,-22.949,-634.277,-662.109
1690053168.237,-108.398,-35.645,-23.438,-180.664,-365.234
1690053168.241,317.871,-34.180,-24.414,495.117,255.371
1690053168.245,304.199,-38.086,-29.785,499.512,433.105
1690053168.249,-168.945,-39.062,-29.297,-233.398,8.789
1690053168.252,-404.785,-41.504,-20.996,-629.883,-73.730
1690053168.256,-171.387,-39.062,-18.066,-263.672,25.391
1690053168.260,267.090,-30.762,-24.414,426.270,125.000
1690053168.264,334.473,-28.320,-31.250,540.039,372.070
1690053168.268,-112.305,-33.691,-33.203,-158.691,22.461
1690053168.271,-403.809,-34.668,-30.273,-635.742,-571.777
1690053168.275,-229.004,-31.250,-30.273,-359.863,-583.496
1690053168.279,210.938,-31.738,-28.809,349.121,77.148
1690053168.283,354.980,-37.109,-38.086,580.078,630.859
1690053168.287,-62.500,-47.852,-35.156,-79.102,153.809
1690053168.291,-396.484,-51.270,-15.625,-626.953,-501.953
1690053168.295,-260.742,-40.039,-9.277,-432.617,-388.672
1690053168.298,180.176,-31.250,-14.648,258.789,341.797
1690053168.302,372.070,-31.738,-18.066,583.496,564.453
1690053168.306,-6.348,-35.156,-11.230,4.883,23.438
1690053168.310,-385.254,-31.250,-14.160,-610.840,-401.367
1690053168.314,-311.523,-23.926,-27.832,-512.695,-487.305
1690053168.315,110.352,-22.461,-35.645,152.344,-149.414
1690053168.319,384.277,-27.344,-21.973,575.195,391.602
1690053168.323,66.406,-35.645,-10.742,80.078,265.137
1690053168.327,-358.887,-34.668,-15.625,-605.957,-383.789
1690053168.331,-333.008,-28.320,-14.648,-591.797,-681.641
1690053168.335,63.965,-20.508,-15.137,75.684,-162.109
1690053168.339,378.418,-20.996,-19.043,569.336,753.906
1690053168.342,128.418,-24.902,-17.090,164.062,603.027
1690053168.346,-327.637,-30.273,-18.066,-558.594,-262.695
1690053168.350,-359.375,-35.645,-22.461,-641.602,-562.988
1690053168.354,24.414,-35.156,-21.484,-28.809,147.949
1690053168.358,369.629,-34.668,-21.973,529.785,589.355
1690053168.361,180.664,-34.668,-22.949,245.605,245.605
1690053168.365,-301.758,-36.621,-23.438,-503.906,-309.570
1690053168.369,-396.484,-36.133,-32.715,-667.969,-641.113
1690053168.373,-33.691,-31.738,-33.691,-96.680,-344.238
1690053168.377,354.492,-27.344,-26.367,531.738,278.320
1690053168.381,249.023,-30.762,-23.438,362.305,566.406
1690053168.385,-226.074,-41.504,-27.344,-400.391,101.562
1690053168.388,-395.996,-38.086,-28.320,-679.199,-568.848
1690053168.392,-84.961,-32.227,-30.762,-182.617,-407.227
1690053168.396,327.148,-35.156,-40.527,494.141,336.426
1690053168.400,280.762,-33.691,-44.434,436.035,502.930
1690053168.404,-200.195,-39.551,-48.340,-332.520,-205.078
1690053168.421,-422.852,-44.434,-47.363,-707.031,-667.480
1690053168.425,-155.762,-39.062,-40.527,-285.645,-235.840
1690053168.429,275.879,-37.109,-39.062,414.551,292.969
1690053168.433,307.129,-40.039,-40.527,479.492,372.070
1690053168.437,-146.484,-48.828,-38.574,-233.887,-41.992
1690053168.441,-407.227,-50.293,-38.086,-666.504,-372.070
1690053168.445,-204.102,-41.992,-35.156,-347.656,-316.895
1690053168.448,242.188,-36.133,-33.203,358.398,114.746
1690053168.452,357.422,-32.715,-41.992,552.734,467.285
1690053168.456,-76.172,-38.086,-36.133,-106.445,341.309
1690053168.460,-406.250,-41.016,-28.809,-643.555,-273.438
1690053168.464,-258.301,-39.062,-26.855,-417.480,-623.047
1690053168.466,194.336,-33.691,-22.949,301.758,-67.871
1690053168.470,380.859,-31.738,-25.879,602.051,398.926
1690053168.474,-11.719,-38.574,-22.461,-36.621,59.082
1690053168.478,-368.164,-37.598,-23.926,-612.793,-458.496
1690053168.482,-276.367,-30.273,-26.855,-447.266,-435.059
1690053168.486,151.855,-33.203,-25.879,261.230,155.762
1690053168.490,389.160,-42.480,-32.227,647.949,549.805
1690053168.493,41.504,-52.246,-37.598,99.121,182.129
1690053168.497,-368.164,-51.758,-31.250,-554.688,-306.152
1690053168.501,-329.590,-42.480,-24.902,-501.465,-359.863
1690053168.505,79.590,-36.621,-27.344,156.250,-129.395
1690053168.509,383.301,-36.133,-18.555,640.137,371.094
1690053168.511,106.445,-38.086,-14.648,220.215,411.133
1690053168.515,-339.355,-43.457,-22.949,-494.141,-283.203
1690053168.519,-351.074,-41.016,-21.973,-548.828,-686.523
1690053168.523,50.781,-30.273,-26.855,93.262,-199.707
1690053168.527,401.855,-25.879,-29.297,649.902,478.516
1690053168.531,103.516,-27.832,-27.832,204.102,341.309
1690053168.535,-332.520,-33.691,-24.902,-482.422,-254.395
1690053168.538,-364.746,-43.945,-24.902,-548.828,-501.465
1690053168.542,-29.297,-43.457,-26.855,3.418,204.590
1690053168.546,366.211,-37.598,-23.926,630.371,924.805
1690053168.550,217.773,-38.086,-26.367,402.832,459.473
1690053168.554,-272.949,-44.434,-20.996,-370.117,-348.145
1690053168.555,-403.320,-47.852,-16.602,-603.027,-690.918
1690053168.559,-76.172,-44.434,-20.508,-75.195,-427.734
1690053168.563,330.566,-39.551,-22.461,583.008,179.688
1690053168.567,261.230,-40.039,-29.785,487.793,343.262
1690053168.571,-217.773,-42.480,-35.156,-275.879,-181.152
1690053168.575,-404.297,-39.062,-29.785,-611.328,-524.902
1690053168.579,-126.953,-33.691,-24.414,-164.062,-271.484
1690053168.582,295.898,-33.203,-21.484,521.484,416.016
1690053168.586,306.152,-36.133,-24.414,548.340,834.473
1690053168.590,-151.367,-36.133,-28.320,-198.730,7.812
1690053168.594,-388.184,-38.086,-24.902,-624.512,-695.801
1690053168.598,-152.344,-35.645,-16.602,-246.582,-388.184
1690053168.601,273.926,-30.762,-13.672,457.520,176.758
1690053168.605,339.844,-34.180,-17.578,593.750,353.027
1690053168.609,-106.445,-42.969,-16.602,-89.844,-49.316
1690053168.613,-403.809,-41.016,-16.113,-586.426,-490.723
1690053168.617,-235.352,-29.785,-14.160,-314.941,-480.469
1690053168.621,201.660,-26.367,-10.254,390.625,91.797
1690053168.625,352.539,-33.203,-15.137,639.160,607.910
1690053168.628,-56.152,-37.109,-13.672,9.277,585.938
1690053168.632,-399.902,-34.180,-25.391,-575.684,-76.660
1690053168.636,-270.508,-29.297,-41.504,-409.180,-555.664
1690053168.640,159.668,-28.809,-37.109,291.016,-10.742
1690053168.644,372.559,-33.203,-29.297,648.438,576.660
1690053168.647,20.020,-37.598,-24.902,91.797,144.531
1690053168.651,-380.859,-43.457,-29.785,-556.641,-597.656
1690053168.655,-320.801,-39.551,-25.879,-471.680,-651.855
1690053168.659,93.750,-34.668,-26.855,203.125,-72.754
1690053168.663,378.418,-30.273,-26.855,651.367,376.465
1690053168.667,73.242,-31.738,-19.531,187.012,168.457
1690053168.671,-366.699,-37.109,-19.531,-516.602,-230.957
1690053168.674,-344.727,-35.156,-19.531,-530.762,-216.309
1690053168.678,52.734,-36.621,-24.902,103.516,-99.609
1690053168.682,373.535,-33.691,-31.738,626.953,299.805
1690053168.686,139.160,-35.645,-33.203,265.625,352.051
1690053168.690,-329.590,-43.457,-29.785,-482.910,-310.547
1690053168.707,-379.883,-41.992,-26.367,-592.285,-638.672
1690053168.711,9.766,-32.715,-22.949,20.508,-131.348
1690053168.715,373.047,-31.250,-25.391,612.793,534.668
1690053168.719,201.172,-38.086,-37.598,343.262,409.668
1690053168.723,-279.785,-37.598,-37.109,-423.340,-330.566
1690053168.727,-376.953,-30.762,-28.320,-594.727,-568.848
1690053168.731,-36.621,-27.832,-27.832,-53.223,136.719
1690053168.734,345.215,-24.414,-29.297,565.430,723.145
1690053168.738,239.746,-27.832,-23.438,406.738,381.836
1690053168.742,-238.770,-43.457,-15.137,-351.562,-269.043
1690053168.746,-399.414,-47.852,-8.789,-627.441,-430.664
1690053168.750,-89.844,-43.945,-7.812,-145.996,-295.410
1690053168.736,321.777,-46.875,-16.113,526.367,192.871
1690053168.740,293.945,-48.828,-15.137,502.441,431.641
1690053168.744,-173.340,-44.922,-13.184,-237.793,-94.238
1690053168.748,-394.531,-38.574,-27.832,-622.070,-575.195
1690053168.752,-137.207,-38.086,-25.391,-222.656,-412.598
1690053168.756,290.039,-36.133,-14.160,469.727,290.527
1690053168.760,333.984,-35.645,-20.508,556.641,636.719
1690053168.763,-127.441,-39.551,-23.926,-156.738,3.906
1690053168.767,-404.297,-40.039,-21.484,-627.441,-640.625
1690053168.771,-188.477,-35.645,-28.809,-302.734,-375.488
1690053168.775,241.699,-30.762,-23.438,400.879,498.535
1690053168.779,354.980,-32.715,-10.254,590.820,508.789
1690053168.796,-59.570,-40.039,-7.812,-64.941,-115.723
1690053168.800,-397.461,-46.875,-14.160,-621.094,-557.617
1690053168.804,-252.930,-42.480,-19.043,-408.203,-581.543
1690053168.808,191.895,-34.180,-19.531,297.852,-80.566
1690053168.812,379.395,-33.691,-23.438,612.793,429.199
1690053168.816,-14.160,-44.434,-24.902,-2.441,334.961
1690053168.820,-374.512,-45.898,-23.926,-608.887,-283.203
1690053168.823,-287.598,-38.574,-23.926,-473.633,-498.535
1690053168.827,115.723,-37.109,-18.555,197.266,89.844
1690053168.831,377.930,-35.645,-19.043,630.859,876.465
1690053168.835,63.965,-33.691,-32.227,139.648,620.117
1690053168.839,-357.422,-38.086,-38.086,-552.246,-419.922
1690053168.855,-328.613,-35.645,-29.785,-527.832,-674.805
1690053168.859,83.496,-27.832,-29.785,125.488,-178.711
1690053168.863,381.348,-33.691,-33.691,617.676,304.199
1690053168.867,119.629,-38.574,-28.320,222.656,135.742
1690053168.871,-327.637,-41.992,-20.508,-498.535,-444.824
1690053168.875,-358.887,-41.992,-25.879,-563.477,-557.617
1690053168.879,28.809,-37.598,-32.715,61.523,-160.645
1690053168.882,373.535,-36.621,-33.691,624.512,260.742
1690053168.886,183.594,-37.109,-25.879,338.379,415.527
1690053168.890,-288.574,-44.922,-24.902,-410.645,207.520
1690053168.894,-384.766,-40.039,-32.715,-590.332,-476.074
1690053168.898,-20.020,-36.621,-27.344,-15.625,-386.719
1690053168.886,363.770,-34.180,-19.531,607.422,371.582
1690053168.890,228.516,-30.762,-21.973,415.527,345.215
1690053168.894,-256.836,-39.551,-29.785,-351.074,-306.641
1690053168.898,-398.438,-41.504,-28.320,-606.445,-633.301
1690053168.902,-74.707,-34.668,-31.738,-97.656,-286.133
1690053168.906,311.035,-31.250,-39.062,536.621,390.137
1690053168.910,266.602,-29.297,-37.598,473.633,565.430
1690053168.913,-196.289,-28.809,-38.086,-264.648,-3.906
1690053168.917,-406.250,-27.344,-36.133,-614.258,-390.625
1690053168.921,-130.859,-27.344,-37.109,-185.059,-366.211
1690053168.925,299.805,-20.020,-34.668,506.836,126.465
1690053168.929,317.383,-20.020,-31.738,549.805,488.281
1690053168.930,-146.484,-29.297,-34.180,-178.223,300.781
1690053168.934,-404.297,-31.250,-40.039,-618.652,-98.633
1690053168.938,-184.082,-24.414,-37.109,-280.273,-429.688
1690053168.942,248.535,-21.973,-32.715,426.758,30.762
1690053168.946,343.262,-25.879,-35.645,593.262,398.438
1690053168.950,-98.145,-28.809,-35.156,-103.027,-11.719
1690053168.954,-405.273,-29.297,-41.504,-614.258,-515.137
1690053168.957,-220.703,-32.715,-44.434,-347.656,-446.777
1690053168.961,215.332,-28.809,-39.062,349.121,291.016
1690053168.965,360.840,-26.367,-34.668,612.305,483.398
1690053168.969,-38.574,-34.668,-37.109,-5.371,17.090
1690053168.973,-395.508,-38.574,-45.410,-604.492,-449.707
1690053168.977,-285.645,-38.574,-51.758,-446.777,-529.785
1690053168.981,135.742,-37.598,-51.758,255.859,-58.594
1690053168.985,363.281,-37.109,-41.992,636.719,489.258
1690053168.989,22.461,-38.574,-28.809,96.680,403.320
1690053168.993,-385.742,-40.039,-25.391,-567.871,-339.844
1690053168.997,-331.543,-36.621,-26.367,-496.094,-588.867
1690053169.001,78.125,-37.109,-31.738,170.898,17.090
1690053169.004,352.051,-39.551,-33.203,633.301,842.285
1690053169.008,71.777,-41.016,-37.598,185.059,640.137
1690053169.012,-358.398,-41.504,-41.016,-546.387,-427.246
1690053169.016,-358.887,-37.598,-34.180,-563.477,-682.129
1690053169.020,34.668,-32.715,-34.180,80.078,-137.207
1690053169.036,356.445,-31.250,-43.457,604.004,316.895
1690053169.040,135.742,-34.668,-45.898,266.602,217.285
1690053169.044,-324.707,-41.016,-39.062,-475.586,-308.105
1690053169.048,-385.742,-42.480,-39.551,-600.098,-564.941
1690053169.052,-14.160,-35.156,-45.410,-6.348,-225.586
1690053169.056,348.145,-22.461,-41.992,573.730,347.168
1690053169.060,206.055,-22.461,-40.527,348.145,618.164
1690053169.063,-257.812,-30.273,-42.969,-402.344,308.594
1690053169.067,-392.090,-31.738,-47.852,-631.836,-486.816
1690053169.071,-68.359,-29.297,-64.453,-102.051,-494.629
1690053169.075,324.707,-33.203,-64.941,545.410,264.648
1690053169.079,236.816,-37.598,-54.199,416.992,390.625
1690053169.065,-233.398,-45.410,-50.781,-345.703,-237.305
1690053169.069,-400.879,-48.340,-44.434,-649.414,-653.320
1690053169.073,-112.305,-39.062,-37.598,-182.617,-352.051
1690053169.077,306.152,-30.762,-34.668,501.953,235.840
1690053169.081,295.898,-23.438,-39.062,489.258,349.121
1690053169.085,-167.969,-30.273,-32.227,-241.211,-45.898
1690053169.089,-382.812,-31.250,-20.996,-599.609,-286.133
1690053169.092,-164.062,-32.715,-16.113,-261.719,-339.844
1690053169.096,275.391,-33.691,-14.648,438.477,258.301
1690053169.100,335.938,-28.809,-21.973,564.941,572.754
1690053169.104,-123.047,-36.621,-17.578,-149.414,330.566
