timestamps,TP9,AF7,AF8,TP10,Right AUX
1689613048.497,-34.180,-30.762,-28.320,-44.434,-186.035
1689613048.501,-39.062,-27.832,-26.855,-50.781,-114.258
1689613048.505,-41.992,-27.832,-27.832,-36.133,-95.215
1689613048.509,-41.504,-30.762,-30.762,-16.602,-95.215
1689613048.513,-39.062,-24.902,-32.227,-20.020,-88.867
1689613048.517,-30.273,-18.555,-29.785,-36.133,156.250
1689613048.521,-31.250,-20.996,-29.297,-46.875,266.113
1689613048.524,-40.039,-26.855,-34.668,-39.062,-46.875
1689613048.528,-27.832,-30.273,-29.785,-8.301,-131.836
1689613048.532,-21.973,-29.297,-20.996,-4.395,47.852
1689613048.536,-28.809,-21.973,-22.949,-29.297,74.707
1689613048.540,-28.809,-17.578,-24.414,-45.898,-191.406
1689613048.573,-32.227,-24.902,-26.367,-41.504,-246.094
1689613048.577,-34.180,-30.273,-30.273,-19.043,-156.738
1689613048.581,-30.273,-30.762,-28.809,-16.602,-113.770
1689613048.585,-30.273,-21.973,-27.344,-39.062,-158.691
1689613048.589,-25.391,-11.230,-30.273,-49.805,-145.996
1689613048.593,-27.832,-14.648,-27.344,-42.969,37.109
1689613048.597,-29.297,-18.066,-23.438,-23.926,17.090
1689613048.600,-24.902,-20.508,-23.926,-13.672,-67.871
1689613048.604,-20.996,-25.391,-30.762,-31.738,-65.430
1689613048.608,-23.438,-23.438,-29.785,-46.387,362.793
1689613048.612,-29.297,-17.090,-24.902,-42.480,465.332
1689613048.616,-26.855,-20.020,-23.926,-23.926,-67.871
1689613048.604,-28.320,-21.973,-20.996,-7.812,-120.605
1689613048.608,-30.273,-20.508,-21.973,-24.902,-93.750
1689613048.612,-33.691,-22.461,-22.949,-54.199,-195.801
1689613048.616,-37.109,-15.625,-27.344,-53.711,-173.340
1689613048.620,-31.738,-15.625,-28.320,-30.273,-99.121
1689613048.624,-34.668,-16.602,-29.785,-20.996,5.371
1689613048.628,-41.504,-15.625,-28.809,-34.668,58.105
1689613048.631,-40.039,-24.902,-22.949,-62.500,-44.922
1689613048.635,-38.574,-22.461,-27.832,-64.941,-97.656
1689613048.639,-32.715,-16.602,-34.180,-44.922,-61.035
1689613048.643,-23.926,-20.996,-33.691,-28.320,-72.266
1689613048.647,-25.879,-23.926,-30.273,-27.344,-137.207
1689613048.646,-40.039,-25.879,-25.879,-50.293,20.996
1689613048.650,-55.176,-29.785,-26.367,-69.336,9.766
1689613048.654,-45.898,-34.180,-24.902,-57.617,-159.180
1689613048.658,-34.180,-37.109,-25.879,-37.598,-109.863
1689613048.662,-39.062,-37.109,-37.109,-37.598,174.805
1689613048.666,-33.203,-32.715,-36.621,-53.711,211.914
1689613048.670,-34.668,-32.715,-25.879,-65.430,-30.273
1689613048.673,-39.062,-34.668,-31.250,-54.688,-78.125
1689613048.677,-35.156,-31.738,-31.738,-27.832,108.887
1689613048.681,-33.203,-29.297,-26.367,-21.973,119.141
1689613048.685,-38.086,-31.250,-24.902,-51.270,-186.035
1689613048.689,-45.410,-31.738,-25.391,-63.477,-109.375
1689613048.693,-46.875,-27.832,-29.785,-41.992,178.223
1689613048.697,-35.645,-27.344,-27.344,-18.066,-58.594
1689613048.701,-28.809,-31.738,-26.367,-17.578,-171.875
1689613048.705,-32.715,-33.691,-27.832,-40.527,-19.043
1689613048.709,-35.645,-28.809,-27.832,-59.082,-90.332
1689613048.713,-35.156,-27.832,-25.391,-42.969,-166.992
1689613048.717,-39.551,-31.250,-23.438,-22.949,-92.773
1689613048.720,-39.551,-31.738,-28.809,-23.926,132.812
1689613048.724,-38.574,-30.273,-32.227,-40.039,181.152
1689613048.728,-41.992,-30.273,-32.227,-57.129,-89.355
1689613048.732,-42.969,-29.297,-33.691,-50.781,-138.672
1689613048.736,-35.156,-26.367,-29.785,-32.715,-155.273
1689613048.738,-35.645,-30.762,-31.250,-17.090,-163.574
1689613048.742,-40.039,-29.785,-28.320,-27.832,-153.320
1689613048.746,-43.457,-25.879,-20.996,-54.688,-85.938
1689613048.750,-48.828,-28.809,-29.785,-57.617,41.504
1689613048.754,-44.922,-29.785,-35.645,-33.691,-11.719
1689613048.758,-45.410,-31.250,-32.715,-21.484,-9.277
1689613048.762,-36.621,-26.855,-25.391,-37.109,-40.039
1689613048.765,-34.668,-24.902,-22.949,-51.270,190.430
1689613048.769,-41.992,-29.785,-25.879,-46.875,184.082
1689613048.773,-44.434,-30.273,-27.832,-34.668,-135.742
1689613048.777,-45.410,-28.809,-29.297,-24.414,-40.039
1689613048.781,-40.527,-26.855,-26.367,-34.180,47.852
1689613048.782,-34.180,-24.902,-27.832,-62.988,-163.086
1689613048.786,-34.668,-26.855,-30.762,-69.824,-280.273
1689613048.790,-38.086,-31.250,-29.297,-44.434,-137.207
1689613048.794,-34.180,-34.180,-30.762,-34.180,-75.684
1689613048.798,-33.203,-35.156,-34.668,-50.781,-94.238
1689613048.802,-39.062,-34.668,-34.668,-74.219,-133.301
1689613048.806,-42.480,-33.691,-41.016,-78.613,164.551
1689613048.809,-48.828,-31.250,-47.363,-52.246,437.500
1689613048.813,-50.781,-25.879,-37.109,-24.414,19.531
1689613048.817,-45.410,-24.902,-29.785,-22.949,-149.902
1689613048.821,-46.875,-33.203,-33.203,-50.293,-80.566
1689613048.825,-51.270,-36.621,-33.691,-69.336,-121.094
1689613048.827,-51.758,-40.039,-33.203,-56.152,-146.484
1689613048.831,-41.992,-38.574,-29.785,-27.832,-112.305
1689613048.835,-35.645,-31.738,-25.391,-16.602,-58.105
1689613048.839,-39.551,-27.344,-27.344,-36.133,-64.453
1689613048.843,-39.551,-22.949,-31.738,-53.711,-139.648
1689613048.847,-36.621,-18.555,-28.320,-44.922,26.855
1689613048.851,-31.250,-24.902,-25.879,-23.438,180.664
1689613048.854,-29.297,-27.832,-28.809,-26.367,28.320
1689613048.858,-30.273,-22.949,-33.203,-51.758,-100.098
1689613048.862,-32.715,-24.414,-26.367,-55.664,-85.938
1689613048.866,-29.785,-28.809,-19.531,-29.297,332.520
1689613048.870,-33.203,-27.832,-24.414,-15.625,290.527
1689613048.872,-38.574,-24.902,-23.438,-22.949,-114.746
1689613048.876,-35.645,-26.367,-24.902,-41.016,-107.910
1689613048.880,-38.086,-30.273,-29.785,-70.801,-111.816
1689613048.884,-41.016,-26.855,-30.762,-66.406,-230.469
1689613048.888,-33.691,-20.508,-34.668,-37.109,-192.871
1689613048.892,-25.879,-23.438,-37.109,-25.391,-46.387
1689613048.896,-32.715,-29.297,-35.156,-45.410,-3.418
1689613048.899,-37.109,-25.879,-28.320,-69.336,-52.246
1689613048.903,-37.109,-28.809,-24.414,-57.617,-208.496
1689613048.907,-37.598,-28.320,-24.414,-22.461,68.359
1689613048.911,-36.621,-26.367,-21.484,-11.719,280.273
1689613048.915,-34.180,-27.344,-20.508,-32.227,-73.730
1689613048.931,-37.109,-27.832,-21.484,-60.547,-185.059
1689613048.935,-36.133,-26.367,-26.367,-63.477,-33.203
1689613048.939,-28.809,-21.484,-24.902,-30.273,6.836
1689613048.943,-33.203,-24.902,-22.949,-20.996,-112.305
1689613048.947,-39.551,-29.297,-24.414,-40.039,-88.379
1689613048.951,-38.086,-30.762,-22.461,-50.781,-19.043
1689613048.955,-42.480,-35.156,-21.973,-57.617,-34.668
1689613048.958,-46.387,-35.156,-24.902,-40.527,-106.445
1689613048.962,-38.574,-34.180,-30.273,-20.020,-113.281
1689613048.966,-36.133,-31.250,-30.273,-30.273,263.672
1689613048.970,-37.109,-29.297,-32.715,-56.641,190.430
1689613048.974,-36.621,-25.391,-29.785,-62.012,-271.973
1689613048.976,-34.668,-20.508,-26.367,-32.227,-28.809
1689613048.980,-34.180,-22.949,-29.297,-16.602,184.082
1689613048.984,-39.062,-24.414,-30.273,-29.785,-97.656
1689613048.988,-43.945,-21.973,-24.414,-49.805,-196.289
1689613048.992,-45.898,-20.020,-21.973,-51.270,-142.578
1689613048.996,-49.316,-23.926,-27.832,-33.203,-26.367
1689613049.000,-48.828,-26.855,-32.715,-11.230,41.016
1689613049.003,-39.062,-26.367,-28.809,-11.719,-81.543
1689613049.007,-36.621,-25.391,-25.879,-30.762,71.289
1689613049.011,-36.133,-22.949,-31.250,-37.598,181.152
1689613049.015,-33.203,-25.391,-32.715,-23.438,-150.391
1689613049.019,-36.621,-27.832,-28.320,-0.488,-177.246
1689613049.021,-39.551,-28.809,-25.391,0.977,-97.168
1689613049.025,-46.875,-36.133,-27.344,-29.297,-131.836
1689613049.029,-47.363,-34.180,-30.762,-48.340,-122.070
1689613049.033,-38.574,-26.367,-26.367,-25.391,-35.645
1689613049.037,-36.133,-23.926,-17.578,-0.488,57.129
1689613049.041,-39.062,-24.414,-19.043,-1.465,76.172
1689613049.045,-41.504,-31.738,-26.367,-28.320,0.488
1689613049.048,-40.039,-31.250,-27.832,-41.504,-44.434
1689613049.052,-42.969,-30.762,-31.738,-33.691,104.004
1689613049.056,-40.527,-27.344,-26.367,-13.184,56.641
1689613049.060,-30.273,-28.809,-22.461,-7.324,-160.156
1689613049.064,-34.668,-30.762,-25.879,-35.156,-111.816
1689613049.067,-41.504,-26.367,-27.832,-61.523,-25.879
1689613049.071,-46.387,-27.344,-29.297,-58.594,-150.391
1689613049.075,-42.969,-25.391,-29.785,-35.156,-223.633
1689613049.079,-36.621,-25.391,-29.297,-24.414,-51.758
1689613049.083,-36.133,-27.832,-31.250,-41.992,22.949
1689613049.087,-44.434,-26.367,-30.762,-67.871,-90.332
1689613049.091,-46.875,-26.855,-23.438,-61.035,-46.387
1689613049.094,-35.645,-24.902,-23.438,-27.832,217.773
1689613049.098,-37.598,-23.926,-25.879,-17.090,328.613
1689613049.102,-48.340,-28.320,-25.391,-41.504,-64.941
1689613049.106,-53.711,-25.879,-26.367,-65.430,-223.633
1689613049.110,-51.270,-23.438,-26.855,-61.035,-113.281
1689613049.112,-43.457,-21.484,-23.438,-38.574,-130.859
1689613049.116,-38.574,-19.531,-19.043,-24.902,-180.176
1689613049.120,-38.574,-20.996,-20.996,-33.691,-104.980
1689613049.124,-38.086,-18.066,-23.926,-56.641,-59.570
1689613049.128,-35.645,-19.043,-20.996,-62.500,-124.512
1689613049.132,-40.527,-25.391,-22.461,-40.527,-67.871
1689613049.136,-41.016,-27.344,-32.227,-25.879,31.738
1689613049.139,-36.133,-28.320,-31.738,-34.668,288.574
1689613049.143,-41.016,-24.902,-27.344,-57.617,175.781
1689613049.147,-40.039,-18.555,-26.367,-75.684,-141.602
1689613049.151,-46.875,-25.879,-26.855,-60.059,43.457
1689613049.155,-46.875,-28.320,-29.297,-33.691,247.070
1689613049.157,-41.992,-24.414,-27.344,-44.434,8.789
1689613049.161,-50.781,-28.809,-31.250,-73.730,-250.000
1689613049.165,-56.641,-30.762,-31.250,-78.613,-184.570
1689613049.169,-54.199,-29.297,-22.949,-63.477,-162.598
1689613049.173,-48.828,-30.762,-26.855,-47.852,-134.766
1689613049.177,-42.480,-27.344,-32.227,-53.711,-84.473
1689613049.181,-40.527,-25.391,-31.250,-74.219,141.113
1689613049.184,-40.039,-24.414,-30.273,-82.520,236.328
1689613049.188,-35.156,-19.531,-26.855,-67.871,-92.285
1689613049.192,-29.785,-24.414,-25.879,-43.457,-168.457
1689613049.196,-29.785,-27.344,-27.832,-38.574,-41.016
1689613049.200,-37.109,-26.855,-31.738,-59.082,-37.598
1689613049.216,-38.574,-26.367,-26.855,-74.219,-159.668
1689613049.220,-36.621,-29.785,-20.508,-62.988,-172.852
1689613049.224,-37.109,-37.109,-24.414,-39.062,-72.266
1689613049.228,-32.715,-29.785,-28.320,-33.203,-68.848
1689613049.232,-29.297,-24.414,-31.738,-57.129,-131.836
1689613049.236,-27.344,-25.391,-31.250,-69.824,-50.781
1689613049.240,-35.645,-25.391,-24.414,-54.199,238.770
1689613049.243,-40.039,-25.391,-19.531,-32.227,106.934
1689613049.247,-38.574,-25.879,-22.461,-25.879,-180.176
1689613049.251,-46.387,-26.367,-25.391,-48.828,-37.598
1689613049.255,-50.293,-26.855,-22.461,-62.988,153.320
1689613049.259,-47.363,-28.320,-22.949,-51.270,-38.086
1689613049.248,-40.039,-29.297,-24.902,-22.949,-106.934
1689613049.252,-35.645,-28.320,-27.832,-6.348,86.426
1689613049.256,-36.621,-31.738,-28.320,-23.926,70.801
1689613049.260,-41.992,-31.738,-23.438,-54.688,-155.273
1689613049.264,-45.898,-23.926,-20.020,-50.293,-237.793
1689613049.268,-41.504,-23.926,-17.090,-20.996,-4.883
1689613049.272,-38.086,-22.949,-20.020,-6.348,54.688
1689613049.275,-37.109,-20.996,-23.926,-29.785,-132.812
1689613049.279,-41.992,-24.902,-27.344,-59.570,-215.332
1689613049.283,-42.969,-25.879,-30.273,-52.734,44.434
1689613049.287,-40.039,-28.809,-30.273,-28.809,199.707
1689613049.291,-39.062,-27.344,-31.738,-19.043,-122.070
1689613049.306,-42.969,-28.320,-30.273,-26.855,-142.090
1689613049.310,-41.992,-29.297,-24.902,-50.781,-57.617
1689613049.314,-41.992,-27.344,-24.414,-59.082,-88.867
1689613049.318,-42.480,-26.367,-16.602,-34.668,-78.613
1689613049.322,-38.574,-29.297,-15.137,-17.578,22.461
1689613049.326,-40.527,-31.250,-23.926,-20.996,280.273
1689613049.330,-45.410,-26.855,-20.020,-44.434,135.254
1689613049.333,-42.480,-28.809,-20.508,-57.617,-235.840
1689613049.337,-40.039,-35.645,-26.367,-37.109,-153.320
1689613049.341,-36.621,-30.762,-24.414,-16.602,53.223
1689613049.345,-35.156,-26.855,-24.902,-18.555,-43.457
1689613049.349,-40.527,-26.855,-24.902,-50.781,-209.473
1689613049.352,-48.828,-28.809,-26.855,-68.359,-103.516
1689613049.356,-52.246,-34.180,-24.902,-42.969,202.637
1689613049.360,-45.410,-34.668,-23.438,-19.531,83.008
1689613049.364,-40.527,-30.273,-29.297,-25.391,-37.598
1689613049.368,-41.504,-23.438,-30.273,-52.246,3.906
1689613049.372,-42.969,-19.531,-27.344,-65.430,-63.965
1689613049.376,-48.828,-21.484,-32.227,-54.199,-16.602
1689613049.379,-49.805,-20.996,-28.809,-28.809,16.602
1689613049.383,-40.039,-22.949,-20.996,-16.602,152.832
1689613049.387,-37.598,-27.832,-20.020,-41.016,271.973
1689613049.391,-41.992,-26.855,-21.973,-62.012,-111.328
1689613049.395,-41.992,-26.367,-23.438,-50.781,-309.570
1689613049.396,-42.480,-26.367,-21.484,-24.902,-194.824
1689613049.400,-40.527,-25.391,-20.020,-20.020,-159.668
1689613049.404,-41.992,-24.414,-20.508,-40.039,-186.035
1689613049.408,-44.922,-25.391,-22.949,-62.012,-156.250
1689613049.412,-47.363,-28.809,-28.320,-63.965,-55.176
1689613049.416,-46.387,-32.715,-32.227,-41.504,-30.762
1689613049.420,-41.504,-31.738,-35.156,-32.715,-41.504
1689613049.423,-40.527,-29.785,-31.250,-46.387,-47.363
1689613049.427,-49.805,-35.645,-25.391,-59.082,319.824
1689613049.431,-54.199,-34.668,-25.391,-61.523,336.426
1689613049.435,-49.316,-30.762,-22.949,-50.293,-135.742
1689613049.439,-41.504,-26.367,-22.949,-36.621,-73.730
1689613049.442,-34.180,-20.508,-23.438,-42.480,85.938
1689613049.446,-38.574,-26.367,-21.973,-65.918,-117.676
1689613049.450,-43.457,-33.203,-26.855,-64.941,-247.559
1689613049.454,-45.410,-36.133,-27.832,-31.738,-91.309
1689613049.458,-41.992,-32.715,-26.367,-17.578,-20.020
1689613049.462,-39.551,-30.762,-32.715,-43.945,-74.219
1689613049.466,-40.039,-27.344,-33.691,-72.266,-75.195
1689613049.469,-43.945,-27.344,-27.832,-71.289,104.492
1689613049.473,-44.922,-27.832,-26.855,-45.898,183.105
1689613049.477,-41.016,-23.926,-24.902,-28.809,-94.238
1689613049.481,-41.992,-28.320,-23.926,-41.992,-116.211
1689613049.485,-47.363,-31.250,-25.879,-65.430,30.273
1689613049.486,-48.828,-30.762,-26.855,-75.684,-59.570
1689613049.490,-53.223,-33.691,-35.156,-62.012,-211.914
1689613049.494,-44.922,-32.715,-35.156,-32.227,-144.043
1689613049.498,-38.574,-28.320,-25.391,-26.855,-41.992
1689613049.502,-43.945,-32.227,-22.461,-52.734,-116.699
1689613049.506,-43.945,-35.156,-23.438,-66.406,-105.469
1689613049.510,-35.645,-23.438,-19.531,-44.922,-7.324
1689613049.513,-35.645,-18.555,-20.020,-23.438,208.496
1689613049.517,-37.598,-29.785,-25.879,-31.738,113.770
1689613049.521,-38.086,-31.738,-20.508,-57.617,-108.398
1689613049.525,-44.922,-26.855,-21.973,-73.242,1.465
1689613049.529,-44.922,-22.949,-28.809,-56.152,53.711
1689613049.533,-44.434,-26.367,-30.273,-33.691,-116.211
1689613049.537,-39.062,-28.809,-25.391,-34.668,-194.336
1689613049.541,-29.297,-25.879,-27.832,-54.199,-20.508
1689613049.545,-29.785,-25.391,-30.762,-74.219,14.648
1689613049.549,-43.945,-27.832,-30.762,-73.730,-143.555
1689613049.553,-54.199,-29.785,-31.738,-53.711,-113.281
1689613049.557,-53.223,-26.367,-32.227,-35.156,213.867
1689613049.560,-47.852,-29.297,-31.250,-38.574,286.133
1689613049.564,-49.805,-33.691,-21.973,-60.547,-160.645
1689613049.568,-58.105,-28.320,-20.508,-59.082,-218.262
1689613049.572,-54.199,-25.879,-31.250,-36.621,-96.680
1689613049.576,-42.969,-26.855,-28.809,-25.879,-104.004
1689613049.592,-42.480,-33.691,-23.926,-42.480,-185.547
1689613049.596,-44.922,-34.668,-26.367,-62.988,-193.359
1689613049.600,-47.852,-30.762,-28.809,-63.965,-104.004
1689613049.604,-48.828,-28.320,-30.762,-43.945,-47.852
1689613049.608,-41.504,-22.949,-30.762,-27.832,6.836
1689613049.612,-41.992,-22.949,-29.785,-40.039,51.758
1689613049.616,-43.945,-21.973,-30.762,-52.734,378.906
1689613049.619,-50.781,-24.902,-27.344,-48.828,309.570
1689613049.623,-57.617,-30.762,-25.391,-38.574,-177.734
1689613049.627,-60.547,-26.367,-30.762,-38.574,-4.883
1689613049.631,-75.195,-23.926,-32.227,-65.918,150.391
1689613049.635,-83.496,-22.949,-32.715,-101.562,-141.113
1689613049.622,-95.703,-21.484,-41.016,-120.117,-268.555
1689613049.626,-113.281,-23.438,-42.480,-112.305,-178.711
1689613049.630,-110.840,-26.367,-40.527,-100.586,-111.328
1689613049.634,-115.234,-28.320,-41.504,-116.699,-144.043
1689613049.638,-118.652,-25.391,-36.133,-136.230,-191.406
1689613049.642,-107.910,-26.855,-31.738,-125.977,-19.043
1689613049.646,-98.145,-31.738,-35.645,-102.051,129.395
1689613049.649,-89.844,-29.785,-41.504,-75.684,29.297
1689613049.653,-80.566,-22.461,-40.039,-68.848,-114.746
1689613049.657,-76.660,-27.344,-38.574,-83.496,95.215
1689613049.661,-77.148,-30.762,-41.992,-94.727,337.891
1689613049.665,-66.895,-24.902,-33.691,-79.590,-9.766
1689613049.682,-61.523,-35.156,-27.344,-54.688,-156.738
1689613049.686,-57.617,-36.621,-36.133,-58.105,-103.027
1689613049.690,-49.805,-27.832,-33.203,-76.172,-125.000
1689613049.694,-45.898,-25.391,-30.273,-81.543,-156.250
1689613049.698,-48.828,-29.297,-32.227,-66.895,-92.285
1689613049.702,-38.574,-25.879,-28.320,-37.598,122.559
1689613049.706,-29.297,-22.949,-32.715,-40.039,96.680
1689613049.709,-27.344,-25.879,-37.598,-65.430,-127.930
1689613049.713,-25.879,-20.996,-28.809,-72.754,-155.762
1689613049.717,-41.992,-26.855,-23.438,-55.664,341.797
1689613049.721,-47.363,-25.879,-22.949,-31.250,397.461
1689613049.725,-40.039,-21.973,-21.973,-29.297,-118.652
1689613049.727,-39.551,-28.320,-17.090,-46.387,-124.512
1689613049.731,-41.016,-29.785,-15.137,-62.012,-115.234
1689613049.735,-39.551,-22.461,-18.555,-48.340,-262.207
1689613049.739,-34.668,-23.926,-21.973,-25.391,-197.754
1689613049.743,-33.691,-29.785,-26.367,-21.973,-40.039
1689613049.747,-34.668,-28.809,-24.902,-31.250,35.156
1689613049.751,-36.621,-27.344,-25.879,-47.363,16.602
1689613049.754,-40.527,-27.344,-31.738,-47.363,-143.066
1689613049.758,-37.598,-25.391,-30.273,-15.137,15.625
1689613049.762,-35.645,-24.902,-27.832,4.395,215.332
1689613049.766,-34.668,-25.879,-25.391,-9.277,-92.773
1689613049.770,-41.992,-25.879,-18.555,-33.203,-148.438
1689613049.771,-48.828,-24.902,-17.090,-41.992,-25.391
1689613049.775,-45.410,-29.297,-24.414,-22.949,-71.289
1689613049.779,-38.574,-28.809,-30.762,-4.395,-184.570
1689613049.783,-34.180,-27.832,-34.668,-16.602,-119.141
1689613049.787,-31.738,-30.762,-41.992,-44.922,-81.055
1689613049.791,-31.738,-29.297,-33.691,-48.828,-83.496
1689613049.795,-32.715,-28.320,-24.414,-25.391,-54.199
1689613049.798,-32.227,-26.855,-27.344,-14.160,-55.664
1689613049.802,-34.668,-21.484,-22.949,-20.020,194.824
1689613049.806,-36.621,-22.949,-23.926,-47.363,143.555
1689613049.810,-41.504,-25.391,-33.691,-66.406,-186.035
1689613049.814,-40.039,-24.414,-28.320,-37.109,-84.473
1689613049.818,-36.133,-29.785,-26.367,-11.719,127.930
1689613049.822,-38.574,-27.832,-29.297,-25.391,23.438
1689613049.826,-40.039,-23.926,-24.902,-52.734,-70.312
1689613049.830,-41.016,-27.832,-24.414,-62.500,-38.574
1689613049.834,-43.457,-27.344,-22.949,-45.898,-21.973
1689613049.838,-45.410,-24.414,-30.762,-25.879,-126.953
1689613049.842,-39.551,-29.785,-32.227,-31.250,-120.605
1689613049.845,-39.062,-33.691,-27.832,-52.734,61.035
1689613049.849,-46.387,-27.832,-29.297,-65.430,135.254
1689613049.853,-42.969,-22.949,-31.738,-55.176,-137.207
1689613049.857,-33.203,-20.020,-28.320,-31.738,-163.086
1689613049.861,-35.645,-19.531,-28.320,-33.203,-78.125
1689613049.877,-44.922,-28.809,-30.762,-58.105,-100.098
1689613049.881,-50.293,-24.902,-35.645,-74.707,-155.762
1689613049.885,-45.410,-23.926,-38.086,-59.570,-124.512
1689613049.889,-44.434,-31.738,-33.203,-38.086,-35.156
1689613049.893,-43.945,-26.367,-29.297,-32.715,2.930
1689613049.897,-41.016,-22.949,-26.367,-48.340,4.883
1689613049.901,-41.992,-22.461,-31.738,-69.824,-32.227
1689613049.904,-44.434,-23.926,-33.691,-52.246,292.969
1689613049.908,-34.180,-21.484,-23.438,-14.160,320.312
1689613049.912,-29.297,-21.484,-21.973,-12.695,-8.301
1689613049.916,-37.109,-21.973,-27.344,-38.574,68.359
1689613049.920,-36.621,-25.391,-22.461,-52.246,63.477
1689613049.906,-39.551,-31.250,-21.973,-49.805,-121.094
1689613049.910,-43.945,-33.691,-23.926,-27.832,-153.320
1689613049.914,-40.039,-38.574,-26.855,-10.742,-76.660
1689613049.918,-29.785,-34.668,-31.250,-21.484,-71.289
1689613049.922,-33.203,-29.785,-27.344,-48.828,-168.457
1689613049.926,-44.922,-28.809,-20.020,-68.848,-116.699
1689613049.930,-28.809,-20.508,-18.066,-41.504,-19.043
1689613049.933,-7.812,-20.508,-21.973,-5.859,-42.480
1689613049.937,-9.766,-30.273,-26.367,-11.230,-132.812
1689613049.941,-10.742,-29.785,-26.367,-32.227,-250.977
1689613049.945,-8.301,-24.414,-24.902,-29.297,54.688
1689613049.949,-7.324,-28.320,-30.273,-6.836,306.641
1689613049.951,0.488,-31.738,-26.855,5.859,-37.598
1689613049.955,2.930,-27.832,-19.043,-5.371,-160.156
1689613049.959,-8.789,-21.484,-19.531,-34.180,-117.676
1689613049.963,-15.625,-22.949,-18.066,-39.062,-174.805
1689613049.967,-15.137,-28.809,-21.484,-19.043,-152.344
1689613049.971,-19.531,-27.344,-27.344,-2.441,8.301
1689613049.975,-22.949,-24.414,-29.297,-4.883,252.930
1689613049.978,-27.344,-24.414,-31.250,-37.109,72.266
1689613049.982,-34.180,-28.320,-30.273,-50.781,-201.172
1689613049.986,-31.250,-23.926,-27.832,-28.320,-24.414
1689613049.990,-28.809,-20.996,-26.855,-2.930,231.445
1689613049.994,-31.738,-26.855,-22.461,-9.766,89.355
1689613050.012,-33.203,-31.250,-26.855,-43.945,-175.781
1689613050.016,-41.504,-35.156,-31.250,-55.664,-71.777
1689613050.020,-47.363,-36.621,-29.785,-40.039,24.902
1689613050.024,-38.086,-35.645,-28.320,-16.113,-124.512
1689613050.028,-30.762,-33.691,-25.879,-15.625,-148.438
1689613050.032,-31.250,-28.320,-16.602,-35.156,26.855
1689613050.036,-31.738,-23.926,-11.719,-40.527,138.184
1689613050.039,-33.203,-26.367,-17.090,-34.668,-44.922
1689613050.043,-34.668,-30.273,-21.484,-15.137,-150.391
1689613050.047,-33.203,-22.461,-25.879,-6.348,70.312
1689613050.051,-31.738,-18.066,-22.949,-32.715,92.285
1689613050.055,-35.645,-20.508,-24.414,-60.547,-84.961
1689613050.056,-38.086,-22.949,-23.438,-48.340,-43.945
1689613050.060,-34.180,-21.973,-23.926,-17.090,-2.441
1689613050.064,-30.273,-21.973,-26.367,-14.648,-37.109
1689613050.068,-34.180,-24.414,-20.020,-36.621,-155.762
1689613050.072,-42.480,-24.414,-17.578,-58.105,-179.688
1689613050.076,-46.387,-23.926,-20.508,-56.641,-101.562
1689613050.080,-39.062,-21.973,-29.785,-34.180,-4.883
1689613050.083,-28.809,-18.555,-28.809,-22.461,-62.988
1689613050.087,-26.855,-17.578,-23.926,-35.645,-101.074
1689613050.091,-32.715,-22.461,-24.902,-50.781,292.969
1689613050.095,-32.227,-19.531,-25.879,-43.457,275.391
1689613050.099,-29.785,-17.578,-26.367,-21.484,-166.992
1689613050.103,-35.156,-18.555,-32.227,-10.254,-103.027
1689613050.107,-37.109,-25.391,-32.227,-29.297,-82.520
1689613050.111,-41.992,-24.902,-29.297,-60.059,-198.730
1689613050.115,-40.039,-18.555,-32.227,-66.406,-195.312
1689613050.119,-37.109,-24.414,-27.832,-39.062,-3.906
1689613050.123,-37.109,-27.344,-24.902,-19.531,125.977
1689613050.127,-36.621,-25.879,-24.902,-30.762,-2.441
1689613050.130,-41.016,-26.855,-20.996,-52.734,-162.598
1689613050.134,-37.598,-25.879,-20.020,-51.270,34.180
1689613050.138,-30.762,-24.414,-30.273,-28.320,239.746
1689613050.142,-37.598,-23.926,-35.645,-20.996,-46.875
1689613050.146,-57.617,-25.391,-32.715,-44.434,-150.391
1689613050.146,-63.965,-25.879,-25.391,-71.289,-96.191
1689613050.150,-71.777,-27.832,-25.391,-87.402,-127.441
1689613050.154,-81.055,-28.809,-27.344,-79.102,-195.801
1689613050.158,-76.172,-27.344,-26.367,-61.035,-158.691
1689613050.162,-73.730,-24.414,-34.668,-68.359,-70.312
1689613050.166,-72.754,-30.762,-36.133,-87.402,-22.949
1689613050.170,-71.289,-31.250,-26.855,-96.191,14.648
1689613050.173,-65.430,-23.926,-18.066,-79.102,-19.531
1689613050.177,-59.082,-28.320,-21.973,-43.945,283.691
1689613050.181,-53.711,-24.414,-25.391,-33.203,346.680
1689613050.185,-48.828,-20.508,-24.902,-54.199,-48.828
1689613050.189,-53.711,-23.926,-26.855,-72.266,-78.125
1689613050.192,-54.199,-24.902,-27.832,-60.547,-10.254
1689613050.196,-50.293,-20.508,-25.391,-35.156,-104.492
1689613050.200,-48.828,-21.484,-21.484,-36.133,-109.375
1689613050.204,-54.199,-23.438,-29.297,-65.430,-68.848
1689613050.208,-59.570,-24.414,-35.645,-83.496,-136.719
1689613050.212,-53.711,-28.809,-30.273,-60.547,-142.090
1689613050.216,-47.363,-25.879,-25.391,-28.320,-90.820
1689613050.219,-44.922,-18.066,-24.414,-21.484,155.273
1689613050.223,-41.504,-20.020,-31.738,-39.551,387.695
1689613050.227,-42.480,-27.344,-29.297,-62.988,12.207
1689613050.231,-42.480,-21.973,-25.879,-58.105,-204.102
1689613050.235,-43.945,-29.785,-33.203,-38.086,-115.234
1689613050.251,-45.898,-40.039,-33.203,-30.273,-75.684
1689613050.255,-41.504,-33.203,-28.320,-46.875,-150.391
1689613050.259,-40.527,-33.691,-26.855,-74.707,-225.098
1689613050.263,-30.762,-30.273,-25.391,-67.383,-152.832
1689613050.267,-22.461,-25.879,-26.855,-38.574,-93.262
1689613050.271,-24.414,-29.297,-24.902,-27.344,-59.082
1689613050.275,-29.297,-28.320,-18.066,-32.227,40.527
1689613050.278,-38.574,-29.785,-20.508,-51.270,202.148
1689613050.282,-43.457,-29.297,-25.879,-56.152,26.855
1689613050.286,-46.387,-27.344,-26.367,-41.992,-150.879
1689613050.290,-48.340,-27.832,-30.762,-32.227,67.383
1689613050.294,-45.898,-33.691,-39.062,-42.480,144.531
1689613050.281,-45.410,-31.250,-30.762,-62.988,-3.418
1689613050.285,-46.875,-28.809,-24.902,-66.895,-176.270
1689613050.289,-48.828,-33.203,-29.297,-40.039,-69.336
1689613050.293,-38.574,-28.320,-26.367,-11.719,200.195
1689613050.297,-28.809,-30.273,-32.715,-25.391,-4.883
1689613050.301,-32.715,-40.039,-24.414,-49.805,-135.742
1689613050.305,-34.180,-31.250,-16.602,-53.223,16.113
1689613050.308,-34.180,-23.438,-24.902,-34.668,-18.555
1689613050.312,-26.367,-23.926,-19.043,-8.789,-109.375
1689613050.316,-27.832,-28.320,-21.484,-27.832,-158.203
1689613050.320,-33.691,-27.832,-29.297,-55.176,47.363
1689613050.324,-29.785,-29.785,-27.344,-58.594,125.000
1689613050.372,-36.133,-31.738,-30.762,-55.176,-166.992
1689613050.376,-41.504,-29.297,-33.203,-37.598,-168.457
1689613050.380,-41.016,-25.391,-23.438,-31.738,-45.898
1689613050.384,-39.062,-24.414,-30.273,-57.617,-40.527
1689613050.388,-40.527,-29.785,-37.109,-72.266,-169.434
1689613050.392,-48.340,-29.785,-28.320,-55.176,-102.051
1689613050.396,-46.875,-28.809,-25.391,-31.250,247.559
1689613050.399,-42.969,-29.785,-22.461,-26.367,120.605
1689613050.403,-42.969,-31.738,-21.973,-46.875,-196.777
1689613050.407,-41.504,-30.273,-30.273,-66.406,-87.891
1689613050.411,-40.039,-25.391,-36.621,-57.129,116.699
1689613050.415,-35.156,-24.414,-30.273,-25.391,-13.184
1689613050.377,-33.691,-21.484,-33.691,-13.672,-168.945
1689613050.381,-34.180,-20.508,-30.273,-30.762,-104.004
1689613050.385,-35.156,-24.902,-19.043,-50.293,-69.336
1689613050.389,-33.203,-24.414,-19.531,-46.387,-165.039
1689613050.393,-23.438,-23.926,-25.391,-21.973,-201.172
1689613050.397,-18.066,-21.484,-26.367,-12.695,-8.789
1689613050.401,-25.391,-19.043,-27.832,-36.133,122.559
1689613050.404,-27.344,-25.391,-26.855,-58.105,-23.438
1689613050.408,-20.020,-25.879,-21.973,-49.316,-129.883
1689613050.412,-25.879,-20.020,-20.508,-19.531,49.805
1689613050.416,-28.809,-22.461,-25.391,-12.207,80.566
1689613050.420,-29.785,-23.926,-34.180,-34.180,-59.570
1689613050.432,-32.715,-25.391,-33.203,-56.152,-120.117
1689613050.436,-34.180,-26.367,-26.855,-48.828,18.066
1689613050.440,-26.855,-22.461,-18.555,-21.484,42.969
1689613050.444,-19.531,-18.066,-16.113,-11.719,-144.043
1689613050.448,-21.973,-16.602,-21.973,-23.438,-182.129
1689613050.452,-21.973,-20.508,-25.879,-30.762,108.887
1689613050.456,-29.297,-22.949,-29.785,-24.902,547.363
1689613050.459,-42.969,-27.344,-28.320,-13.184,236.816
1689613050.463,-36.621,-28.320,-21.484,2.930,-155.273
1689613050.467,-30.762,-27.344,-17.578,-2.441,-1.465
1689613050.471,-37.598,-23.438,-17.578,-32.227,-101.562
1689613050.475,-34.180,-20.508,-17.090,-41.992,-312.012
1689613050.477,-33.203,-24.902,-20.996,-21.484,-151.367
1689613050.481,-35.156,-22.461,-26.855,1.465,91.309
1689613050.485,-30.762,-25.391,-26.367,-6.348,-58.105
1689613050.489,-29.297,-28.809,-24.902,-29.785,-132.812
1689613050.493,-27.832,-26.367,-22.949,-37.598,-68.359
1689613050.497,-29.785,-29.785,-25.879,-26.367,-28.809
1689613050.501,-35.645,-28.809,-28.809,-2.930,-6.348
1689613050.504,-32.715,-27.344,-27.832,6.348,-44.922
1689613050.508,-16.113,-29.297,-26.855,-0.977,136.230
1689613050.512,-26.855,-23.438,-30.273,-36.133,314.453
1689613050.516,-43.945,-20.996,-33.203,-52.246,-28.809
1689613050.520,-33.691,-19.043,-36.133,-25.879,-228.027
1689613050.521,-29.785,-21.484,-41.016,-23.438,-116.211
1689613050.525,-28.320,-23.926,-42.480,-44.434,-118.652
1689613050.529,-22.461,-19.531,-40.039,-51.758,-218.262
1689613050.533,-21.973,-20.508,-35.645,-43.457,-207.520
1689613050.537,-23.926,-19.043,-30.762,-22.949,-99.121
1689613050.541,-22.949,-17.090,-31.738,-10.254,-21.973
1689613050.545,-25.391,-20.020,-34.668,-36.621,5.859
1689613050.548,-28.809,-16.602,-24.414,-55.176,-63.477
1689613050.552,-29.785,-14.160,-23.926,-33.691,156.738
1689613050.556,-25.391,-20.996,-30.273,-8.301,167.969
1689613050.560,-19.043,-23.926,-32.227,-9.277,-91.309
1689613050.564,-21.973,-27.344,-31.738,-36.133,70.801
1689613050.567,-23.438,-23.926,-33.691,-52.734,209.961
1689613050.571,-22.949,-20.020,-34.668,-42.480,-81.543
1689613050.575,-26.367,-28.809,-32.227,-21.484,-275.391
1689613050.579,-25.879,-29.297,-26.855,-6.836,-122.070
1689613050.583,-27.832,-28.809,-18.555,-24.414,-141.113
1689613050.587,-35.156,-28.809,-22.949,-58.105,-129.395
1689613050.591,-39.062,-26.855,-34.180,-62.988,-64.453
1689613050.594,-31.250,-27.344,-27.344,-31.250,91.309
1689613050.598,-27.832,-30.762,-26.367,-13.184,208.984
1689613050.602,-32.227,-31.738,-27.832,-30.273,-77.637
1689613050.606,-29.785,-30.273,-17.090,-47.852,-186.035
1689613050.610,-30.762,-30.273,-14.648,-49.316,-188.965
1689613050.613,-30.273,-29.785,-19.043,-21.973,-129.883
1689613050.617,-23.926,-28.809,-23.438,0.000,-54.688
1689613050.621,-26.367,-26.855,-21.973,-14.648,-53.223
1689613050.625,-29.785,-22.461,-19.531,-43.945,32.715
1689613050.629,-37.598,-23.438,-26.367,-52.734,-43.457
1689613050.633,-45.410,-28.809,-29.785,-31.738,-120.605
1689613050.637,-43.457,-25.879,-27.832,-14.648,15.625
1689613050.640,-46.387,-27.344,-24.414,-21.484,294.922
1689613050.644,-50.293,-28.320,-26.367,-51.270,86.426
1689613050.648,-46.387,-25.879,-36.133,-64.453,-235.840
1689613050.652,-34.180,-25.879,-32.227,-39.062,-57.617
1689613050.656,-33.203,-22.949,-22.461,-15.137,73.242
1689613050.656,-31.738,-24.414,-14.160,-20.996,-58.105
1689613050.660,-31.250,-19.531,-18.066,-45.410,-190.918
1689613050.664,-41.016,-15.137,-26.367,-55.176,-109.863
1689613050.668,-41.016,-20.996,-20.020,-33.691,-47.363
1689613050.672,-36.621,-31.250,-13.672,-7.324,-138.184
1689613050.676,-41.504,-36.133,-23.438,-23.926,-123.047
1689613050.680,-32.227,-28.809,-30.762,-43.945,101.074
1689613050.683,-22.949,-31.250,-27.832,-35.645,272.949
1689613050.687,-56.641,-35.645,-26.367,-46.387,3.906
1689613050.691,-78.613,-37.598,-27.832,-48.340,-126.953
1689613050.695,-69.336,-41.504,-23.926,-41.016,-56.641
1689613050.699,-78.613,-41.016,-19.531,-65.918,-103.027
1689613050.701,-88.867,-40.039,-16.602,-86.426,-180.176
1689613050.705,-90.332,-42.969,-14.160,-74.707,-168.457
1689613050.709,-90.332,-44.434,-15.137,-55.176,-49.316
1689613050.713,-92.285,-46.875,-20.020,-59.570,-23.926
1689613050.717,-94.727,-42.969,-4.395,-77.637,-134.766
1689613050.721,-102.539,-41.016,-17.578,-98.145,-84.961
1689613050.725,-106.445,-49.316,-32.227,-90.332,198.730
1689613050.728,-88.867,-46.387,-12.695,-57.617,163.086
1689613050.732,-82.520,-41.504,-12.695,-48.828,-81.543
1689613050.736,-85.938,-44.922,-22.949,-64.453,25.879
1689613050.740,-79.102,-41.504,-28.809,-72.266,427.246
1689613050.744,-78.613,-36.621,-23.926,-72.266,243.164
1689613050.747,-76.172,-38.574,-31.738,-53.223,-181.152
1689613050.751,-61.523,-36.133,-41.992,-33.691,-99.121
1689613050.755,-52.246,-33.203,-29.785,-47.852,-80.078
1689613050.759,-51.758,-35.156,-30.762,-68.848,-208.984
1689613050.763,-53.711,-36.133,-31.250,-61.035,-258.789
1689613050.767,-54.199,-32.715,-21.484,-35.645,51.270
1689613050.771,-48.340,-30.762,-20.020,-29.785,205.566
1689613050.774,-44.434,-34.668,-19.043,-41.504,-44.922
1689613050.778,-42.969,-34.180,-26.855,-65.430,-146.484
1689613050.782,-38.086,-26.855,-22.949,-64.941,45.410
1689613050.786,-32.227,-28.320,-17.578,-31.250,149.414
1689613050.790,-29.785,-30.273,-36.133,-14.160,-126.953
1689613050.807,-36.133,-29.297,-35.156,-22.949,-156.250
1689613050.811,-42.480,-32.715,-17.090,-52.734,-122.070
1689613050.815,-41.016,-32.715,-12.207,-62.500,-182.129
1689613050.819,-38.574,-32.227,-18.555,-41.992,-166.016
1689613050.823,-37.109,-28.809,-25.879,-21.973,-56.641
1689613050.827,-39.062,-31.738,-27.344,-29.297,64.941
1689613050.831,-42.480,-31.738,-29.297,-55.664,11.230
1689613050.834,-44.922,-25.391,-28.809,-63.477,-136.230
1689613050.838,-42.969,-24.414,-24.414,-39.551,-65.430
1689613050.842,-40.039,-31.738,-20.020,-21.484,103.027
1689613050.846,-40.527,-35.645,-23.926,-27.344,56.641
1689613050.850,-37.598,-30.273,-28.809,-48.340,36.621
1689613050.851,-40.527,-21.973,-27.832,-65.430,-45.410
1689613050.855,-43.457,-25.391,-24.902,-43.945,197.266
1689613050.859,-36.621,-24.902,-21.484,-8.789,289.551
1689613050.863,-31.250,-21.484,-22.949,-13.672,-93.262
1689613050.867,-32.227,-25.879,-25.391,-37.598,-163.574
1689613050.871,-36.133,-26.367,-27.344,-52.734,-27.344
1689613050.875,-39.551,-31.250,-19.531,-46.387,32.715
1689613050.878,-35.645,-23.926,-17.578,-20.508,-146.484
1689613050.882,-34.668,-23.438,-19.043,-10.742,20.508
1689613050.886,-38.574,-29.785,-12.207,-58.594,225.586
1689613050.890,-37.598,-27.832,-19.531,-108.398,-124.512
1689613050.894,-36.621,-26.855,-24.902,-98.145,-212.891
1689613050.912,-34.668,-33.691,-21.484,-68.848,-54.688
1689613050.916,-27.832,-28.320,-22.461,-57.129,-17.090
1689613050.920,-30.273,-19.531,-17.578,-62.500,-121.094
1689613050.924,-39.062,-21.484,-19.531,-82.520,-178.711
1689613050.928,-40.039,-21.484,-28.320,-83.496,-97.168
1689613050.932,-36.133,-21.973,-33.203,-55.664,-18.555
1689613050.936,-35.156,-22.949,-26.855,-38.086,-17.090
1689613050.939,-33.691,-28.809,-19.531,-49.805,-63.965
1689613050.943,-28.320,-25.391,-29.297,-55.664,137.695
1689613050.947,-29.785,-19.531,-32.227,-49.316,111.328
1689613050.951,-29.785,-24.414,-30.273,-32.227,-125.488
1689613050.955,-24.902,-24.902,-30.762,-6.348,-44.434
1689613050.941,-21.973,-20.020,-21.484,-15.137,56.152
1689613050.945,-26.367,-21.484,-18.555,-50.293,-163.086
1689613050.949,-30.273,-23.926,-26.855,-65.430,-303.223
1689613050.953,-23.438,-15.137,-27.832,-38.086,-78.613
1689613050.957,-21.484,-18.555,-29.297,-17.578,-3.418
1689613050.961,-25.391,-24.902,-35.156,-33.203,-72.266
1689613050.965,-31.250,-20.508,-35.156,-59.570,11.230
1689613050.968,-37.598,-22.461,-36.621,-72.754,-4.395
1689613050.972,-43.457,-28.809,-25.879,-56.641,-88.379
1689613050.976,-44.434,-30.762,-21.484,-28.809,-110.840
1689613050.980,-36.621,-26.367,-18.555,-24.414,-128.418
1689613050.984,-35.645,-23.926,-20.508,-42.969,119.141
1689613050.986,-39.551,-27.832,-28.809,-56.152,239.746
1689613050.990,-41.992,-32.715,-31.250,-49.805,-110.352
1689613050.994,-38.086,-31.738,-32.227,-31.738,-133.301
1689613050.998,-36.621,-30.273,-34.668,-30.762,-1.953
1689613051.002,-36.621,-27.344,-29.785,-51.758,-82.520
1689613051.006,-36.621,-22.461,-27.832,-66.406,-174.316
1689613051.010,-39.062,-23.926,-26.855,-52.246,-94.238
1689613051.013,-31.738,-26.855,-21.973,-15.137,321.777
1689613051.017,-20.996,-30.762,-22.461,0.977,350.586
1689613051.021,-16.113,-28.809,-17.090,-15.625,-103.516
1689613051.025,-22.949,-25.879,-25.879,-41.504,-55.176
1689613051.029,-24.414,-22.949,-33.691,-40.039,44.922
1689613051.031,-21.973,-23.438,-30.273,-16.602,-125.000
1689613051.035,-21.484,-20.996,-31.250,-11.719,-193.359
1689613051.039,-21.973,-21.973,-31.738,-30.273,-131.348
1689613051.043,-25.391,-26.367,-30.762,-49.805,-96.191
1689613051.047,-19.531,-28.809,-30.273,-34.668,-170.898
1689613051.051,-14.160,-31.250,-24.902,-5.371,-180.176
1689613051.055,-20.508,-28.320,-20.508,3.906,155.273
1689613051.058,-27.344,-27.344,-22.949,-12.695,234.375
1689613051.062,-24.414,-25.391,-26.367,-37.109,-113.770
1689613051.066,-23.926,-23.926,-31.738,-33.203,-164.062
1689613051.070,-20.508,-26.367,-29.297,-4.883,-17.090
1689613051.074,-17.578,-30.762,-22.949,2.441,18.066
1689613051.076,-24.902,-28.320,-21.973,-21.973,-104.980
1689613051.080,-30.273,-26.855,-20.996,-48.340,-114.746
1689613051.084,-31.738,-30.273,-20.508,-42.969,-124.023
1689613051.088,-23.438,-31.738,-22.461,-6.348,-137.695
1689613051.092,-22.461,-28.809,-27.832,1.465,-92.773
1689613051.096,-28.320,-25.879,-24.902,-26.855,-35.156
1689613051.100,-29.785,-28.320,-25.879,-46.387,155.762
1689613051.103,-32.715,-32.227,-23.926,-47.852,43.457
1689613051.107,-31.738,-26.855,-20.996,-22.461,-201.660
1689613051.111,-24.414,-20.996,-25.391,1.953,-89.355
1689613051.115,-20.508,-25.879,-24.414,-3.906,231.445
1689613051.119,-28.809,-30.273,-14.648,-31.250,109.375
1689613051.123,-34.668,-29.297,-11.719,-44.434,-208.984
1689613051.127,-30.273,-27.344,-20.508,-26.855,-75.684
1689613051.131,-26.855,-25.391,-24.414,-7.324,23.926
1689613051.135,-24.902,-22.949,-25.391,-10.254,-119.141
1689613051.139,-28.320,-26.367,-29.297,-35.645,-140.137
1689613051.143,-31.738,-27.344,-25.879,-45.898,55.664
1689613051.147,-29.297,-25.879,-20.996,-27.344,88.867
1689613051.150,-31.738,-25.391,-27.832,-7.812,-100.586
1689613051.154,-27.832,-23.926,-30.273,-7.812,-122.070
1689613051.158,-20.996,-17.090,-22.949,-25.391,8.301
1689613051.162,-27.832,-20.508,-23.926,-35.156,34.668
1689613051.166,-30.762,-36.133,-28.809,-17.090,-147.461
1689613051.181,-16.602,-36.133,-23.926,25.391,-155.273
1689613051.185,-14.160,-28.809,-22.949,16.113,9.277
1689613051.189,-21.973,-19.043,-32.715,-27.832,1.953
1689613051.193,-25.391,-20.020,-32.715,-35.645,-153.809
1689613051.197,-23.926,-29.297,-30.762,-21.484,-125.000
1689613051.201,-5.371,-24.414,-26.367,9.277,289.551
1689613051.205,4.883,-22.461,-21.484,19.043,315.430
1689613051.208,0.977,-19.043,-18.555,3.418,-73.242
1689613051.212,0.488,-16.602,-19.531,-11.230,-129.395
1689613051.216,-1.953,-23.438,-19.531,-4.883,226.074
1689613051.220,-2.930,-25.879,-21.484,14.160,186.523
1689613051.224,0.488,-23.926,-21.484,16.113,-189.453
1689613051.227,-4.395,-21.973,-22.461,-5.859,-98.633
1689613051.231,-14.648,-25.879,-26.855,-31.738,-82.520
1689613051.235,-22.949,-28.809,-28.320,-26.367,-170.410
1689613051.239,-24.902,-31.738,-25.879,-4.883,-121.582
1689613051.243,-20.020,-36.133,-25.879,7.324,131.836
1689613051.247,-19.531,-29.785,-23.926,-1.465,280.762
1689613051.251,-20.996,-25.391,-19.043,-32.227,31.738
1689613051.254,-25.391,-29.297,-17.578,-35.645,-177.734
1689613051.258,-23.438,-23.438,-15.625,3.418,-10.742
1689613051.262,-19.531,-18.066,-18.066,14.160,245.117
1689613051.266,-21.484,-21.973,-23.926,-13.184,-58.105
1689613051.270,-22.461,-24.414,-22.949,-29.297,-256.836
1689613051.287,-26.367,-26.367,-22.461,-31.738,-167.480
1689613051.291,-25.879,-29.785,-21.973,-13.672,-100.098
1689613051.295,-23.438,-28.809,-24.902,0.000,-126.953
1689613051.299,-17.090,-20.996,-25.391,-9.277,-119.141
1689613051.303,-16.602,-17.090,-28.320,-35.645,-109.375
1689613051.307,-26.367,-15.625,-27.344,-45.410,-90.332
1689613051.311,-37.109,-19.043,-17.090,-28.320,-83.984
1689613051.314,-35.156,-24.902,-16.602,-12.695,-50.293
1689613051.318,-30.273,-22.949,-22.949,-14.160,289.551
1689613051.322,-36.621,-21.484,-32.227,-38.574,298.340
1689613051.326,-34.180,-22.949,-32.227,-58.594,-155.273
1689613051.330,-27.344,-22.949,-24.902,-36.133,-142.578
1689613051.331,-31.738,-26.367,-26.367,-15.625,80.566
1689613051.335,-40.527,-30.762,-26.855,-27.832,-60.059
1689613051.339,-40.527,-30.762,-26.367,-47.852,-205.566
1689613051.343,-39.551,-24.902,-31.250,-62.012,-156.250
1689613051.347,-41.016,-25.391,-30.762,-46.387,-107.910
1689613051.351,-38.086,-30.273,-27.344,-24.414,-58.594
1689613051.355,-29.785,-27.832,-22.461,-23.926,8.789
1689613051.358,-33.691,-34.180,-19.531,-48.828,1.953
1689613051.362,-39.551,-33.691,-21.484,-70.312,-33.203
1689613051.366,-42.480,-30.273,-23.438,-51.758,-86.914
1689613051.370,-40.527,-26.367,-22.949,-23.926,-188.477
1689613051.374,-32.227,-20.508,-25.879,-16.113,117.188
1689613051.361,-32.715,-23.926,-25.391,-32.715,391.602
1689613051.365,-38.574,-28.320,-20.508,-56.641,-40.039
1689613051.369,-38.574,-25.391,-28.809,-51.758,-242.188
1689613051.373,-35.156,-24.414,-31.738,-22.949,-182.129
1689613051.377,-27.832,-27.344,-24.902,-15.137,-125.488
1689613051.381,-29.785,-23.438,-21.973,-40.039,-59.570
1689613051.385,-34.668,-18.555,-24.414,-58.594,-29.297
1689613051.388,-31.738,-23.926,-26.855,-45.410,-39.062
1689613051.392,-35.156,-27.832,-28.809,-19.043,-137.695
1689613051.396,-38.574,-31.738,-27.832,-13.184,-136.719
1689613051.400,-33.203,-31.738,-24.414,-36.133,-64.941
1689613051.404,-37.598,-28.320,-26.367,-52.246,308.105
1689613051.407,-43.457,-30.273,-23.926,-42.480,379.395
1689613051.411,-36.621,-26.855,-20.508,-20.508,-79.590
1689613051.415,-27.832,-22.461,-26.855,-4.883,-131.836
1689613051.419,-33.203,-26.855,-29.785,-24.902,-73.242
1689613051.423,-38.086,-30.273,-27.344,-53.223,-160.156
1689613051.427,-33.203,-23.926,-24.902,-49.316,-194.336
1689613051.431,-32.227,-20.508,-28.320,-22.461,120.117
1689613051.434,-37.109,-23.926,-32.227,-8.301,315.918
1689613051.438,-33.691,-31.738,-24.902,-20.996,-51.270
1689613051.442,-29.297,-32.715,-23.926,-47.852,-192.871
1689613051.446,-25.391,-27.832,-31.738,-47.852,-144.531
1689613051.450,-27.344,-31.738,-31.250,-20.508,-91.797
1689613051.453,-41.016,-29.785,-28.809,-10.742,-113.770
1689613051.457,-49.316,-26.367,-36.133,-30.273,-119.629
1689613051.461,-44.922,-33.691,-34.668,-53.711,11.230
1689613051.465,-47.363,-34.668,-30.273,-61.523,-36.133
1689613051.469,-49.316,-28.809,-27.344,-44.434,-146.484
1689613051.473,-37.598,-29.785,-14.648,-13.672,-76.660
1689613051.477,-31.250,-30.762,-18.066,-13.184,214.355
1689613051.480,-33.691,-30.273,-23.438,-41.504,48.340
1689613051.484,-40.039,-29.785,-23.926,-51.270,-291.016
1689613051.488,-37.598,-25.391,-23.438,-29.297,-91.309
1689613051.492,-42.969,-28.320,-31.250,-12.207,10.742
1689613051.496,-48.828,-33.691,-32.715,-24.414,-124.512
1689613051.496,-46.387,-30.273,-23.926,-53.711,-186.523
1689613051.500,-42.969,-17.578,-21.973,-62.012,-73.730
1689613051.504,-39.551,-9.766,-18.066,-36.133,125.977
1689613051.508,-34.180,-19.531,-13.672,-13.184,-37.109
1689613051.512,-36.621,-29.297,-25.879,-21.484,-83.008
1689613051.516,-43.457,-25.879,-33.691,-50.781,177.246
1689613051.520,-43.457,-18.555,-24.902,-67.871,391.113
1689613051.523,-59.082,1.953,-21.973,-63.965,48.828
1689613051.527,-62.988,6.836,-19.531,-39.551,-163.086
1689613051.531,-54.688,-12.695,-14.648,-29.785,-36.621
1689613051.535,-70.801,-19.531,-23.926,-76.172,-94.238
1689613051.539,-85.449,-15.625,-25.879,-111.328,-227.539
1689613051.557,-103.516,-5.859,-17.578,-107.422,-210.938
1689613051.561,-113.281,-4.883,-16.113,-97.168,-135.742
1689613051.565,-118.164,-4.883,-20.508,-105.957,-149.414
1689613051.569,-125.000,-7.324,-22.949,-137.695,-206.055
1689613051.573,-131.348,-10.742,-19.043,-156.738,-179.688
1689613051.577,-136.230,-7.324,-19.043,-154.297,5.859
1689613051.581,-139.648,-4.883,-22.949,-134.766,-3.418
1689613051.584,-137.207,-8.789,-25.879,-125.488,-83.008
1689613051.588,-141.113,-16.602,-29.785,-147.949,-49.316
1689613051.592,-143.066,-14.648,-23.926,-165.039,297.852
1689613051.596,-133.301,-0.488,-23.926,-159.180,366.211
1689613051.600,-125.977,1.465,-26.855,-140.137,-93.750
1689613051.602,-131.836,-14.160,-30.762,-134.277,-136.719
1689613051.606,-140.625,-22.949,-37.598,-156.250,-108.887
1689613051.610,-145.020,-22.461,-37.109,-185.059,-183.105
1689613051.614,-163.574,-23.926,-35.156,-193.848,-198.242
1689613051.618,-166.992,-27.344,-36.621,-173.340,-100.586
1689613051.622,-153.320,-24.902,-37.598,-156.250,27.832
1689613051.626,-150.391,-24.414,-34.180,-163.086,30.273
1689613051.629,-145.020,-28.320,-27.344,-176.758,-97.168
1689613051.633,-139.160,-31.738,-22.949,-177.734,-0.488
1689613051.637,-121.094,-38.086,-25.879,-140.625,210.938
1689613051.641,-102.539,-39.551,-29.297,-105.469,-42.969
1689613051.645,-89.355,-29.785,-36.133,-100.098,-148.438
1689613051.647,-76.660,-28.320,-39.551,-110.352,-83.496
1689613051.651,-72.754,-33.203,-28.809,-121.094,-132.812
1689613051.655,-63.477,-35.156,-24.902,-99.609,-145.020
1689613051.659,-51.270,-39.062,-32.227,-63.477,-94.238
1689613051.663,-45.410,-38.574,-31.250,-55.664,1.953
1689613051.667,-33.691,-36.621,-35.156,-61.523,61.523
1689613051.671,-31.738,-34.668,-44.434,-61.523,-30.273
1689613051.674,-24.414,-34.180,-40.527,-35.645,-121.582
1689613051.678,-9.766,-38.574,-32.227,9.277,131.348
1689613051.682,-7.812,-46.875,-31.250,15.137,187.500
1689613051.686,2.441,-46.387,-34.668,-8.301,-63.965
1689613051.690,16.602,-41.504,-36.133,-12.207,-26.367
1689613051.706,25.879,-36.133,-37.109,16.113,228.027
1689613051.710,33.203,-34.180,-33.691,43.457,86.914
1689613051.714,33.691,-37.109,-30.273,46.387,-121.582
1689613051.718,28.809,-32.227,-28.320,29.785,-64.941
1689613051.722,38.086,-33.203,-28.320,17.090,-106.934
1689613051.726,38.086,-45.410,-32.227,28.320,-140.137
1689613051.730,30.762,-40.527,-36.621,42.969,-121.094
1689613051.733,38.086,-33.691,-38.086,53.711,102.051
1689613051.737,41.992,-33.691,-33.691,42.969,213.379
1689613051.741,31.738,-30.762,-26.367,17.578,-139.160
1689613051.745,24.902,-36.133,-22.461,22.461,-243.652
1689613051.749,28.809,-41.016,-22.461,44.434,-122.559
1689613051.738,29.785,-38.574,-27.344,54.199,-117.188
1689613051.742,27.344,-36.621,-29.785,37.598,-153.320
1689613051.746,24.902,-36.133,-31.738,7.324,-65.918
1689613051.750,13.184,-39.062,-28.320,9.766,0.488
1689613051.754,4.883,-41.504,-29.785,32.715,-44.434
1689613051.758,7.324,-41.504,-33.691,34.180,-22.461
1689613051.762,6.348,-38.574,-27.344,20.508,101.562
1689613051.765,2.930,-35.156,-27.832,0.977,59.082
1689613051.769,4.395,-36.621,-29.785,-0.488,-147.949
1689613051.773,8.789,-40.527,-30.762,23.438,-144.043
1689613051.777,7.812,-40.039,-29.785,40.039,-72.754
1689613051.781,7.812,-35.645,-26.855,28.320,298.828
1689613051.782,6.348,-29.785,-29.785,-7.812,282.715
1689613051.786,9.277,-33.691,-29.297,-20.020,-181.152
1689613051.790,15.137,-30.762,-28.809,5.371,-170.410
1689613051.794,19.531,-20.020,-28.809,34.668,-99.121
1689613051.798,17.578,-22.461,-27.344,30.273,-141.602
1689613051.802,7.812,-29.297,-23.926,1.953,-171.875
1689613051.806,0.000,-33.203,-23.438,-2.930,133.789
1689613051.809,-2.930,-39.062,-26.855,18.555,406.738
1689613051.813,0.488,-37.598,-30.273,29.785,41.504
1689613051.817,-0.977,-33.691,-31.250,16.602,-223.633
1689613051.821,-10.742,-32.227,-28.320,-9.277,-184.082
1689613051.825,-16.602,-26.367,-34.180,-30.762,-168.945
1689613051.826,-4.883,-26.855,-35.645,-8.301,-171.875
1689613051.830,-6.348,-31.250,-24.902,18.555,-159.668
1689613051.834,-36.621,-35.645,-19.043,-1.465,-70.312
1689613051.838,-44.922,-41.504,-21.973,-24.414,-121.094
1689613051.842,-39.062,-40.039,-20.508,-30.273,-173.340
1689613051.846,-41.504,-37.109,-20.996,-23.926,-103.516
1689613051.850,-42.480,-44.434,-21.484,-0.977,249.512
1689613051.853,-39.551,-44.922,-24.902,2.441,329.102
1689613051.857,-34.668,-41.504,-26.855,-20.996,-96.680
1689613051.861,-33.203,-45.410,-28.809,-33.691,-72.266
1689613051.865,-32.715,-43.457,-33.691,-24.414,288.574
1689613051.869,-34.180,-44.922,-34.668,-7.324,156.738
1689613051.872,-30.273,-42.969,-36.133,-0.977,-142.578
1689613051.876,-29.297,-36.133,-34.180,-13.184,-68.359
1689613051.880,-34.180,-39.551,-29.297,-35.645,-89.844
1689613051.884,-36.621,-43.457,-26.367,-34.668,-164.551
1689613051.888,-27.344,-41.016,-28.809,-6.836,-185.059
1689613051.892,-20.020,-37.109,-28.809,8.301,65.918
1689613051.896,-17.578,-32.227,-19.043,-4.883,216.797
1689613051.899,-14.160,-25.879,-13.184,-28.809,-60.547
1689613051.903,-22.949,-26.855,-18.555,-27.344,-210.938
1689613051.907,-26.367,-30.273,-20.996,0.000,54.688
1689613051.911,-23.926,-27.344,-19.531,6.836,196.289
1689613051.915,-23.438,-23.438,-16.113,-15.625,-98.633
1689613051.932,-32.227,-25.879,-23.926,-45.898,-165.527
1689613051.936,-42.969,-27.344,-34.180,-53.223,-107.422
1689613051.940,-40.039,-25.879,-27.832,-29.297,-99.609
1689613051.944,-32.227,-29.297,-23.926,-7.812,-132.324
1689613051.948,-31.250,-31.738,-23.438,-18.066,-104.004
1689613051.952,-28.320,-26.855,-19.531,-41.992,32.227
1689613051.956,-22.461,-20.020,-16.113,-40.527,2.930
1689613051.959,-27.832,-21.973,-20.508,-21.484,-142.090
1689613051.963,-34.180,-25.879,-27.832,-12.695,-166.504
1689613051.967,-25.391,-21.484,-29.785,-17.578,264.160
1689613051.971,-30.762,-18.555,-23.438,-42.969,250.488
1689613051.975,-40.527,-21.973,-20.508,-61.523,-300.293
1689613051.991,-33.691,-27.832,-21.973,-40.039,-168.945
1689613051.995,-30.762,-30.762,-26.855,-16.113,-16.113
1689613051.999,-34.668,-29.785,-25.391,-18.555,-166.504
1689613052.003,-33.691,-29.785,-26.855,-47.852,-237.793
1689613052.007,-33.691,-27.832,-28.809,-57.617,-132.324
1689613052.011,-32.227,-23.926,-25.879,-35.156,13.184
1689613052.015,-28.320,-23.926,-24.902,-15.137,94.727
1689613052.018,-30.273,-25.879,-22.461,-21.973,23.926
1689613052.022,-30.762,-28.320,-20.020,-44.434,105.469
1689613052.026,-38.086,-30.273,-22.461,-59.082,252.441
1689613052.030,-35.156,-28.809,-22.949,-47.852,-74.707
1689613052.034,-29.297,-29.785,-25.391,-13.672,-126.953
1689613052.023,-32.715,-33.203,-28.809,-9.277,-18.555
1689613052.027,-27.832,-30.273,-26.367,-31.738,-56.152
1689613052.031,-27.344,-26.367,-24.902,-48.340,-78.613
1689613052.035,-31.250,-29.297,-25.879,-40.039,-40.527
1689613052.039,-31.250,-36.621,-28.320,-16.113,23.438
1689613052.043,-27.832,-34.668,-29.785,-10.254,44.434
1689613052.047,-24.902,-29.297,-20.020,-28.320,-8.789
1689613052.050,-29.785,-23.926,-11.719,-45.898,-8.789
1689613052.054,-36.133,-25.879,-18.066,-42.480,8.789
1689613052.058,-33.203,-30.762,-26.855,-19.043,-20.508
1689613052.062,-35.156,-28.320,-31.738,-9.277,-98.633
1689613052.066,-39.062,-28.809,-36.133,-40.039,-145.020
1689613052.067,-42.480,-31.250,-34.668,-60.547,216.797
1689613052.071,-44.434,-35.645,-30.762,-55.664,194.824
1689613052.075,-41.504,-35.645,-30.273,-33.691,-209.473
1689613052.079,-31.250,-31.738,-25.391,-19.531,-84.961
1689613052.083,-23.926,-30.273,-27.832,-33.691,-20.996
1689613052.087,-25.879,-29.785,-31.738,-52.246,-142.578
1689613052.091,-30.273,-32.227,-31.250,-48.828,-128.418
1689613052.094,-31.738,-32.227,-34.180,-22.461,174.316
1689613052.098,-20.020,-29.785,-33.691,-4.395,427.734
1689613052.102,-2.930,-24.414,-29.297,-7.812,62.988
1689613052.106,-12.695,-22.461,-20.996,-36.621,-207.031
1689613052.110,-47.363,-27.832,-13.184,-65.918,-135.742
1689613052.111,-62.012,-34.180,-12.207,-52.734,-120.605
1689613052.115,-59.082,-40.039,-16.113,-32.715,-168.457
1689613052.119,-55.664,-38.574,-18.066,-38.574,-123.047
1689613052.123,-58.594,-39.062,-15.625,-61.035,-91.309
1689613052.127,-63.477,-44.922,-14.648,-75.684,-129.883
1689613052.131,-63.965,-48.340,-20.996,-59.082,-16.602
1689613052.135,-50.781,-46.387,-21.484,-30.762,53.711
1689613052.138,-43.457,-43.945,-17.578,-22.461,360.840
1689613052.142,-48.340,-38.574,-20.996,-40.039,363.770
1689613052.146,-45.898,-31.738,-21.973,-53.711,-96.191
1689613052.150,-40.527,-34.180,-22.461,-34.180,-70.312
1689613052.154,-38.574,-30.762,-21.973,-2.930,80.078
1689613052.157,-36.133,-26.367,-23.438,-4.883,-52.734
1689613052.161,-39.062,-28.809,-25.879,-39.062,-235.352
1689613052.165,-40.527,-28.809,-22.461,-50.781,-144.043
1689613052.169,-42.969,-30.762,-20.020,-33.203,-65.918
1689613052.173,-39.551,-32.715,-21.484,-13.184,-177.734
1689613052.177,-27.832,-31.250,-20.020,-12.695,-118.164
1689613052.181,-31.738,-32.227,-18.066,-34.180,184.082
1689613052.184,-40.039,-30.762,-20.020,-53.223,187.988
1689613052.188,-34.668,-29.297,-23.438,-41.504,-216.309
1689613052.192,-35.645,-33.691,-26.855,-13.672,-283.691
1689613052.196,-39.551,-35.156,-24.414,-14.160,-114.258
1689613052.200,-39.551,-38.086,-20.508,-43.945,-147.949
1689613052.201,-35.156,-38.574,-24.414,-62.012,-259.277
1689613052.205,-31.738,-35.156,-23.438,-46.387,-207.031
1689613052.209,-33.691,-36.133,-20.508,-19.531,-61.523
1689613052.213,-32.227,-37.598,-25.879,-16.113,-6.348
1689613052.217,-34.668,-37.109,-25.879,-32.715,-96.191
1689613052.221,-39.551,-39.062,-27.344,-54.199,-36.133
1689613052.225,-36.621,-36.621,-26.367,-48.340,278.320
1689613052.228,-28.320,-32.227,-23.926,-16.602,148.926
1689613052.232,-29.297,-34.180,-27.344,-11.719,-141.113
1689613052.236,-31.738,-37.598,-25.879,-32.227,-45.898
1689613052.240,-32.715,-36.133,-27.832,-52.246,119.629
1689613052.244,-40.527,-32.715,-32.227,-55.664,-32.227
1689613052.248,-40.527,-33.203,-29.785,-34.180,-211.426
1689613052.252,-29.785,-30.273,-31.250,-14.160,-22.461
1689613052.256,-29.785,-23.438,-30.762,-23.926,68.359
1689613052.260,-32.715,-24.414,-23.438,-49.316,-108.887
1689613052.264,-31.250,-29.297,-20.508,-59.082,-158.691
1689613052.268,-35.645,-27.344,-20.020,-34.668,-32.715
1689613052.272,-36.133,-23.438,-21.484,-8.789,127.930
1689613052.275,-35.156,-25.879,-24.414,-30.273,41.016
1689613052.279,-33.691,-24.902,-24.414,-62.012,-130.371
1689613052.283,-33.691,-20.020,-25.879,-67.871,-76.660
1689613052.287,-36.621,-23.926,-29.785,-51.270,-64.453
1689613052.291,-37.109,-33.203,-31.250,-23.438,-105.957
1689613052.306,-35.645,-30.273,-30.762,-23.438,-104.980
1689613052.310,-31.738,-20.996,-29.785,-42.969,59.082
1689613052.314,-34.668,-24.414,-30.762,-49.805,134.277
1689613052.318,-34.180,-26.855,-31.738,-40.039,-27.832
1689613052.322,-28.320,-24.902,-30.762,-22.461,-83.008
1689613052.326,-22.461,-26.367,-30.273,-22.461,122.559
1689613052.330,-27.344,-26.367,-31.738,-44.434,174.805
1689613052.333,-31.738,-32.227,-29.297,-55.664,-121.582
1689613052.337,-27.832,-33.203,-25.879,-41.504,-210.449
1689613052.341,-43.945,-23.438,-32.715,-30.273,245.605
1689613052.345,-53.711,-19.043,-36.621,-44.922,269.043
1689613052.349,-56.152,-19.531,-32.715,-75.195,-231.445
1689613052.352,-61.523,-19.531,-37.598,-85.449,-183.594
1689613052.356,-54.199,-21.484,-33.691,-71.289,-41.504
1689613052.360,-50.781,-20.996,-31.250,-50.293,-69.824
1689613052.364,-52.246,-20.020,-40.527,-38.574,-99.609
1689613052.368,-55.176,-24.902,-42.969,-56.641,-79.590
1689613052.372,-49.805,-20.508,-39.551,-70.801,-29.297
1689613052.376,-37.598,-17.578,-37.109,-54.688,-29.297
1689613052.379,-34.180,-23.438,-35.156,-38.574,-79.102
1689613052.383,-24.414,-22.949,-33.691,-27.832,104.004
1689613052.387,-25.391,-19.043,-31.738,-34.668,292.969
1689613052.391,-31.250,-21.973,-27.344,-59.570,-43.945
1689613052.395,-29.785,-25.391,-24.414,-52.734,-285.645
1689613052.396,-36.133,-26.855,-24.902,-23.438,-156.738
1689613052.400,-39.062,-30.762,-28.809,-18.066,-85.938
1689613052.404,-38.574,-31.738,-28.320,-35.156,-164.551
1689613052.408,-39.062,-28.320,-25.879,-50.293,-196.289
1689613052.412,-37.598,-27.344,-32.715,-46.387,-119.141
1689613052.416,-35.645,-28.320,-37.598,-20.996,7.324
1689613052.420,-32.227,-31.250,-33.203,-9.277,50.781
1689613052.423,-28.320,-31.738,-30.762,-28.320,41.016
1689613052.427,-25.391,-31.250,-31.250,-50.293,57.617
1689613052.431,-26.367,-25.391,-35.645,-48.340,-26.367
1689613052.435,-27.832,-23.926,-31.738,-25.391,-111.816
1689613052.439,-25.391,-25.391,-27.832,-12.207,-58.105
1689613052.441,-28.809,-24.414,-26.855,-19.531,329.590
1689613052.445,-39.062,-25.391,-35.645,-43.945,310.547
1689613052.449,-43.457,-31.738,-38.086,-55.664,-141.602
1689613052.453,-46.387,-34.668,-27.344,-40.527,-180.176
1689613052.457,-39.551,-29.297,-26.855,-15.137,-136.230
1689613052.461,-35.156,-30.762,-27.832,-16.113,-17.578
1689613052.465,-38.086,-29.785,-23.926,-47.363,-1.953
1689613052.468,-37.109,-21.484,-21.484,-51.270,54.688
1689613052.472,-34.180,-22.461,-25.391,-22.461,183.594
1689613052.476,-27.344,-27.344,-25.879,-7.812,-57.617
1689613052.480,-29.785,-25.879,-24.414,-16.602,-142.578
1689613052.484,-37.109,-25.879,-23.438,-38.086,-49.316
1689613052.486,-38.574,-29.785,-22.949,-57.129,-142.090
1689613052.490,-38.574,-30.273,-27.832,-47.852,-237.793
1689613052.494,-32.715,-24.902,-34.668,-22.949,-167.969
1689613052.498,-27.832,-20.508,-38.086,-22.949,-112.793
1689613052.502,-33.691,-22.461,-32.715,-46.387,-96.680
1689613052.506,-35.156,-27.832,-31.738,-52.246,-107.422
1689613052.510,-32.715,-30.762,-31.250,-39.062,-50.781
1689613052.513,-28.320,-33.203,-28.809,-12.695,271.484
1689613052.517,-25.391,-30.762,-24.902,-3.906,169.922
1689613052.521,-26.855,-27.832,-20.996,-31.250,-104.980
1689613052.525,-32.715,-27.832,-25.391,-49.316,5.859
1689613052.529,-29.297,-24.414,-28.809,-32.227,15.625
1689613052.533,-23.926,-15.137,-29.785,-14.648,-33.203
1689613052.537,-27.344,-16.602,-27.344,-17.578,-29.785
1689613052.541,-37.598,-23.926,-23.926,-37.598,49.316
1689613052.545,-44.922,-25.879,-22.461,-52.734,190.430
1689613052.549,-31.738,-26.855,-27.344,-36.133,-85.938
1689613052.553,-22.949,-28.809,-30.762,-8.301,-229.980
1689613052.557,-25.879,-34.668,-26.855,4.883,72.266
1689613052.560,-32.227,-35.645,-31.738,-13.672,195.312
1689613052.564,-36.621,-33.203,-34.668,-37.598,-137.207
1689613052.568,-32.715,-34.180,-30.762,-34.180,-246.582
1689613052.572,-26.855,-30.762,-35.645,-10.254,-98.145
1689613052.576,-18.555,-24.414,-31.738,6.836,-63.965
1689613052.576,-17.090,-25.879,-24.902,-2.441,-128.418
1689613052.580,-22.461,-25.879,-27.832,-29.297,-168.457
1689613052.584,-24.902,-24.414,-28.809,-29.297,-148.926
1689613052.588,-21.484,-24.414,-25.879,0.000,-86.426
1689613052.592,-22.949,-27.832,-37.598,13.184,-77.148
1689613052.596,-18.555,-27.832,-35.645,-0.488,-29.297
1689613052.600,-18.555,-26.855,-27.832,-23.926,287.598
1689613052.603,-28.320,-27.344,-28.809,-24.902,354.004
1689613052.607,-25.879,-26.367,-23.438,-6.348,-107.422
1689613052.611,-24.902,-24.414,-20.996,6.836,-54.199
1689613052.615,-29.785,-23.926,-22.461,-3.906,154.785
1689613052.619,-32.227,-28.320,-26.855,-29.297,-140.137
1689613052.622,-32.715,-26.367,-25.391,-33.691,-272.949
1689613052.626,-28.320,-24.414,-20.020,-14.648,-165.527
1689613052.630,-27.344,-27.832,-21.484,-8.789,-90.332
1689613052.634,-30.762,-22.461,-20.996,-14.160,-106.445
1689613052.638,-41.016,-29.297,-21.973,-33.203,-185.059
1689613052.642,-27.344,-36.133,-20.020,-29.297,-24.902
1689613052.646,-25.879,-24.414,-24.902,-22.461,138.672
1689613052.649,-45.410,-19.531,-38.086,-30.762,88.379
1689613052.653,-44.434,-14.160,-34.668,-34.668,-81.543
1689613052.657,-42.969,-11.230,-32.227,-54.199,24.902
1689613052.661,-40.527,-8.301,-40.527,-64.453,214.355
1689613052.665,-38.086,-4.395,-44.922,-57.129,-88.867
1689613052.681,-28.320,-5.859,-42.969,-32.715,-126.953
1689613052.685,-29.297,-9.277,-43.945,-27.832,-13.672
1689613052.689,-35.645,-16.113,-43.457,-51.758,-59.082
1689613052.693,-33.203,-20.020,-37.109,-65.430,-154.785
1689613052.697,-27.832,-18.555,-34.180,-45.410,-107.422
1689613052.701,-25.391,-18.555,-39.062,-12.695,22.949
1689613052.705,-26.855,-21.973,-39.551,-20.020,28.809
1689613052.708,-29.297,-22.461,-35.156,-46.875,-57.129
1689613052.712,-31.250,-21.973,-39.062,-55.664,-107.422
1689613052.716,-26.855,-18.555,-36.133,-41.992,254.883
1689613052.720,-22.949,-16.602,-30.273,-15.137,397.461
1689613052.724,-21.484,-17.578,-31.250,-13.184,-60.547
1689613052.726,-21.973,-20.020,-28.320,-39.551,-157.715
1689613052.730,-29.297,-25.879,-30.762,-63.477,-84.473
1689613052.734,-35.645,-30.273,-30.762,-61.035,-154.297
1689613052.738,-31.250,-30.273,-27.344,-41.016,-134.766
1689613052.742,-23.438,-27.344,-24.902,-28.320,-36.621
1689613052.746,-27.832,-24.414,-26.367,-39.062,19.043
1689613052.750,-33.203,-27.832,-32.227,-55.176,-7.324
1689613052.753,-39.062,-28.809,-33.691,-56.641,-122.559
1689613052.757,-36.621,-28.809,-27.344,-21.973,59.082
1689613052.761,-34.668,-31.738,-23.926,-0.488,244.629
1689613052.765,-35.645,-29.297,-31.738,-30.762,-81.543
1689613052.769,-36.621,-30.273,-31.250,-53.711,-214.844
1689613052.771,-41.016,-35.156,-26.367,-52.734,-101.562
1689613052.775,-41.504,-32.715,-32.715,-33.203,-66.895
1689613052.779,-33.203,-23.926,-32.227,-13.672,-169.922
1689613052.783,-28.320,-17.578,-27.832,-22.949,-154.785
1689613052.787,-34.668,-23.926,-34.668,-48.828,-114.746
1689613052.791,-43.457,-24.902,-23.926,-52.734,-34.180
1689613052.795,-44.922,-24.414,-12.207,-34.668,-5.859
1689613052.798,-41.992,-27.344,-18.555,-16.602,-61.035
1689613052.802,-43.457,-29.297,-25.879,-20.020,206.055
1689613052.806,-40.039,-28.320,-29.297,-45.410,237.793
1689613052.810,-40.527,-25.879,-23.438,-62.500,-99.121
1689613052.814,-37.109,-32.227,-27.344,-48.340,-124.512
1689613052.818,-28.320,-36.133,-36.133,-16.113,73.730
1689613052.822,-30.273,-28.320,-31.738,-20.508,43.945
1689613052.826,-34.180,-24.902,-29.785,-51.270,-153.809
1689613052.830,-31.738,-29.785,-30.762,-57.617,-64.941
1689613052.834,-28.320,-28.809,-37.109,-37.598,68.848
1689613052.838,-31.250,-18.555,-40.527,-14.648,-15.137
1689613052.842,-25.391,-20.996,-25.879,-11.230,-29.785
1689613052.845,-21.484,-28.809,-24.902,-31.738,135.254
1689613052.849,-33.691,-30.762,-30.762,-45.898,241.211
1689613052.853,-30.273,-31.738,-26.855,-39.062,-58.105
1689613052.857,-22.949,-23.438,-26.367,-13.184,-183.594
1689613052.861,-23.438,-20.996,-30.762,-3.906,-97.656
1689613052.861,-28.320,-22.461,-23.926,-27.832,-121.094
1689613052.865,-33.203,-31.738,-29.297,-51.758,-207.031
1689613052.869,-31.738,-41.016,-36.133,-37.109,-183.105
1689613052.873,-25.391,-30.762,-34.180,-5.371,-32.227
1689613052.877,-26.855,-23.926,-33.203,-7.324,7.812
1689613052.881,-29.297,-25.391,-29.785,-28.320,-6.348
1689613052.885,-26.855,-21.973,-24.414,-49.316,-7.324
1689613052.888,-34.180,-23.926,-29.785,-44.922,221.191
1689613052.892,-30.273,-32.715,-35.156,-12.695,255.371
1689613052.896,-20.996,-33.691,-32.715,-8.301,-114.746
1689613052.900,-33.691,-25.391,-25.391,-31.250,-105.957
1689613052.904,-40.527,-20.508,-16.602,-50.293,1.465
1689613052.906,-37.109,-28.320,-15.625,-50.781,-145.020
1689613052.910,-29.785,-28.809,-24.414,-19.043,-240.723
1689613052.914,-22.949,-21.973,-32.227,3.418,-103.516
1689613052.918,-24.902,-24.902,-26.367,-8.789,-93.750
1689613052.922,-21.484,-30.762,-21.484,-27.344,-145.996
1689613052.926,-36.133,-25.879,-31.738,-56.152,-120.117
1689613052.930,-56.152,-16.113,-42.969,-58.594,138.672
1689613052.933,-54.199,-17.090,-41.016,-30.273,461.426
1689613052.937,-60.547,-18.066,-48.828,-53.711,66.895
1689613052.941,-69.824,-21.484,-53.223,-93.750,-200.684
1689613052.945,-69.336,-18.066,-43.945,-95.215,-107.422
1689613052.949,-63.477,-13.672,-52.734,-70.312,-124.512
1689613052.951,-57.129,-18.555,-57.617,-46.875,-149.414
1689613052.955,-55.664,-17.578,-43.945,-52.246,-166.016
1689613052.959,-54.688,-19.531,-40.039,-74.219,-106.445
1689613052.963,-56.152,-23.438,-41.992,-86.914,-107.910
1689613052.967,-55.176,-18.555,-42.969,-64.453,-131.836
1689613052.971,-46.387,-18.066,-47.852,-35.156,-38.574
1689613052.975,-33.203,-17.578,-45.898,-29.785,288.574
1689613052.978,-26.367,-21.973,-44.922,-52.734,187.988
1689613052.982,-30.762,-27.344,-40.039,-72.266,-191.895
1689613052.986,-34.180,-21.973,-32.715,-54.688,23.438
1689613052.990,-28.320,-26.367,-37.109,-24.414,225.586
1689613052.994,-20.996,-28.320,-36.133,-21.484,-17.090
1689613052.997,-27.832,-27.344,-37.598,-53.711,-205.566
1689613053.001,-33.203,-33.691,-42.480,-72.266,-58.594
1689613053.005,-33.691,-34.180,-41.504,-60.547,118.652
1689613053.009,-30.762,-30.273,-37.598,-33.203,-29.785
1689613053.013,-26.367,-26.367,-35.645,-30.273,-162.598
1689613053.017,-27.832,-30.273,-43.457,-55.176,68.359
1689613053.021,-31.738,-34.668,-36.621,-68.848,210.449
1689613053.024,-37.598,-32.227,-35.156,-66.895,-49.805
1689613053.028,-35.645,-33.691,-40.039,-39.551,-140.137
1689613053.032,-32.227,-31.250,-35.156,-22.461,11.719
1689613053.036,-32.715,-32.715,-33.691,-45.410,-5.859
1689613053.040,-29.785,-35.645,-26.367,-64.941,-145.996
1689613053.056,-25.879,-35.156,-27.344,-54.688,-153.809
1689613053.060,-27.344,-33.691,-31.250,-26.855,-30.273
1689613053.064,-26.855,-29.297,-25.879,-13.184,14.160
1689613053.068,-24.902,-25.391,-25.879,-32.227,-122.070
1689613053.072,-27.832,-26.855,-25.879,-49.805,-151.367
1689613053.076,-30.762,-30.273,-33.203,-43.945,-7.324
1689613053.080,-31.738,-25.879,-36.133,-23.926,72.266
1689613053.083,-28.809,-23.926,-27.344,-17.090,-64.941
1689613053.087,-33.203,-26.855,-26.367,-34.180,-51.758
1689613053.091,-40.039,-32.227,-30.762,-58.105,38.086
1689613053.095,-36.133,-30.273,-29.297,-57.129,-94.238
1689613053.099,-32.227,-26.367,-26.855,-31.250,-148.438
1689613053.102,-28.320,-27.344,-29.785,-11.719,-86.914
1689613053.106,-25.391,-27.832,-40.039,-16.113,340.332
1689613053.110,-27.832,-28.320,-38.574,-46.875,386.230
1689613053.114,-35.645,-33.203,-29.297,-57.617,-135.254
1689613053.118,-36.133,-38.086,-27.344,-27.832,-106.934
1689613053.122,-37.109,-32.715,-30.273,-12.207,45.410
1689613053.126,-32.227,-29.785,-29.297,-19.531,-49.316
1689613053.129,-32.715,-28.809,-23.926,-40.039,-177.734
1689613053.133,-37.109,-25.391,-28.320,-50.293,-20.996
1689613053.137,-25.391,-24.902,-28.320,-30.273,168.945
1689613053.141,-27.344,-33.691,-30.273,-17.090,-62.500
1689613053.145,-25.879,-35.156,-34.180,-26.367,-120.117
1689613053.146,-29.785,-33.203,-29.785,-51.758,-120.117
1689613053.150,-36.621,-31.738,-28.809,-66.895,-207.031
1689613053.154,-35.645,-27.832,-31.250,-49.316,-224.121
1689613053.158,-32.227,-33.691,-32.715,-22.949,-60.547
1689613053.162,-32.227,-33.203,-31.250,-24.902,44.434
1689613053.166,-42.969,-30.273,-27.832,-54.688,5.371
1689613053.170,-42.969,-34.668,-27.832,-70.312,-59.570
1689613053.173,-42.480,-36.621,-32.715,-55.176,-165.527
1689613053.177,-41.016,-31.738,-35.156,-21.973,202.148
1689613053.181,-37.109,-35.156,-35.645,-21.484,323.242
1689613053.185,-38.574,-38.574,-31.250,-51.270,-127.930
1689613053.189,-41.992,-36.621,-29.297,-58.105,-137.207
1689613053.192,-40.527,-37.598,-39.062,-46.387,58.105
1689613053.196,-35.645,-28.809,-40.039,-26.367,-97.656
1689613053.200,-33.691,-22.461,-32.227,-18.066,-180.176
1689613053.204,-33.203,-19.531,-27.832,-40.039,-109.375
1689613053.208,-38.574,-20.508,-27.832,-58.594,-145.996
1689613053.212,-38.086,-22.949,-34.668,-51.758,-122.070
1689613053.216,-19.043,-24.414,-44.922,-13.672,-66.406
1689613053.219,-14.648,-32.227,-47.852,8.789,198.730
1689613053.223,-44.922,-40.039,-24.902,-26.855,398.926
1689613053.227,-66.406,-39.551,-8.301,-63.965,-32.715
1689613053.231,-62.012,-41.992,-13.672,-60.547,-290.039
1689613053.235,-58.105,-47.852,-8.301,-32.715,-113.281
1689613053.237,-57.129,-50.293,-10.254,-15.137,-29.785
1689613053.241,-60.547,-51.758,-19.043,-35.156,-125.977
1689613053.245,-69.824,-49.316,-22.949,-60.547,-188.477
1689613053.249,-60.059,-48.340,-20.020,-55.664,-204.590
1689613053.253,-47.852,-52.246,-25.391,-31.738,-159.668
1689613053.257,-46.387,-48.828,-36.621,-16.113,7.324
1689613053.261,-44.434,-39.551,-29.297,-32.715,34.180
1689613053.264,-50.781,-45.410,-16.602,-53.711,175.293
1689613053.268,-53.223,-48.340,-22.949,-58.594,114.746
1689613053.272,-45.898,-41.504,-23.438,-44.922,-110.352
1689613053.276,-42.480,-41.992,-19.531,-25.879,-30.762
1689613053.280,-38.086,-41.016,-22.949,-25.391,177.734
1689613053.281,-45.410,-41.992,-23.926,-48.340,15.137
1689613053.285,-54.199,-45.898,-27.344,-63.965,-265.137
1689613053.289,-42.969,-42.480,-26.367,-43.457,-106.445
1689613053.293,-32.227,-37.109,-25.879,-14.648,-22.949
1689613053.297,-30.762,-32.715,-23.438,-10.254,-107.910
1689613053.301,-33.203,-33.203,-15.625,-42.969,-70.312
1689613053.305,-38.086,-37.598,-20.508,-53.711,111.328
1689613053.308,-41.016,-37.598,-33.691,-39.551,185.547
1689613053.312,-36.621,-36.621,-37.109,-27.344,-18.066
1689613053.316,-26.367,-33.203,-35.156,-24.414,-128.906
1689613053.320,-26.855,-28.320,-23.438,-45.898,-115.723
1689613053.324,-36.621,-30.762,-22.949,-61.035,-87.402
1689613053.328,-31.250,-30.273,-31.250,-41.016,-121.582
1689613053.332,-24.902,-28.809,-25.391,-12.207,-169.922
1689613053.336,-28.320,-31.250,-24.414,-13.672,-16.602
1689613053.340,-30.762,-34.180,-26.367,-30.273,-26.367
1689613053.344,-29.297,-33.691,-30.762,-39.062,-192.871
1689613053.348,-25.879,-28.809,-35.156,-28.320,-92.285
1689613053.352,-25.879,-30.762,-23.926,0.488,293.945
1689613053.355,-27.832,-32.715,-17.578,0.977,206.055
1689613053.359,-32.227,-30.762,-26.855,-24.414,-227.051
1689613053.363,-43.945,-34.668,-33.203,-39.551,-174.805
1689613053.367,-40.527,-31.250,-26.855,-26.855,135.742
1689613053.371,-31.738,-28.809,-32.715,-1.953,-2.930
1689613053.386,-28.809,-29.297,-41.504,6.836,-236.328
1689613053.390,-28.809,-26.855,-35.645,-15.625,-149.902
1689613053.394,-34.668,-33.691,-34.668,-37.109,-58.105
1689613053.398,-31.738,-35.645,-31.738,-28.809,-118.652
1689613053.402,-26.855,-27.832,-22.461,-8.301,-201.660
1689613053.406,-23.438,-24.902,-29.785,5.859,95.215
1689613053.410,-19.043,-26.855,-41.504,-1.465,375.000
1689613053.413,-25.391,-26.855,-30.762,-37.109,-42.480
1689613053.417,-16.113,-20.508,-24.414,-40.527,-264.648
1689613053.421,-8.789,-20.020,-22.949,0.000,-76.660
1689613053.425,-33.691,-28.809,-10.742,4.395,-47.363
1689613053.429,-41.016,-25.879,-0.488,-19.531,-125.000
1689613053.431,-41.992,-24.902,-4.395,-46.387,-153.809
1689613053.435,-56.641,-34.668,-19.531,-60.547,-149.414
1689613053.439,-53.711,-35.645,-21.973,-35.156,-91.309
1689613053.443,-41.016,-31.250,-16.113,-9.766,-92.285
1689613053.447,-41.992,-37.109,-18.066,-24.902,-111.816
1689613053.451,-40.039,-39.062,-9.277,-44.434,28.320
1689613053.455,-41.504,-38.086,-2.930,-50.293,90.332
1689613053.458,-40.527,-38.086,-14.160,-35.645,-43.457
1689613053.462,-31.250,-33.203,-23.438,-14.648,-108.887
1689613053.466,-29.297,-34.180,-20.996,-13.672,320.312
1689613053.470,-28.320,-33.691,-19.043,-33.203,366.699
1689613053.474,-28.809,-32.715,-22.461,-57.617,-168.945
1689613053.476,-24.414,-32.227,-28.320,-40.039,-155.273
1689613053.480,-27.832,-29.785,-31.250,-9.277,-39.551
1689613053.484,-27.832,-29.297,-20.020,-11.719,-150.391
1689613053.488,-30.273,-31.738,-13.184,-38.086,-218.750
1689613053.492,-37.598,-26.367,-19.531,-52.246,-144.531
1689613053.496,-29.297,-19.531,-27.832,-30.273,-46.387
1689613053.500,-19.043,-21.973,-27.344,-4.883,37.598
1689613053.503,-21.973,-23.438,-33.691,-13.672,-40.527
1689613053.507,-27.344,-23.926,-34.180,-36.621,35.645
1689613053.511,-31.738,-28.809,-18.555,-42.480,265.625
1689613053.515,-32.227,-29.785,-24.902,-35.156,-7.812
1689613053.519,-18.555,-28.320,-21.484,-9.277,-202.637
1689613053.521,-19.531,-25.879,-21.484,-2.930,-133.789
1689613053.525,-30.273,-21.973,-31.738,-34.180,-154.785
1689613053.529,-36.133,-23.438,-23.926,-47.852,-199.707
1689613053.533,-36.621,-28.320,-23.926,-36.133,-149.414
1689613053.537,-32.227,-28.320,-25.391,-16.602,-54.199
1689613053.541,-30.762,-28.809,-28.320,-5.859,-10.742
1689613053.545,-43.945,-34.668,-30.273,-35.645,22.461
1689613053.548,-49.805,-36.621,-24.414,-61.035,-42.480
1689613053.552,-46.387,-33.691,-30.273,-40.527,121.094
1689613053.556,-45.410,-32.715,-37.598,-16.602,160.156
1689613053.560,-31.738,-31.250,-31.250,-9.277,-68.359
1689613053.564,-29.785,-33.203,-26.367,-24.902,-22.949
1689613053.566,-34.668,-33.691,-29.785,-45.410,164.551
1689613053.570,-33.203,-30.762,-35.645,-46.387,9.277
1689613053.574,-32.227,-31.250,-28.320,-34.668,-194.824
1689613053.578,-25.879,-28.809,-20.508,-17.090,-44.922
1689613053.582,-30.273,-26.367,-24.414,-27.832,-34.180
1689613053.586,-34.180,-22.949,-25.879,-46.387,-47.852
1689613053.590,-27.344,-25.391,-29.785,-37.598,35.645
1689613053.593,-29.297,-35.645,-27.344,-11.719,127.930
1689613053.597,-37.598,-40.527,-30.273,0.488,228.516
1689613053.601,-38.574,-34.668,-38.574,-17.090,-21.484
1689613053.605,-29.297,-28.809,-26.367,-39.551,-203.613
1689613053.609,-27.344,-31.738,-28.320,-41.504,-166.504
1689613053.612,-30.762,-39.062,-34.180,-20.508,-92.285
1689613053.616,-23.926,-41.992,-29.785,-2.441,-84.473
1689613053.620,-23.926,-37.109,-28.809,-15.625,-89.844
1689613053.624,-38.574,-35.156,-30.273,-50.293,-27.344
1689613053.628,-45.898,-35.645,-37.109,-61.035,-59.570
1689613053.632,-37.598,-31.738,-35.645,-29.297,-85.938
1689613053.636,-31.250,-32.227,-31.250,-0.977,-35.645
1689613053.639,-30.273,-37.598,-37.109,-4.395,252.930
1689613053.643,-35.156,-43.945,-44.434,-28.809,128.418
1689613053.647,-41.016,-44.922,-45.410,-44.434,-215.332
1689613053.651,-40.039,-41.504,-39.062,-33.203,-63.477
1689613053.655,-41.016,-38.086,-33.203,-14.648,68.848
1689613053.658,-32.227,-26.855,-24.902,-17.578,-70.801
1689613053.662,-33.691,-26.367,-32.715,-39.551,-196.289
1689613053.666,-36.621,-27.344,-44.434,-54.688,-77.148
1689613053.670,-35.156,-25.391,-31.738,-44.922,-42.969
1689613053.674,-35.156,-36.133,-22.949,-25.879,-124.023
1689613053.678,-24.902,-35.645,-21.973,-23.926,-99.121
1689613053.682,-35.156,-34.180,-26.367,-47.852,127.441
1689613053.685,-36.133,-36.621,-33.691,-57.617,298.340
1689613053.689,-31.738,-32.715,-37.598,-43.457,-13.672
1689613053.693,-27.344,-24.902,-36.133,-20.508,-155.762
1689613053.697,-19.043,-25.879,-35.645,-9.766,-74.219
1689613053.701,-23.438,-26.855,-20.996,-28.809,-119.629
1689613053.701,-33.691,-20.020,-23.438,-53.223,-203.125
1689613053.705,-41.016,-30.762,-43.457,-54.199,-162.109
1689613053.709,-40.039,-37.109,-31.738,-27.344,-87.402
1689613053.713,-41.016,-33.691,-17.578,-20.020,-70.801
1689613053.717,-39.062,-27.344,-30.273,-47.852,-95.703
1689613053.721,-39.551,-32.227,-33.203,-73.242,-108.887
1689613053.725,-43.457,-34.668,-28.809,-57.129,279.297
1689613053.728,-38.086,-26.855,-30.273,-24.902,323.242
1689613053.732,-39.062,-24.414,-29.785,-22.461,-127.441
1689613053.736,-43.457,-28.809,-34.180,-37.109,-172.363
1689613053.740,-48.340,-30.762,-37.598,-56.152,194.824
1689613053.744,-45.898,-29.785,-27.832,-58.105,129.395
1689613053.747,-32.227,-26.367,-20.020,-32.715,-210.938
1689613053.751,-26.855,-25.391,-18.555,-12.207,-92.773
1689613053.755,-33.203,-28.809,-20.508,-22.949,-68.359
1689613053.759,-37.109,-38.574,-20.996,-47.363,-141.602
1689613053.763,-41.016,-46.387,-20.508,-59.570,-184.570
1689613053.767,-38.574,-33.203,-30.762,-34.668,84.473
1689613053.771,-32.715,-26.855,-34.668,-6.836,302.734
1689613053.774,-35.645,-26.855,-36.133,-22.461,104.492
1689613053.778,-36.133,-28.320,-32.227,-51.758,-96.680
1689613053.782,-31.250,-30.273,-15.625,-50.293,26.367
1689613053.786,-33.691,-34.180,-20.996,-31.738,119.629
1689613053.790,-32.715,-30.762,-23.926,-18.066,-198.242
1689613053.806,-26.367,-28.320,-33.691,-23.926,-227.539
1689613053.810,-22.949,-30.762,-39.551,-44.434,-139.160
1689613053.814,-30.762,-32.227,-26.367,-55.664,-143.066
1689613053.818,-35.645,-34.180,-27.344,-48.340,-193.359
1689613053.822,-30.762,-30.273,-30.273,-26.855,-113.770
1689613053.826,-31.738,-33.691,-27.344,-24.414,136.230
1689613053.830,-35.645,-37.109,-26.855,-49.316,125.000
1689613053.833,-34.668,-34.180,-28.809,-53.711,-84.961
1689613053.837,-38.086,-27.344,-34.668,-47.852,-125.488
1689613053.841,-45.410,-21.973,-40.039,-41.504,243.164
1689613053.845,-43.457,-20.996,-41.992,-31.738,315.430
1689613053.849,-39.551,-27.344,-33.691,-55.176,-78.613
1689613053.851,-37.109,-26.367,-27.344,-67.383,-120.117
1689613053.855,-34.180,-16.113,-32.227,-47.363,11.230
1689613053.859,-37.598,-17.090,-34.668,-34.668,-119.141
1689613053.863,-43.457,-25.879,-38.574,-40.527,-230.957
1689613053.867,-48.828,-30.762,-34.180,-59.082,-112.793
1689613053.871,-55.176,-31.738,-32.715,-73.730,9.766
1689613053.875,-50.781,-36.133,-37.109,-57.129,-18.066
1689613053.878,-40.527,-35.645,-35.645,-34.180,-151.855
1689613053.882,-36.133,-35.645,-39.551,-30.273,21.484
1689613053.886,-40.527,-38.086,-44.922,-46.875,188.477
1689613053.890,-41.504,-32.227,-32.227,-62.988,-167.969
1689613053.894,-41.992,-28.320,-27.832,-50.293,-292.480
1689613053.896,-43.945,-30.762,-28.809,-20.508,-5.371
1689613053.900,-40.527,-35.156,-25.879,-12.695,76.172
1689613053.904,-38.574,-39.551,-29.785,-38.574,-107.910
1689613053.908,-41.992,-40.039,-36.133,-59.570,-125.488
1689613053.912,-39.062,-31.250,-38.086,-53.711,-53.223
1689613053.916,-33.691,-30.273,-35.156,-30.273,29.785
1689613053.920,-31.738,-33.691,-34.180,-21.484,33.691
1689613053.923,-29.785,-32.715,-32.715,-38.086,-22.461
1689613053.927,-33.691,-32.227,-31.250,-56.641,176.758
1689613053.931,-35.156,-34.668,-29.297,-62.500,208.496
1689613053.935,-32.227,-34.180,-37.109,-44.434,-131.836
1689613053.939,-34.668,-33.203,-39.551,-27.344,-106.445
1689613053.941,-39.062,-32.715,-28.320,-37.109,86.426
1689613053.945,-35.645,-32.227,-25.879,-53.711,-99.121
1689613053.949,-32.227,-34.180,-28.320,-48.340,-241.699
1689613053.953,-35.156,-34.668,-34.668,-28.809,-26.855
1689613053.957,-36.133,-34.180,-31.250,-12.207,106.445
1689613053.961,-36.133,-34.180,-31.738,-20.508,60.059
1689613053.965,-45.898,-35.156,-41.016,-49.805,-44.922
1689613053.968,-48.828,-37.598,-34.668,-55.664,0.488
1689613053.972,-46.387,-35.645,-34.180,-35.156,188.965
1689613053.976,-49.316,-29.297,-33.691,-18.066,-45.898
1689613053.980,-48.828,-23.926,-35.156,-30.762,-209.961
1689613053.984,-45.410,-23.926,-40.039,-55.176,-165.527
1689613054.002,-57.129,-32.227,-33.691,-66.406,-167.480
1689613054.006,-49.805,-43.945,-29.297,-37.109,-229.492
1689613054.010,-15.625,-42.969,-29.785,7.812,-189.453
1689613054.014,-21.484,-24.902,-35.156,-0.977,-74.707
1689613054.018,-37.109,-13.672,-38.086,-38.574,-19.531
1689613054.022,-33.691,-13.184,-41.504,-56.641,-57.129
1689613054.026,-28.320,-10.742,-48.828,-47.363,-48.340
1689613054.029,-14.648,-7.324,-52.246,-14.160,283.691
1689613054.033,-0.977,-1.465,-55.176,-2.441,297.363
1689613054.037,-0.977,-1.465,-54.199,-37.598,-113.281
1689613054.041,3.906,-1.953,-50.781,-52.734,-132.812
1689613054.045,14.648,5.859,-54.199,-30.273,-6.348
1689613054.031,9.766,3.906,-55.664,-9.766,-113.281
1689613054.035,9.277,-6.836,-52.734,-3.906,-193.848
1689613054.039,16.602,-10.742,-56.641,-32.227,-104.004
1689613054.043,16.113,-6.836,-55.664,-50.781,-71.777
1689613054.047,8.789,-9.766,-51.758,-37.109,-146.484
1689613054.051,4.883,-15.625,-51.758,-14.160,-41.504
1689613054.055,3.418,-16.113,-49.316,1.953,178.711
1689613054.058,1.465,-13.672,-41.992,-20.020,41.016
1689613054.062,-2.441,-15.137,-33.203,-47.363,-86.426
1689613054.066,-6.348,-14.160,-34.180,-40.039,-147.949
1689613054.070,-8.301,-13.672,-37.109,-9.766,20.996
1689613054.074,-11.719,-20.996,-32.715,5.371,362.305
1689613054.076,-13.184,-25.879,-36.133,-19.531,45.898
1689613054.080,-11.719,-22.949,-46.875,-43.945,-208.496
1689613054.084,-10.254,-25.391,-40.527,-34.180,-118.652
1689613054.088,-13.184,-29.785,-28.320,-12.695,-90.332
1689613054.092,-15.625,-26.855,-28.320,-2.930,-112.793
1689613054.096,-19.043,-24.902,-34.180,-18.555,-48.828
1689613054.100,-20.996,-22.461,-31.250,-39.551,187.012
1689613054.103,-14.648,-20.508,-30.762,-36.621,100.098
1689613054.107,-13.184,-22.461,-40.039,-17.090,-151.367
1689613054.111,-15.625,-24.414,-42.969,-5.859,-86.914
1689613054.115,-18.066,-32.715,-45.898,-15.137,198.242
1689613054.119,-20.508,-31.738,-42.969,-36.133,102.539
1689613054.136,-18.555,-26.367,-32.715,-44.434,-255.371
1689613054.140,-19.043,-32.227,-33.691,-21.973,-126.953
1689613054.144,-19.043,-32.227,-33.691,6.348,34.180
1689613054.148,-16.602,-31.250,-27.832,-1.465,-100.098
1689613054.152,-19.531,-27.344,-30.762,-28.320,-210.449
1689613054.156,-26.855,-26.367,-41.504,-41.016,16.113
1689613054.160,-30.273,-26.367,-40.039,-20.508,207.031
1689613054.163,-20.996,-27.832,-26.367,0.977,-56.641
1689613054.167,-20.508,-24.902,-24.902,-6.348,-133.301
1689613054.171,-32.715,-22.949,-23.438,-31.738,25.391
1689613054.175,-33.691,-26.855,-28.809,-45.410,17.090
1689613054.179,-24.414,-23.438,-35.156,-24.414,-133.301
1689613054.181,-22.949,-24.902,-24.414,-2.930,-96.191
1689613054.185,-27.344,-29.297,-26.855,-5.859,53.711
1689613054.189,-22.461,-28.809,-30.273,-24.414,-47.852
1689613054.193,-23.926,-23.438,-20.508,-40.527,-221.680
1689613054.197,-22.949,-23.438,-19.043,-32.715,-198.730
1689613054.201,-17.090,-25.391,-21.973,-3.418,155.273
1689613054.205,-19.043,-20.996,-20.996,0.977,262.695
1689613054.208,-21.484,-21.484,-22.949,-27.832,-103.027
1689613054.212,-22.461,-21.973,-26.855,-45.410,-281.738
1689613054.216,-29.785,-21.973,-27.344,-37.598,90.820
1689613054.220,-28.320,-21.484,-26.367,-11.719,245.117
1689613054.224,-20.508,-18.066,-32.227,-1.465,-172.852
1689613054.241,-22.461,-22.461,-26.367,-20.020,-248.047
1689613054.245,-27.832,-29.297,-22.461,-41.992,-200.684
1689613054.249,-27.832,-27.344,-23.438,-35.645,-263.672
1689613054.253,-26.367,-24.902,-23.438,-7.324,-207.031
1689613054.257,-24.414,-26.855,-25.879,3.418,10.254
1689613054.261,-20.020,-26.855,-27.344,-18.555,48.340
1689613054.265,-22.949,-21.484,-34.668,-52.246,-95.703
1689613054.268,-27.832,-20.996,-37.598,-51.758,-216.797
1689613054.272,-25.391,-30.273,-27.832,-15.137,-35.156
1689613054.276,-23.926,-31.250,-28.809,3.418,219.238
1689613054.280,-27.344,-26.855,-30.762,-20.508,-73.730
1689613054.284,-32.227,-25.879,-22.949,-51.758,-186.523
1689613054.271,-35.156,-25.879,-19.043,-60.059,-147.949
1689613054.275,-28.320,-21.484,-22.461,-33.203,-121.582
1689613054.279,-26.855,-23.438,-24.414,-10.742,-96.680
1689613054.283,-22.461,-26.855,-22.949,-15.137,-113.770
1689613054.287,-21.484,-25.879,-27.832,-34.668,-67.383
1689613054.291,-31.738,-28.809,-30.762,-40.039,-20.996
1689613054.295,-20.020,-24.902,-33.203,-10.742,-27.832
1689613054.298,-22.949,-22.949,-30.273,-1.465,46.875
1689613054.302,-32.227,-22.461,-19.043,-18.066,96.191
1689613054.306,-24.414,-21.973,-26.367,-41.504,-9.766
1689613054.310,-24.902,-21.484,-39.551,-56.152,-110.352
1689613054.314,-33.691,-23.926,-43.457,-42.969,-134.277
1689613054.316,-38.086,-23.926,-41.504,-18.066,265.137
1689613054.320,-36.621,-22.949,-30.762,-16.113,341.309
1689613054.324,-33.203,-22.949,-38.574,-48.828,-115.234
1689613054.328,-35.156,-19.531,-36.621,-62.988,-96.680
1689613054.332,-33.691,-26.367,-22.949,-41.016,53.711
1689613054.336,-34.180,-36.133,-30.273,-28.809,-83.008
1689613054.340,-35.645,-29.297,-33.203,-30.273,-85.938
1689613054.343,-35.645,-23.438,-23.926,-44.434,44.434
1689613054.347,-40.527,-22.461,-23.926,-59.570,214.355
1689613054.351,-34.180,-28.809,-28.320,-45.898,-49.316
1689613054.355,-20.508,-24.902,-30.273,-11.230,-242.188
1689613054.359,-32.715,-23.926,-32.227,-16.113,-134.766
1689613054.361,-49.805,-42.480,-35.156,-49.316,-127.930
1689613054.365,-48.340,-37.598,-40.527,-67.383,-226.074
1689613054.369,-35.156,-28.809,-39.062,-54.199,-210.449
1689613054.373,-31.250,-31.738,-41.504,-19.043,-114.258
1689613054.377,-38.086,-28.809,-30.762,-17.578,-75.195
1689613054.381,-31.250,-32.227,-33.203,-35.156,-78.125
1689613054.385,-26.367,-34.180,-39.551,-48.340,-94.727
1689613054.388,-32.715,-25.879,-24.902,-40.039,192.871
1689613054.392,-44.922,-27.832,-20.020,-21.973,193.359
1689613054.396,-42.969,-28.809,-14.648,-17.090,-106.934
1689613054.400,-36.621,-28.320,-20.020,-31.738,-70.312
1689613054.404,-47.363,-33.203,-32.227,-56.152,166.992
1689613054.406,-50.781,-31.250,-35.645,-56.152,-3.906
1689613054.410,-42.969,-25.879,-30.762,-25.391,-268.555
1689613054.414,-27.344,-25.391,-32.227,2.441,-75.684
1689613054.418,-18.555,-31.738,-25.879,-2.930,53.223
1689613054.422,-20.996,-31.250,-20.020,-21.973,-74.707
1689613054.426,-21.484,-13.184,-37.109,-28.809,-166.992
1689613054.430,-47.852,-23.926,-41.016,-32.715,73.242
1689613054.433,-51.270,-33.203,-37.598,-23.926,258.301
1689613054.437,-37.598,-39.551,-34.180,-33.691,-29.297
1689613054.441,-42.480,-47.852,-19.531,-56.641,-225.098
1689613054.445,-44.922,-33.691,-19.043,-52.246,-149.902
1689613054.449,-42.480,-26.855,-21.973,-24.902,-80.566
1689613054.453,-34.180,-19.043,-19.531,-6.348,-109.863
1689613054.457,-34.180,-23.438,-22.949,-28.320,-96.191
1689613054.461,-36.621,-27.832,-24.902,-55.664,30.273
1689613054.465,-36.133,-30.273,-24.902,-62.012,-27.832
1689613054.469,-30.762,-34.668,-23.926,-38.574,-153.809
1689613054.473,-29.785,-33.691,-29.297,-11.719,-8.789
1689613054.477,-31.738,-32.715,-36.621,-15.625,325.684
1689613054.480,-24.902,-31.738,-38.574,-41.992,192.871
1689613054.484,-24.414,-25.879,-39.551,-49.805,-219.727
1689613054.488,-25.879,-32.715,-29.785,-30.762,-114.258
1689613054.492,-25.879,-34.180,-29.785,-16.602,231.934
1689613054.496,-29.785,-29.785,-37.109,-29.297,36.133
1689613054.497,-37.598,-36.133,-40.527,-53.711,-245.117
1689613054.501,-41.992,-38.086,-38.086,-65.430,-141.113
1689613054.505,-39.062,-32.715,-31.250,-49.316,-110.840
1689613054.509,-40.527,-34.668,-35.156,-23.438,-89.844
1689613054.513,-41.016,-33.691,-35.645,-30.762,-111.328
1689613054.517,-45.410,-35.645,-38.574,-54.199,62.988
1689613054.521,-46.387,-37.109,-42.969,-62.500,394.043
1689613054.524,-41.016,-36.621,-36.621,-58.105,66.406
1689613054.528,-40.527,-39.062,-32.227,-32.227,-210.449
1689613054.532,-32.715,-35.645,-29.297,-14.160,-83.496
1689613054.536,-26.855,-33.691,-32.227,-32.715,-25.391
1689613054.540,-33.691,-35.645,-38.574,-56.641,-159.668
1689613054.557,-29.785,-33.203,-38.086,-48.340,-194.824
1689613054.561,-32.715,-24.414,-35.156,-24.902,-92.773
1689613054.565,-30.273,-19.043,-26.367,-14.648,-77.148
1689613054.569,-25.879,-19.531,-20.996,-26.367,-133.301
1689613054.573,-33.691,-24.414,-28.320,-47.363,-111.328
1689613054.577,-36.621,-28.320,-37.598,-48.340,62.500
1689613054.581,-41.016,-33.203,-36.133,-29.785,123.535
1689613054.584,-33.691,-30.762,-29.785,-13.184,40.527
1689613054.588,-22.461,-29.297,-30.762,-25.391,-39.062
1689613054.592,-30.273,-32.715,-33.691,-53.711,41.992
1689613054.596,-39.551,-32.227,-32.227,-55.664,3.906
1689613054.600,-39.551,-36.621,-33.203,-28.809,-133.789
1689613054.601,-37.598,-37.109,-34.180,-15.137,-72.266
1689613054.605,-33.203,-33.691,-28.809,-22.461,314.453
1689613054.609,-35.156,-28.809,-25.391,-44.922,335.449
1689613054.613,-41.504,-34.180,-27.344,-55.664,-128.418
1689613054.617,-37.598,-33.691,-33.203,-31.738,-123.047
1689613054.621,-39.551,-27.344,-30.762,-14.648,28.809
1689613054.625,-45.898,-29.785,-27.832,-32.227,-7.324
1689613054.628,-43.457,-25.879,-29.785,-58.594,-187.012
1689613054.632,-35.156,-27.344,-24.902,-54.688,-17.578
1689613054.636,-33.691,-34.668,-25.391,-33.203,361.328
1689613054.640,-32.227,-34.668,-29.297,-19.531,52.246
1689613054.644,-25.879,-30.762,-27.832,-16.602,-211.914
1689613054.646,-31.250,-26.367,-26.855,-44.434,-166.016
1689613054.650,-35.156,-25.391,-27.832,-66.406,-177.246
1689613054.654,-28.809,-25.879,-24.902,-41.504,-199.219
1689613054.658,-29.785,-28.320,-28.809,-14.160,-179.688
1689613054.662,-31.250,-28.809,-29.785,-15.625,-154.297
1689613054.666,-24.414,-26.855,-21.973,-34.668,-98.633
1689613054.670,-26.855,-25.391,-22.949,-41.504,-54.199
1689613054.673,-31.250,-27.832,-25.391,-29.785,-135.254
1689613054.677,-13.672,-28.809,-25.879,0.000,166.016
1689613054.681,-3.418,-28.809,-24.902,6.348,348.633
1689613054.685,-19.043,-27.344,-25.391,-30.762,-31.250
1689613054.689,-33.203,-22.949,-23.438,-53.711,-53.711
1689613054.691,-35.156,-24.902,-27.344,-43.945,-5.371
1689613054.695,-34.668,-25.879,-33.203,-22.949,-124.512
1689613054.699,-24.902,-22.949,-27.832,-11.230,-180.176
1689613054.703,-18.555,-25.879,-29.297,-22.461,-47.363
1689613054.707,-27.344,-28.809,-37.598,-36.621,199.707
1689613054.711,-26.367,-29.785,-31.738,-30.762,69.824
1689613054.715,-20.020,-32.715,-32.227,-18.066,-37.109
1689613054.718,-20.996,-37.109,-43.945,-16.602,100.586
1689613054.722,-24.902,-32.227,-42.969,-40.527,232.422
1689613054.726,-23.438,-25.879,-33.203,-65.918,-28.320
1689613054.730,-23.926,-27.832,-32.227,-50.293,-212.891
1689613054.734,-32.715,-28.320,-37.598,-22.461,-146.973
1689613054.738,-31.738,-21.973,-30.273,-14.648,-91.797
1689613054.742,-31.738,-19.531,-21.973,-25.879,-129.395
1689613054.746,-37.109,-30.273,-28.320,-50.781,-173.340
1689613054.750,-36.133,-32.715,-26.855,-51.758,-59.082
1689613054.754,-33.691,-27.832,-21.484,-27.344,-38.574
1689613054.758,-27.344,-28.809,-31.738,-16.602,-44.434
1689613054.762,-19.531,-26.855,-38.086,-20.508,82.520
1689613054.765,-20.508,-28.809,-30.273,-31.250,259.766
1689613054.769,-30.273,-30.762,-28.320,-39.551,139.160
1689613054.773,-37.109,-28.809,-33.691,-24.414,-103.516
1689613054.777,-24.902,-31.250,-27.832,-3.418,18.555
1689613054.781,-22.949,-35.156,-20.996,-15.137,7.812
1689613054.782,-31.738,-28.320,-28.320,-46.875,-137.207
1689613054.786,-39.551,-24.902,-32.715,-57.617,-230.469
1689613054.790,-41.992,-26.855,-31.738,-40.527,-126.465
1689613054.794,-40.039,-26.367,-35.156,-22.461,57.617
1689613054.798,-39.551,-27.832,-33.203,-26.855,12.207
1689613054.802,-38.574,-27.344,-31.250,-48.828,33.203
1689613054.806,-46.875,-27.832,-33.203,-54.688,104.980
1689613054.809,-46.387,-33.691,-30.273,-27.832,311.035
1689613054.813,-34.668,-30.762,-25.391,-6.348,144.531
1689613054.817,-33.691,-28.320,-23.438,-13.672,-115.723
1689613054.821,-41.992,-29.297,-24.902,-36.621,-112.793
1689613054.825,-41.504,-27.832,-32.227,-56.152,-138.184
1689613054.842,-35.156,-25.879,-32.227,-45.898,-127.930
1689613054.846,-34.668,-22.461,-27.832,-17.090,-100.586
1689613054.850,-32.715,-29.785,-35.645,-20.020,-75.684
1689613054.854,-29.785,-30.762,-30.273,-44.922,-62.988
1689613054.858,-40.039,-27.832,-24.414,-61.523,-89.844
1689613054.862,-44.922,-27.832,-34.180,-54.688,-34.180
1689613054.866,-36.133,-28.320,-36.133,-25.879,298.828
1689613054.869,-25.879,-31.250,-34.668,-19.043,219.727
1689613054.873,-23.926,-31.738,-36.133,-41.016,-140.137
1689613054.877,-29.297,-29.297,-41.504,-62.988,-131.348
1689613054.881,-28.320,-29.785,-36.133,-47.363,217.773
1689613054.885,-25.879,-27.832,-30.273,-15.137,227.051
1689613054.871,-26.367,-24.902,-34.180,-8.789,-156.250
1689613054.875,-32.227,-31.738,-34.180,-30.273,-151.367
1689613054.879,-37.109,-36.133,-29.785,-50.781,-112.305
1689613054.883,-35.156,-37.598,-30.762,-38.574,-178.223
1689613054.887,-25.879,-37.109,-31.738,-10.254,-170.898
1689613054.891,-18.555,-32.227,-35.156,0.977,70.801
1689613054.895,-26.367,-31.250,-39.551,-24.414,189.941
1689613054.898,-29.297,-23.926,-36.621,-58.105,-88.379
1689613054.902,-31.250,-20.020,-31.250,-49.805,-221.680
1689613054.906,-31.738,-26.855,-33.203,-18.555,62.012
1689613054.910,-23.438,-29.297,-36.133,4.883,357.910
1689613054.914,-18.066,-30.762,-34.180,-5.859,62.500
1689613054.946,-18.066,-28.809,-35.645,-34.668,-145.020
1689613054.950,-23.438,-27.832,-35.645,-41.016,-147.949
1689613054.954,-20.996,-22.949,-29.297,-15.625,-160.645
1689613054.958,-10.254,-17.578,-22.949,13.184,-145.996
1689613054.962,-8.789,-22.461,-23.438,0.977,-133.789
1689613054.966,-13.672,-21.973,-29.297,-31.250,-18.555
1689613054.970,-16.113,-19.531,-32.715,-37.109,2.930
1689613054.973,-18.555,-23.926,-35.156,-20.996,-102.051
1689613054.977,-19.043,-29.297,-34.668,-1.465,-147.949
1689613054.981,-18.066,-22.949,-29.785,-3.418,247.559
1689613054.985,-14.160,-23.438,-23.438,-22.461,274.414
1689613054.989,-22.461,-31.738,-18.555,-32.715,-167.480
1689613054.976,-27.344,-22.949,-21.484,-14.648,-100.586
1689613054.980,-17.090,-17.578,-19.531,9.277,4.395
1689613054.984,-15.137,-20.020,-19.531,-4.395,-101.562
1689613054.988,-23.926,-20.508,-28.809,-33.203,-193.359
1689613054.992,-32.227,-26.367,-28.809,-43.945,-105.469
1689613054.996,-30.762,-32.715,-24.902,-30.273,-10.254
1689613055.000,-27.344,-31.250,-29.785,-6.836,30.273
1689613055.003,-27.344,-20.996,-30.762,-4.395,-35.156
1689613055.007,-27.832,-20.020,-20.508,-33.691,-46.875
1689613055.011,-34.180,-24.414,-17.090,-53.711,-46.875
1689613055.015,-33.203,-21.484,-22.949,-40.039,-143.066
1689613055.019,-28.809,-23.926,-21.973,-20.020,-170.410
1689613055.023,-31.738,-23.926,-21.973,-15.625,107.422
1689613055.027,-36.133,-21.484,-26.855,-35.645,269.531
1689613055.031,-44.434,-29.297,-26.855,-55.176,-77.148
1689613055.035,-44.434,-31.250,-23.438,-50.293,-198.730
1689613055.039,-38.574,-22.461,-21.484,-20.996,-36.621
1689613055.043,-29.785,-17.578,-20.508,-10.742,92.773
1689613055.047,-26.367,-19.043,-26.367,-38.574,23.926
1689613055.050,-26.855,-23.926,-28.809,-59.082,-128.906
1689613055.054,-38.086,-26.367,-30.273,-56.152,54.688
1689613055.058,-33.203,-30.762,-32.227,-30.762,143.066
1689613055.062,-24.902,-33.203,-31.250,-19.531,-104.980
1689613055.066,-33.691,-31.738,-31.738,-37.598,-57.129
1689613055.067,-35.645,-32.227,-28.320,-52.734,30.762
1689613055.071,-37.598,-27.344,-26.367,-49.316,-142.578
1689613055.075,-32.227,-26.367,-24.902,-32.715,-221.191
1689613055.079,-22.949,-29.785,-31.250,-18.555,-116.211
1689613055.083,-30.762,-29.785,-35.645,-38.086,-34.180
1689613055.087,-36.133,-20.996,-22.949,-64.941,-50.781
1689613055.091,-39.062,-17.090,-19.531,-59.570,-55.664
1689613055.094,-36.621,-24.902,-28.809,-31.250,96.680
1689613055.098,-29.297,-22.461,-34.668,-4.395,317.871
1689613055.102,-35.156,-27.344,-28.809,-24.902,62.988
1689613055.106,-42.969,-30.762,-26.367,-58.594,-262.207
1689613055.110,-34.180,-13.184,-11.230,-46.387,-134.766
1689613055.111,-30.273,-14.648,-18.555,-26.855,-122.559
1689613055.115,-33.203,-27.344,-23.438,-13.184,-208.496
1689613055.119,-26.367,-21.973,-15.625,-12.695,-149.414
1689613055.123,-38.574,-20.020,-32.715,-51.270,-102.539
1689613055.127,-55.664,-41.016,-34.668,-74.219,-137.695
1689613055.131,-45.898,-41.992,-25.391,-43.945,-41.992
1689613055.135,-41.992,-33.203,-27.344,-12.207,1.953
1689613055.138,-45.898,-38.086,-29.785,-19.531,261.719
1689613055.142,-43.945,-27.344,-28.809,-54.199,304.199
1689613055.146,-45.898,-24.414,-33.203,-68.848,-100.098
1689613055.150,-33.691,-35.156,-31.250,-36.133,-82.031
1689613055.154,-12.695,-27.344,-21.484,4.395,56.152
1689613055.156,-18.555,-23.926,-27.344,-12.695,-66.895
1689613055.160,-1.953,-17.090,-32.715,-20.996,-229.004
1689613055.164,-7.812,-27.832,-25.391,-37.598,-202.148
1689613055.168,-60.547,-51.758,-37.598,-76.172,-150.391
1689613055.172,-54.199,-30.273,-40.527,-45.410,-125.488
1689613055.176,-50.293,-29.297,-34.180,-41.016,-135.254
1689613055.180,-58.594,-40.039,-28.809,-68.359,56.641
1689613055.183,-37.109,-31.738,-14.160,-49.805,226.562
1689613055.187,-21.484,-31.738,-7.812,-17.090,-85.938
1689613055.191,-39.062,-38.086,-20.996,-11.230,-130.859
1689613055.195,-50.781,-30.273,-30.762,-15.625,111.816
1689613055.199,-50.781,-32.715,-36.133,-37.598,41.016
1689613055.201,-47.852,-42.480,-36.133,-62.988,-155.762
1689613055.205,-38.574,-37.109,-33.691,-56.152,-147.461
1689613055.209,-37.598,-30.273,-28.809,-26.367,-23.926
1689613055.213,-38.086,-30.762,-32.715,-11.230,-35.645
1689613055.217,-29.297,-34.668,-38.086,-30.762,-135.742
1689613055.221,-33.203,-40.527,-34.180,-60.547,-97.168
1689613055.225,-34.180,-33.691,-31.738,-53.223,215.332
1689613055.228,-30.762,-31.738,-37.109,-26.367,222.168
1689613055.232,-28.809,-33.203,-32.715,-12.695,-132.812
1689613055.236,-23.926,-27.344,-26.855,-25.879,-50.293
1689613055.240,-27.832,-28.809,-29.785,-48.828,93.262
1689613055.244,-33.691,-35.645,-30.273,-48.828,-67.383
1689613055.248,-34.180,-31.250,-27.344,-28.809,-163.574
1689613055.252,-30.762,-26.367,-31.250,-18.555,-49.805
1689613055.256,-33.203,-32.715,-36.133,-36.621,-12.695
1689613055.260,-34.668,-38.086,-36.621,-61.035,-111.328
1689613055.264,-32.227,-38.086,-34.668,-64.453,-203.613
1689613055.268,-35.645,-38.086,-33.691,-40.039,57.129
1689613055.272,-32.715,-32.227,-33.203,-16.113,277.832
1689613055.275,-10.254,-25.879,-28.320,-17.578,-71.289
1689613055.279,-9.766,-22.949,-26.367,-41.016,-226.562
1689613055.283,-38.086,-24.902,-25.879,-62.988,-83.496
1689613055.287,-42.480,-30.273,-25.879,-38.574,-50.293
1689613055.291,-34.668,-29.297,-27.832,-12.695,-139.648
1689613055.308,-29.785,-30.762,-30.273,-20.996,-104.980
1689613055.312,-22.949,-35.156,-30.273,-41.992,-92.773
1689613055.316,-22.461,-31.738,-27.832,-49.316,-55.176
1689613055.320,-16.113,-29.785,-24.902,-30.762,-32.715
1689613055.324,-8.301,-27.344,-19.043,-3.418,-126.953
1689613055.328,-15.625,-23.438,-19.531,-3.906,288.086
1689613055.332,-27.832,-28.320,-26.855,-39.551,410.645
1689613055.335,-36.621,-35.156,-31.738,-59.082,-71.289
1689613055.339,-33.203,-34.668,-29.785,-42.480,-109.375
1689613055.343,-23.926,-36.133,-25.391,-18.066,145.508
1689613055.347,-21.484,-35.156,-23.438,-14.648,113.770
1689613055.351,-23.438,-33.691,-25.391,-36.621,-175.293
1689613055.351,-28.809,-32.227,-27.832,-56.152,-184.082
1689613055.355,-26.367,-24.902,-25.879,-34.668,-84.961
1689613055.359,-15.625,-28.320,-22.949,-6.836,-149.902
1689613055.363,-16.602,-35.156,-27.832,-10.742,-173.340
1689613055.367,-24.902,-35.645,-33.203,-31.738,-46.875
1689613055.371,-30.273,-34.668,-30.273,-48.340,52.734
1689613055.375,-30.273,-36.621,-19.043,-33.203,-25.879
1689613055.378,-24.902,-38.086,-21.484,-5.859,-35.156
1689613055.382,-26.855,-38.574,-32.227,-2.441,72.754
1689613055.386,-26.855,-35.156,-31.738,-21.484,336.914
1689613055.390,-29.297,-29.785,-27.832,-49.316,159.668
1689613055.394,-24.414,-24.902,-24.414,-44.922,-164.062
1689613055.397,-14.648,-24.902,-21.973,-20.020,-151.367
1689613055.401,-12.695,-22.461,-20.996,-16.602,-161.133
1689613055.405,-20.996,-26.367,-26.367,-37.598,-171.875
1689613055.409,-33.203,-26.855,-31.738,-58.594,-157.715
1689613055.413,-32.715,-26.855,-27.832,-51.270,-127.930
1689613055.417,-30.762,-27.832,-29.297,-23.926,-79.102
1689613055.421,-30.273,-29.297,-30.762,-13.672,21.484
1689613055.424,-28.809,-34.668,-29.297,-33.203,-5.859
1689613055.428,-31.250,-37.109,-32.715,-48.340,206.543
1689613055.432,-41.504,-38.086,-34.180,-48.828,409.180
1689613055.436,-40.527,-33.203,-36.133,-39.551,-42.969
1689613055.440,-33.691,-31.738,-36.133,-24.902,-187.988
1689613055.457,-35.156,-34.180,-34.668,-34.668,-28.320
1689613055.461,-30.762,-27.832,-29.785,-56.152,-195.801
1689613055.465,-29.785,-24.414,-24.414,-55.176,-282.227
1689613055.469,-28.320,-25.879,-21.973,-28.809,-167.480
1689613055.473,-26.367,-26.855,-22.461,-11.230,-93.262
1689613055.477,-28.320,-28.809,-25.879,-20.020,-41.992
1689613055.481,-31.250,-29.785,-24.902,-40.039,6.836
1689613055.484,-35.156,-26.367,-28.809,-46.875,133.789
1689613055.488,-30.762,-21.484,-35.645,-25.879,216.797
1689613055.492,-24.902,-25.879,-32.227,-1.953,47.852
1689613055.496,-32.227,-29.785,-29.785,-15.137,-37.109
1689613055.500,-39.062,-29.297,-31.738,-43.457,-46.875
1689613055.486,-42.480,-35.645,-32.227,-56.641,-111.328
1689613055.490,-38.086,-32.715,-32.227,-45.410,-184.082
1689613055.494,-30.273,-28.809,-31.250,-17.090,-123.047
1689613055.498,-24.902,-26.855,-29.785,-14.160,-81.543
1689613055.502,-17.578,-18.555,-30.273,-34.668,-81.055
1689613055.506,-28.320,-25.391,-29.785,-47.852,-84.473
1689613055.510,-38.574,-27.832,-27.344,-34.668,-72.754
1689613055.513,-35.645,-23.926,-24.902,-8.301,16.602
1689613055.517,-32.715,-25.879,-28.320,-9.277,-27.344
1689613055.521,-34.668,-25.391,-28.320,-36.621,-30.762
1689613055.525,-36.133,-30.762,-26.855,-49.316,-21.484
1689613055.529,-31.738,-33.691,-29.297,-32.715,200.195
1689613055.533,-28.809,-27.832,-28.809,-13.672,357.422
1689613055.537,-20.020,-22.949,-31.738,-15.137,-47.852
1689613055.541,-13.184,-23.438,-30.762,-31.250,-65.430
1689613055.545,-20.020,-24.902,-25.879,-53.223,13.672
1689613055.549,-28.809,-23.926,-28.809,-41.504,-160.156
1689613055.553,-29.785,-27.344,-30.273,-14.648,-107.910
1689613055.557,-39.551,-31.738,-30.273,-14.648,169.434
1689613055.560,-43.945,-33.203,-29.785,-29.297,271.484
1689613055.564,-40.527,-34.180,-27.344,-51.270,-115.234
1689613055.568,-41.504,-32.227,-25.391,-56.641,-273.926
1689613055.572,-36.621,-29.297,-25.879,-33.203,-156.738
1689613055.576,-26.855,-36.133,-26.367,-16.602,-120.605
1689613055.576,-27.832,-36.621,-28.320,-25.391,-160.156
1689613055.580,-36.133,-30.762,-28.809,-40.527,-187.500
1689613055.584,-33.691,-34.180,-33.203,-40.527,-122.070
1689613055.588,-34.180,-37.598,-39.551,-19.531,-79.590
1689613055.592,-22.949,-34.180,-29.785,1.953,-105.469
1689613055.596,-20.020,-32.227,-21.973,-14.160,-93.750
1689613055.600,-43.457,-37.109,-26.855,-47.363,264.160
1689613055.603,-50.781,-40.527,-31.738,-52.734,299.805
1689613055.607,-37.109,-35.156,-32.227,-26.367,-152.344
1689613055.611,-28.809,-28.320,-32.715,0.977,-90.332
1689613055.615,-26.855,-26.855,-30.273,-6.348,57.129
1689613055.619,-28.809,-27.344,-26.367,-31.250,-104.980
1689613055.622,-30.273,-26.367,-29.785,-45.410,-253.418
1689613055.626,-20.996,-27.344,-30.762,-20.508,-129.883
1689613055.630,-17.578,-30.273,-21.484,2.930,104.492
1689613055.634,-21.973,-33.203,-22.461,-13.672,-30.273
1689613055.638,-24.414,-29.785,-29.297,-41.992,-213.867
1689613055.642,-26.855,-30.273,-28.809,-48.828,-39.062
1689613055.646,-29.785,-30.273,-31.738,-30.273,138.184
1689613055.649,-26.855,-31.738,-33.203,-8.301,32.715
1689613055.653,-19.531,-35.645,-32.715,-5.371,-142.090
1689613055.657,-19.531,-34.668,-34.668,-30.762,-12.207
1689613055.661,-25.391,-36.621,-38.086,-48.340,182.129
1689613055.665,-31.738,-33.691,-36.621,-41.016,-85.449
1689613055.669,-23.926,-28.809,-28.809,-23.926,-153.320
1689613055.673,-23.926,-27.344,-28.320,-25.879,-98.633
1689613055.677,-30.273,-24.902,-33.203,-48.340,-139.160
1689613055.681,-31.738,-30.762,-34.668,-62.500,-194.336
1689613055.685,-34.180,-34.668,-40.039,-52.246,-197.266
1689613055.689,-24.414,-30.273,-37.109,-18.555,61.035
1689613055.693,-16.602,-27.832,-36.621,-8.789,213.867
1689613055.696,-21.973,-33.691,-37.598,-31.738,-5.859
1689613055.700,-20.020,-30.273,-24.414,-41.504,-135.254
1689613055.704,-23.926,-23.926,-20.508,-25.391,289.551
1689613055.708,-28.809,-32.227,-26.367,-1.953,385.254
1689613055.712,-22.949,-30.762,-32.715,1.465,-120.605
1689613055.726,-26.367,-34.180,-35.156,-19.043,-68.359
1689613055.730,-31.738,-34.668,-34.668,-41.016,16.113
1689613055.734,-32.227,-25.879,-30.273,-33.691,-121.094
1689613055.738,-25.879,-23.926,-30.762,-7.812,-209.961
1689613055.742,-17.090,-26.367,-30.762,7.812,-39.551
1689613055.746,-14.648,-21.484,-24.414,-0.977,393.066
1689613055.750,-22.949,-22.949,-26.367,-29.297,257.324
1689613055.753,-22.949,-27.344,-29.785,-36.133,-153.320
1689613055.757,-20.020,-21.973,-31.738,-11.719,-30.762
1689613055.761,-24.414,-23.438,-32.227,3.906,115.234
1689613055.765,-19.531,-28.320,-23.438,-9.277,-18.555
1689613055.769,-18.066,-26.367,-20.996,-31.250,-120.605
1689613055.771,-27.344,-24.414,-27.344,-32.227,-113.770
1689613055.775,-25.879,-22.949,-25.879,0.488,-77.637
1689613055.779,-15.625,-20.996,-17.578,17.090,-194.336
1689613055.783,-8.789,-20.508,-11.719,-2.930,-165.527
1689613055.787,-16.602,-22.949,-17.090,-26.855,-136.230
1689613055.791,-21.973,-21.484,-19.531,-33.203,-119.629
1689613055.795,-24.902,-24.414,-14.648,-15.137,-51.758
1689613055.798,-29.297,-26.367,-16.113,6.836,-62.988
1689613055.802,-18.555,-19.043,-16.602,6.836,146.484
1689613055.806,-21.973,-16.602,-20.996,-22.949,206.543
1689613055.810,-31.738,-22.461,-25.391,-42.480,-121.094
1689613055.814,-23.438,-26.367,-26.367,-29.785,-159.180
1689613055.817,-23.926,-30.762,-20.020,-2.930,50.293
1689613055.821,-29.297,-27.344,-14.648,-9.277,-33.203
1689613055.825,-36.621,-24.902,-23.438,-41.992,-237.305
1689613055.829,-46.875,-28.809,-26.367,-55.664,-120.605
1689613055.833,-44.434,-27.832,-21.484,-39.551,18.555
1689613055.837,-30.762,-23.926,-24.414,-10.742,-46.875
1689613055.841,-26.367,-17.090,-26.367,-8.789,-81.543
1689613055.844,-29.297,-16.602,-24.414,-35.156,21.484
1689613055.848,-36.133,-21.973,-22.949,-48.340,135.254
1689613055.852,-33.691,-21.484,-19.531,-33.203,-66.406
1689613055.856,-26.855,-20.508,-20.996,-15.625,-158.691
1689613055.860,-22.949,-24.902,-29.297,-12.695,-33.203
1689613055.892,-24.902,-29.297,-32.715,-32.227,-50.293
1689613055.896,-35.645,-27.344,-29.297,-56.152,-161.133
1689613055.900,-31.250,-22.949,-21.484,-48.828,-164.551
1689613055.904,-27.832,-23.438,-23.926,-26.367,-57.617
1689613055.908,-35.645,-25.391,-24.902,-16.602,-40.527
1689613055.912,-34.668,-23.926,-20.020,-29.297,-86.914
1689613055.916,-30.273,-23.438,-18.555,-44.922,-109.375
1689613055.919,-38.086,-27.832,-22.461,-37.109,164.062
1689613055.923,-43.945,-28.809,-24.414,-11.230,246.094
1689613055.927,-32.227,-24.414,-23.438,-4.395,-88.379
1689613055.931,-29.785,-26.367,-30.762,-26.855,-8.301
1689613055.935,-39.062,-32.227,-40.039,-52.246,120.117
1689613055.921,-34.180,-29.785,-29.297,-50.781,-69.336
1689613055.925,-25.391,-25.391,-19.531,-23.438,-180.664
1689613055.929,-23.926,-27.344,-22.461,-15.137,-49.316
1689613055.933,-11.719,-29.785,-31.738,-24.902,-49.805
1689613055.937,-7.324,-26.855,-28.809,-31.738,-167.480
1689613055.941,-24.902,-30.273,-14.160,-43.457,-174.316
1689613055.945,-36.133,-39.062,-17.090,-30.273,-6.836
1689613055.948,-33.203,-35.645,-23.926,-7.324,104.980
1689613055.952,-29.297,-31.250,-20.508,-20.508,-72.754
1689613055.956,-34.180,-39.551,-23.438,-54.688,-172.363
1689613055.960,-45.410,-44.922,-25.879,-62.012,-37.109
1689613055.964,-41.504,-40.527,-23.438,-26.855,0.000
1689613055.951,-25.879,-32.715,-21.973,4.883,-68.848
1689613055.955,-25.879,-35.156,-19.531,-2.930,-55.176
1689613055.959,-37.109,-41.016,-22.949,-29.785,106.934
1689613055.963,-34.668,-41.504,-22.949,-34.668,264.648
1689613055.967,-29.785,-41.992,-24.902,-21.973,-43.457
1689613055.971,-29.297,-38.086,-28.809,-5.371,-80.566
1689613055.975,-25.879,-37.109,-24.414,-16.602,132.324
1689613055.978,-23.438,-38.574,-20.020,-41.992,-52.734
1689613055.982,-28.320,-35.156,-19.043,-45.410,-137.695
1689613055.986,-29.785,-31.738,-22.461,-32.227,-65.430
1689613055.990,-25.391,-29.785,-18.555,0.977,182.617
1689613055.994,-30.762,-37.598,-18.555,4.883,406.250
1689613055.996,-35.645,-36.621,-25.879,-35.156,-2.441
1689613056.000,-35.156,-25.391,-32.715,-54.688,-242.676
1689613056.004,-35.645,-25.391,-30.762,-34.668,-165.039
1689613056.008,-27.832,-26.367,-19.531,-1.465,-181.641
1689613056.012,-22.949,-25.879,-20.020,-3.906,-182.617
1689613056.016,-29.785,-29.297,-27.832,-26.367,-8.789
1689613056.020,-30.762,-32.227,-32.715,-40.039,100.586
1689613056.023,-26.855,-29.297,-29.785,-37.109,-115.234
1689613056.027,-17.578,-26.367,-23.926,-8.789,-209.961
1689613056.031,-7.324,-27.344,-19.531,-0.488,-79.102
1689613056.035,-11.719,-29.297,-17.578,-24.414,2.441
1689613056.039,-23.438,-29.785,-24.414,-41.992,-56.152
1689613056.056,-22.461,-24.902,-38.086,-35.645,-160.645
1689613056.060,-14.160,-20.020,-33.203,-2.930,46.387
1689613056.064,-34.180,-30.762,-26.855,-7.812,164.062
1689613056.068,-51.270,-32.715,-32.715,-40.039,-113.281
1689613056.072,-48.828,-30.762,-36.133,-62.500,-148.926
1689613056.076,-43.945,-30.762,-29.297,-61.523,-79.590
1689613056.080,-37.109,-31.250,-22.461,-37.598,-40.039
1689613056.083,-25.879,-32.715,-29.297,-14.648,-40.039
1689613056.087,-1.465,3.418,-20.996,2.441,-134.766
1689613056.091,-36.133,-10.254,-20.508,-47.852,178.223
1689613056.095,-79.590,-52.734,-41.504,-92.285,229.004
1689613056.099,-59.570,-47.852,-39.551,-58.594,-206.543
1689613056.101,-44.434,-38.086,-32.227,-41.992,-139.648
1689613056.105,-38.086,-28.320,-32.227,-53.711,17.578
1689613056.109,-32.715,-23.438,-32.227,-67.871,-103.516
1689613056.113,-32.715,-25.391,-31.738,-70.801,-185.059
1689613056.117,-40.039,-31.250,-42.969,-46.875,-39.062
1689613056.121,-38.086,-33.203,-40.039,-25.879,107.910
1689613056.125,-36.621,-31.250,-29.785,-41.504,1.953
1689613056.128,-42.969,-32.715,-30.273,-65.918,-188.477
1689613056.132,-48.828,-36.133,-35.645,-69.336,-49.805
1689613056.136,-45.898,-34.180,-38.086,-44.922,210.938
1689613056.140,-41.504,-33.203,-34.180,-26.855,-23.926
1689613056.144,-30.273,-38.086,-29.297,-29.785,-131.836
1689613056.146,-35.645,-40.527,-33.691,-54.199,-52.246
1689613056.150,-47.363,-37.109,-39.062,-70.801,-51.270
1689613056.154,-40.039,-32.715,-38.086,-48.340,-71.289
1689613056.158,-38.086,-34.668,-42.969,-28.320,-79.590
1689613056.162,-40.039,-38.574,-35.645,-28.809,86.426
1689613056.166,-37.109,-37.598,-23.926,-41.504,115.234
1689613056.170,-57.617,-37.109,-33.203,-75.195,-35.156
1689613056.173,-75.684,-28.320,-39.062,-78.125,-128.906
1689613056.177,-64.941,-20.508,-33.691,-45.410,157.715
1689613056.181,-56.641,-26.367,-35.156,-42.969,278.320
1689613056.185,-59.082,-32.227,-40.039,-72.266,-117.676
1689613056.189,-58.594,-32.227,-39.062,-83.496,-144.531
1689613056.191,-50.781,-33.203,-33.203,-61.035,-64.453
1689613056.195,-41.504,-30.273,-31.738,-25.391,-148.438
1689613056.199,-33.203,-22.461,-34.668,-18.555,-185.547
1689613056.203,-35.645,-27.344,-31.250,-45.898,-52.734
1689613056.207,-40.527,-39.062,-29.297,-67.871,104.004
1689613056.211,-41.016,-33.203,-29.297,-62.012,5.859
1689613056.215,-33.691,-24.414,-29.297,-37.109,-94.727
1689613056.218,-27.832,-27.832,-25.879,-13.184,70.801
1689613056.222,-31.738,-33.203,-20.508,-23.926,358.887
1689613056.226,-32.715,-27.344,-25.391,-56.641,78.125
1689613056.230,-30.273,-24.414,-25.391,-57.129,-228.027
1689613056.234,-26.367,-27.344,-23.438,-25.879,-126.465
1689613056.236,-23.926,-29.297,-25.391,-17.578,-66.895
1689613056.240,-24.414,-28.809,-26.855,-41.504,-110.840
1689613056.244,-24.902,-22.461,-26.855,-53.711,-170.898
1689613056.248,-22.949,-20.508,-19.043,-43.945,-127.930
1689613056.252,-21.973,-24.414,-17.090,-20.996,-74.219
1689613056.256,-22.949,-23.926,-20.020,-0.977,-56.641
1689613056.260,-20.020,-24.414,-23.438,-12.695,-67.383
1689613056.263,-23.438,-23.438,-26.367,-33.691,141.113
1689613056.267,-34.668,-23.438,-28.809,-38.574,130.859
1689613056.271,-32.715,-20.996,-27.344,-16.602,-100.098
1689613056.275,-28.809,-25.879,-21.973,5.859,4.395
1689613056.279,-26.855,-31.250,-22.461,-4.395,251.465
1689613056.281,-28.809,-29.297,-24.902,-30.762,104.492
1689613056.285,-35.156,-23.438,-30.273,-36.133,-210.938
1689613056.289,-36.621,-24.414,-37.109,-27.344,-125.000
1689613056.293,-35.156,-32.715,-35.645,-23.438,-43.457
1689613056.297,-31.250,-33.203,-34.180,-30.762,-77.637
1689613056.301,-34.180,-31.738,-35.156,-52.734,-83.496
1689613056.305,-32.227,-31.738,-30.762,-65.430,64.941
1689613056.308,-30.273,-25.879,-34.668,-54.199,271.484
1689613056.312,-34.668,-24.902,-37.598,-41.504,8.301
1689613056.316,-37.598,-28.809,-32.715,-43.457,-186.523
1689613056.320,-40.527,-34.180,-32.227,-56.641,-70.312
1689613056.324,-40.527,-43.945,-31.250,-68.848,-116.699
1689613056.327,-38.086,-43.457,-25.391,-53.223,-199.219
1689613056.331,-29.785,-34.180,-26.855,-22.461,-169.434
1689613056.335,-29.297,-37.109,-29.785,-14.160,-24.902
1689613056.339,-41.016,-34.668,-28.320,-42.969,-20.508
1689613056.343,-42.480,-26.855,-28.809,-60.059,-167.480
1689613056.347,-36.133,-29.297,-31.738,-41.504,-98.633
1689613056.351,-36.621,-29.297,-30.762,-20.508,219.727
1689613056.354,-42.969,-26.367,-30.273,-21.484,170.898
1689613056.358,-39.551,-23.438,-28.809,-39.062,-173.340
1689613056.362,-34.668,-23.438,-32.715,-55.176,-194.336
1689613056.366,-36.133,-26.855,-33.691,-37.109,140.137
1689613056.370,-34.180,-32.227,-29.297,-4.883,111.816
1689613056.373,-33.691,-33.203,-39.551,-13.184,-172.363
1689613056.377,-41.992,-29.785,-38.574,-40.527,-58.105
1689613056.381,-41.016,-30.273,-31.738,-58.105,-33.203
1689613056.385,-35.645,-30.273,-27.832,-51.758,-193.359
1689613056.389,-31.738,-21.973,-26.855,-26.367,-229.980
1689613056.393,-28.320,-27.344,-38.086,-15.137,0.488
1689613056.397,-26.367,-33.203,-38.086,-36.133,301.758
1689613056.400,-38.086,-33.203,-34.668,-65.918,25.879
1689613056.404,-49.316,-43.457,-32.227,-64.453,-223.145
1689613056.408,-45.410,-41.992,-32.715,-34.668,-110.352
1689613056.412,-43.457,-31.738,-38.086,-17.090,-60.547
1689613056.416,-42.480,-32.227,-38.574,-26.367,-126.465
1689613056.431,-38.086,-28.320,-30.273,-50.293,-249.023
1689613056.435,-40.039,-24.414,-27.344,-53.711,-226.074
1689613056.439,-37.598,-24.902,-29.297,-24.902,-159.668
1689613056.443,-31.738,-29.297,-29.297,-5.371,-187.012
1689613056.447,-29.785,-40.527,-35.645,-18.066,-93.750
1689613056.451,-31.250,-36.621,-32.227,-46.387,327.148
1689613056.455,-32.715,-31.738,-29.297,-49.805,379.883
1689613056.458,-31.250,-29.297,-30.762,-24.902,-91.797
1689613056.462,-34.180,-30.762,-26.367,-4.395,-173.828
1689613056.466,-45.898,-42.480,-28.320,-20.508,48.828
1689613056.470,-56.152,-43.945,-34.180,-53.223,57.617
1689613056.474,-52.734,-36.133,-33.203,-66.406,-175.781
1689613056.476,-51.270,-41.992,-33.203,-47.852,-100.098
1689613056.480,-43.457,-40.039,-35.156,-17.090,55.176
1689613056.484,-37.109,-31.250,-23.438,-13.672,-80.566
1689613056.488,-43.457,-29.785,-14.648,-40.039,-186.523
1689613056.492,-49.316,-35.156,-18.555,-58.105,-123.535
1689613056.496,-56.152,-39.551,-29.785,-50.781,-16.602
1689613056.500,-50.781,-34.180,-43.457,-22.949,-14.648
1689613056.503,-34.668,-29.297,-31.738,-14.160,-47.852
1689613056.507,-29.785,-30.273,-40.039,-37.109,84.473
1689613056.511,-32.227,-33.203,-44.922,-47.852,361.328
1689613056.515,-25.879,-31.250,-22.949,-36.621,151.855
1689613056.519,-18.066,-24.902,-20.020,-11.719,-108.398
1689613056.521,-12.695,-21.973,-22.461,-5.859,-36.621
1689613056.525,-10.254,-25.879,-23.926,-34.180,-78.125
1689613056.529,-9.277,-26.367,-22.949,-51.270,-186.523
1689613056.533,-15.625,-20.996,-25.879,-42.969,-119.141
1689613056.537,-21.484,-23.438,-30.762,-18.066,-37.109
1689613056.541,-20.020,-26.855,-32.227,-9.277,41.992
1689613056.545,-23.926,-22.461,-31.738,-28.809,50.293
1689613056.548,-33.203,-22.461,-33.691,-50.781,-136.230
1689613056.552,-38.574,-31.738,-29.785,-45.898,132.812
1689613056.556,-40.527,-34.180,-29.297,-27.344,282.227
1689613056.560,-37.109,-35.156,-33.203,-23.926,25.879
1689613056.564,-29.297,-39.062,-29.785,-36.133,1.465
1689613056.566,-25.391,-35.645,-31.738,-49.805,6.836
1689613056.570,-26.855,-28.320,-38.574,-43.457,-144.531
1689613056.574,-29.785,-20.508,-35.645,-23.926,-280.273
1689613056.578,-36.621,-21.484,-36.133,-10.742,-107.422
1689613056.582,-42.969,-26.855,-40.039,-22.949,70.312
1689613056.586,-40.527,-32.715,-33.691,-43.945,-41.016
1689613056.590,-40.527,-38.086,-32.715,-41.504,-154.297
1689613056.593,-43.945,-39.551,-35.645,-13.672,39.062
1689613056.597,-39.062,-36.133,-36.621,0.488,233.398
1689613056.601,-36.133,-34.180,-32.715,-17.090,-36.133
1689613056.605,-36.133,-32.715,-35.645,-34.668,-203.125
1689613056.609,-24.902,-38.086,-35.156,-20.020,-97.656
1689613056.626,-10.254,-32.227,-30.273,10.742,-62.012
1689613056.630,-20.508,-24.414,-39.551,6.836,-136.230
1689613056.634,-20.020,-22.461,-46.387,-10.742,-137.207
1689613056.638,-2.441,-19.531,-46.387,-17.090,-42.969
1689613056.642,11.230,-16.602,-44.922,-12.207,-24.902
1689613056.646,23.926,-11.719,-42.480,14.648,-52.734
1689613056.650,31.738,-13.672,-42.969,37.109,-15.625
1689613056.653,31.738,-14.160,-44.434,36.621,191.895
1689613056.657,32.715,-9.277,-38.574,19.531,118.652
1689613056.661,28.320,-9.277,-31.250,2.930,-155.273
1689613056.665,24.414,-17.090,-32.715,15.625,-14.160
1689613056.669,28.320,-17.578,-35.645,39.062,92.773
1689613056.657,26.855,-15.625,-34.180,35.645,-32.715
1689613056.661,16.113,-22.461,-29.297,1.953,-228.516
1689613056.665,8.789,-17.090,-27.344,-14.648,-129.395
1689613056.669,2.441,-16.113,-27.832,-3.418,9.766
1689613056.673,-5.859,-20.996,-27.344,10.254,-140.137
1689613056.677,-0.977,-20.996,-18.066,13.184,-79.590
1689613056.681,5.371,-19.043,-12.695,-1.953,92.285
1689613056.684,-3.906,-9.766,-20.020,-30.273,-16.602
1689613056.688,-9.766,-9.277,-24.902,-29.297,-166.504
1689613056.692,-9.277,-19.531,-25.879,-0.977,-196.289
1689613056.696,-10.254,-24.902,-21.973,13.184,75.195
1689613056.700,-11.719,-20.020,-20.020,-0.977,260.254
1689613056.702,-8.301,-12.695,-22.461,-22.461,-79.102
1689613056.706,-6.348,-14.160,-18.555,-17.578,-186.035
1689613056.710,-10.742,-17.090,-19.531,6.348,-82.520
1689613056.714,-3.906,-14.160,-20.996,16.602,-70.801
1689613056.718,-3.418,-17.090,-23.438,-5.859,-60.547
1689613056.722,-14.160,-22.949,-29.297,-35.645,-87.402
1689613056.726,-13.672,-26.367,-26.855,-26.367,250.977
1689613056.729,-16.602,-20.996,-23.926,4.395,440.430
1689613056.733,-17.578,-15.625,-23.438,8.789,-40.039
1689613056.737,-13.184,-25.879,-19.043,-7.812,-124.023
1689613056.741,-9.277,-21.484,-18.066,-28.809,48.828
1689613056.745,-12.207,-12.207,-20.508,-35.645,-48.828
1689613056.746,-18.555,-19.531,-21.484,-16.113,-215.332
1689613056.750,-14.648,-21.973,-20.996,3.418,-124.512
1689613056.754,-18.066,-18.555,-25.391,-9.766,-34.180
1689613056.758,-26.855,-21.484,-24.902,-33.203,-126.465
1689613056.762,-30.762,-29.785,-25.879,-45.898,-220.215
1689613056.766,-30.762,-28.809,-32.715,-37.598,52.734
1689613056.770,-24.902,-24.414,-33.691,-15.625,264.160
1689613056.773,-31.738,-26.367,-33.203,-29.297,-26.367
1689613056.777,-33.691,-26.367,-35.156,-59.082,-155.273
1689613056.781,-34.180,-26.855,-38.574,-66.406,-28.320
1689613056.785,-38.574,-28.320,-35.156,-47.852,14.648
1689613056.789,-35.156,-28.320,-28.320,-19.043,-90.332
1689613056.806,-34.668,-32.227,-25.879,-25.879,-151.855
1689613056.810,-36.621,-34.180,-30.273,-41.992,44.922
1689613056.814,-40.039,-30.762,-30.762,-38.086,145.508
1689613056.818,-36.133,-28.809,-32.227,-28.320,-136.230
1689613056.822,-28.320,-27.344,-34.668,-12.207,-129.883
1689613056.826,-21.973,-31.250,-32.227,-8.301,29.297
1689613056.830,-19.531,-30.273,-29.297,-36.621,26.367
1689613056.833,-26.367,-25.391,-26.367,-55.664,-107.910
1689613056.837,-27.832,-28.809,-27.344,-37.109,-233.398
1689613056.841,-20.996,-30.762,-24.902,-1.953,181.152
1689613056.845,-17.578,-26.855,-24.414,5.371,454.590
1689613056.849,-22.461,-20.996,-34.180,-30.273,-30.762
1689613056.851,-27.344,-24.414,-37.109,-57.617,-193.359
1689613056.855,-25.879,-27.344,-32.715,-42.480,-46.387
1689613056.859,-26.367,-25.391,-35.156,-27.344,-140.137
1689613056.863,-23.438,-24.414,-36.621,-22.949,-222.168
1689613056.867,-28.809,-29.785,-34.668,-34.180,-104.004
1689613056.871,-40.039,-32.715,-35.156,-55.176,-25.879
