timestamps,TP9,AF7,AF8,TP10,Right AUX
1692044558.615,-16.113,-34.668,-32.227,-24.902,-102.539
1692044558.619,-34.668,-31.738,-30.762,-28.809,-180.664
1692044558.623,-43.457,-26.367,-33.203,-31.738,45.898
1692044558.627,-30.762,-33.203,-37.109,-30.273,84.473
1692044558.631,-40.039,-37.598,-39.062,-32.227,-71.289
1692044558.635,-32.715,-34.180,-38.086,-24.902,-48.340
1692044558.639,-22.461,-28.809,-35.645,-16.602,322.754
1692044558.642,-27.832,-25.391,-33.203,-18.555,273.926
1692044558.646,-27.344,-26.855,-31.738,-22.461,-168.457
1692044558.650,-27.344,-28.320,-32.715,-17.578,-168.457
1692044558.654,-32.227,-28.320,-35.156,-19.531,-147.461
1692044558.658,-39.551,-25.391,-33.691,-28.320,-226.074
1692044558.660,-37.109,-20.996,-31.250,-32.227,-203.613
1692044558.664,-34.668,-18.555,-31.738,-27.344,-111.816
1692044558.668,-24.902,-25.879,-36.133,-28.320,-68.848
1692044558.672,-24.902,-28.320,-31.738,-26.855,-97.168
1692044558.676,-34.668,-26.367,-30.273,-28.809,-154.297
1692044558.680,-38.086,-32.715,-34.668,-34.180,44.922
1692044558.684,-37.598,-34.180,-35.156,-27.832,257.812
1692044558.687,-39.062,-33.691,-36.621,-26.855,97.168
1692044558.691,-40.039,-30.273,-36.133,-32.715,-95.703
1692044558.695,-26.367,-31.250,-33.691,-33.691,9.766
1692044558.699,-25.879,-32.227,-30.273,-27.344,104.004
1692044558.703,-40.527,-26.855,-33.691,-31.250,-23.438
1692044558.720,-34.668,-28.809,-37.109,-26.367,-130.371
1692044558.724,-27.832,-29.297,-34.180,-14.648,-33.691
1692044558.728,-30.273,-26.855,-33.691,-26.367,-18.066
1692044558.732,-29.297,-23.438,-30.762,-40.527,-205.078
1692044558.736,-41.504,-20.996,-31.250,-31.250,-235.352
1692044558.740,-44.434,-26.855,-40.527,-32.227,30.762
1692044558.744,-33.203,-25.391,-41.016,-41.992,100.098
1692044558.747,-30.762,-19.043,-36.133,-45.898,-125.488
1692044558.751,-36.133,-23.926,-36.621,-47.852,-107.422
1692044558.755,-41.016,-29.297,-34.180,-34.180,249.023
1692044558.759,-39.062,-28.809,-34.180,-26.855,137.695
1692044558.763,-29.785,-29.785,-31.250,-28.320,-171.387
1692044558.765,-25.879,-34.180,-29.297,-26.855,-125.977
1692044558.769,-33.203,-29.785,-30.762,-33.691,-80.566
1692044558.773,-38.086,-25.391,-30.762,-41.016,-168.457
1692044558.777,-31.250,-28.320,-32.227,-39.062,-211.914
1692044558.781,-28.320,-28.809,-31.738,-28.320,-48.340
1692044558.785,-35.645,-23.438,-27.832,-20.996,79.590
1692044558.789,-43.457,-21.973,-27.832,-34.180,68.848
1692044558.792,-39.062,-24.414,-27.344,-43.457,-105.469
1692044558.796,-24.414,-23.926,-20.020,-27.832,-21.484
1692044558.800,-22.461,-23.926,-19.531,-17.090,212.891
1692044558.804,-31.250,-23.438,-26.367,-23.438,-50.293
1692044558.808,-34.180,-26.855,-26.367,-30.273,-166.016
1692044558.810,-31.250,-29.297,-23.438,-29.785,101.562
1692044558.814,-25.391,-23.438,-25.391,-21.973,150.391
1692044558.818,-21.973,-23.438,-27.832,-26.855,-152.344
1692044558.822,-19.531,-27.832,-27.832,-33.203,-140.625
1692044558.826,-21.973,-30.273,-28.320,-35.645,-58.594
1692044558.830,-29.785,-30.762,-29.297,-37.598,-106.934
1692044558.834,-32.715,-29.297,-28.809,-33.691,-95.703
1692044558.837,-23.438,-26.855,-28.320,-23.926,-64.453
1692044558.841,-18.555,-24.902,-29.297,-18.555,229.980
1692044558.845,-24.902,-21.973,-32.227,-28.320,134.766
1692044558.849,-34.668,-20.508,-35.156,-38.574,-195.312
1692044558.853,-32.715,-30.762,-36.133,-30.273,-160.156
1692044558.856,-21.973,-32.227,-37.109,-22.949,-130.859
1692044558.860,-21.484,-29.297,-37.598,-28.809,-65.430
1692044558.864,-16.602,-26.367,-34.668,-31.738,-86.914
1692044558.868,-20.020,-25.391,-32.227,-34.180,-113.281
1692044558.872,-41.016,-29.785,-28.809,-39.551,36.133
1692044558.876,-44.922,-24.414,-27.344,-36.621,37.109
1692044558.880,-36.133,-23.438,-31.250,-34.668,22.461
1692044558.883,-43.945,-28.809,-30.273,-38.574,42.969
1692044558.887,-48.340,-29.785,-30.762,-38.574,198.730
1692044558.891,-43.945,-28.320,-31.250,-38.086,-41.504
1692044558.895,-45.898,-29.297,-24.414,-33.203,-171.387
1692044558.899,-41.504,-29.297,-21.973,-28.809,144.531
1692044558.900,-23.926,-28.809,-21.484,-21.973,108.887
1692044558.904,-28.809,-24.902,-17.578,-20.508,-203.613
1692044558.908,-36.621,-23.438,-18.066,-28.320,-195.312
1692044558.912,-45.898,-28.320,-21.973,-32.715,-47.852
1692044558.916,-48.340,-27.832,-23.438,-32.227,-7.324
1692044558.920,-35.645,-28.809,-20.020,-30.762,9.277
1692044558.924,-52.246,-33.691,-20.996,-38.574,-64.453
1692044558.927,-65.918,-37.598,-24.902,-39.062,145.508
1692044558.931,-55.176,-41.504,-25.879,-33.203,213.379
1692044558.935,-42.969,-37.598,-25.391,-29.785,-137.207
1692044558.939,-39.551,-28.809,-20.020,-20.996,-174.805
1692044558.943,-39.551,-24.414,-17.090,-23.438,-86.426
1692044558.945,-27.832,-24.902,-22.461,-29.785,-98.145
1692044558.949,-21.973,-23.926,-22.949,-24.414,-128.906
1692044558.953,-9.766,-20.996,-24.902,-13.672,-116.211
1692044558.957,-13.672,-28.320,-23.926,-8.789,-104.004
1692044558.961,-26.855,-34.180,-20.996,-18.066,-83.008
1692044558.965,-17.090,-26.855,-24.902,-23.926,-50.293
1692044558.969,-14.648,-22.461,-23.926,-20.996,75.195
1692044558.972,-13.184,-29.785,-22.949,-16.113,367.188
1692044558.976,-9.766,-33.203,-28.809,-14.160,84.473
1692044558.980,-27.344,-27.344,-28.320,-16.602,-225.098
1692044558.984,-40.039,-28.320,-26.855,-27.344,-55.176
1692044558.988,-31.250,-27.832,-30.273,-30.762,4.883
1692044558.990,-26.855,-22.949,-34.668,-30.273,-153.320
1692044558.994,-31.738,-25.879,-36.621,-29.297,-200.195
1692044558.998,-28.320,-27.832,-37.598,-20.996,46.387
1692044559.002,-31.250,-25.879,-37.598,-30.762,11.719
1692044559.006,-34.180,-26.855,-37.109,-41.504,-164.062
1692044559.010,-32.715,-28.320,-39.551,-35.156,-12.695
1692044559.014,-35.156,-26.367,-34.668,-27.832,321.289
1692044559.017,-39.551,-31.738,-31.738,-41.016,179.199
1692044559.021,-36.133,-32.227,-33.691,-42.480,-158.691
1692044559.025,-38.574,-23.926,-30.762,-33.203,-100.586
1692044559.029,-46.875,-26.367,-29.297,-31.250,-62.500
1692044559.033,-40.039,-31.738,-30.273,-25.879,-153.320
1692044559.035,-41.504,-28.320,-29.297,-25.391,-229.004
1692044559.039,-46.875,-30.762,-28.809,-27.344,-151.855
1692044559.043,-38.574,-32.715,-29.785,-29.297,38.574
1692044559.047,-31.250,-27.344,-33.691,-24.414,-42.969
1692044559.051,-25.879,-22.949,-37.109,-14.648,-129.883
1692044559.055,-20.996,-24.902,-36.133,-10.254,30.762
1692044559.059,-28.809,-28.320,-35.645,-22.461,118.652
1692044559.062,-34.180,-29.785,-36.133,-23.926,-140.625
1692044559.066,-29.785,-29.297,-34.668,-10.254,-252.930
1692044559.070,-27.344,-30.273,-33.203,-8.789,-40.039
1692044559.074,-32.715,-29.785,-29.785,-20.996,58.105
1692044559.078,-37.109,-25.879,-24.902,-31.738,-84.473
1692044559.095,-32.715,-27.832,-23.438,-29.297,-120.605
1692044559.099,-21.973,-26.367,-21.484,-20.508,154.785
1692044559.103,-19.043,-21.973,-25.879,-26.855,226.562
1692044559.107,-18.555,-24.902,-30.273,-32.715,-153.809
1692044559.111,-22.461,-23.438,-28.320,-20.996,-191.406
1692044559.115,-34.668,-21.484,-28.320,-13.184,81.543
1692044559.119,-28.809,-26.367,-27.832,-15.137,50.293
1692044559.122,-23.438,-26.855,-29.297,-18.066,-125.977
1692044559.126,-37.598,-27.832,-32.715,-21.973,-126.953
1692044559.130,-32.227,-31.738,-35.156,-29.785,111.328
1692044559.134,-33.691,-30.762,-36.621,-38.086,-2.930
1692044559.138,-36.621,-34.180,-36.133,-35.156,-175.781
1692044559.141,-26.367,-32.227,-34.180,-30.273,-95.215
1692044559.145,-20.996,-27.832,-34.668,-34.180,-76.660
1692044559.149,-24.902,-29.297,-35.645,-36.133,-61.035
1692044559.153,-36.133,-23.438,-35.645,-40.527,-107.910
1692044559.157,-32.715,-26.367,-33.203,-26.855,-82.520
1692044559.161,-24.414,-30.762,-28.809,-12.207,23.438
1692044559.165,-25.391,-27.344,-27.344,-19.531,-14.648
1692044559.168,-30.762,-23.438,-31.738,-35.156,-131.836
1692044559.172,-28.809,-24.902,-27.344,-36.621,14.648
1692044559.176,-29.785,-29.785,-27.344,-28.320,231.445
1692044559.180,-25.879,-29.297,-32.227,-29.785,-43.457
1692044559.184,-12.695,-26.855,-29.785,-31.738,-73.730
1692044559.185,-9.766,-23.438,-31.250,-29.785,128.418
1692044559.189,-24.902,-22.461,-33.691,-36.133,61.523
1692044559.193,-33.691,-26.855,-34.668,-39.551,-127.441
1692044559.197,-29.785,-32.715,-32.715,-35.645,-163.086
1692044559.201,-32.227,-32.715,-34.668,-34.668,16.602
1692044559.205,-23.438,-32.227,-39.062,-35.645,65.430
1692044559.209,-27.344,-37.109,-38.574,-41.992,-60.059
1692044559.212,-37.598,-33.203,-38.086,-41.504,-3.418
1692044559.216,-30.762,-30.762,-39.551,-28.320,170.898
1692044559.220,-26.855,-27.832,-38.574,-28.320,-16.113
1692044559.224,-20.508,-21.973,-32.227,-24.902,-215.332
1692044559.228,-23.926,-24.414,-33.203,-21.973,-133.789
1692044559.230,-34.668,-27.832,-37.109,-32.227,125.000
1692044559.234,-29.785,-27.832,-36.621,-40.527,-34.180
1692044559.238,-26.367,-31.250,-38.086,-41.992,-219.727
1692044559.242,-25.879,-29.785,-39.062,-39.062,-148.438
1692044559.246,-25.879,-28.809,-36.621,-36.621,-133.301
1692044559.250,-32.227,-32.715,-34.180,-35.645,-2.441
1692044559.254,-31.250,-31.738,-33.691,-40.039,-6.348
1692044559.257,-31.250,-31.250,-33.691,-39.551,70.801
1692044559.261,-31.250,-30.273,-34.668,-33.691,390.625
1692044559.265,-37.109,-32.227,-34.180,-39.062,83.008
1692044559.269,-52.734,-33.691,-35.156,-41.992,-217.773
1692044559.273,-43.457,-28.809,-39.062,-37.598,77.637
1692044559.275,-28.320,-23.926,-37.598,-36.133,111.328
1692044559.279,-30.762,-22.949,-28.320,-32.715,-125.488
1692044559.283,-45.898,-26.855,-26.367,-33.691,-156.738
1692044559.287,-41.016,-25.391,-25.391,-27.344,-96.680
1692044559.291,-26.855,-32.715,-24.902,-17.578,-91.309
1692044559.295,-33.203,-38.574,-29.785,-13.672,-47.852
1692044559.299,-26.855,-33.691,-27.344,-11.230,95.703
1692044559.302,-21.973,-33.203,-25.391,-5.859,254.395
1692044559.306,-36.133,-35.156,-28.320,-11.230,36.133
1692044559.310,-34.180,-35.156,-30.762,-13.184,-197.754
1692044559.314,-27.832,-27.344,-35.645,-10.742,-102.539
1692044559.318,-24.414,-23.438,-33.691,-11.719,9.277
1692044559.324,-32.715,-29.785,-32.227,-22.461,-115.723
1692044559.328,-33.691,-25.879,-34.668,-37.109,-223.633
1692044559.332,-34.180,-25.391,-34.668,-37.598,-181.641
1692044559.336,-38.574,-29.297,-32.715,-35.156,-111.328
1692044559.340,-34.180,-27.344,-32.227,-44.434,-51.758
1692044559.344,-29.785,-25.879,-33.691,-44.922,-28.320
1692044559.348,-30.273,-28.320,-35.645,-35.156,89.355
1692044559.351,-39.551,-26.367,-32.715,-32.715,201.172
1692044559.355,-38.086,-25.391,-30.273,-32.715,-82.520
1692044559.359,-32.715,-27.344,-35.156,-38.086,-193.848
1692044559.363,-38.086,-26.855,-35.156,-40.527,-23.438
1692044559.367,-34.180,-25.879,-33.691,-45.898,93.262
1692044559.366,-32.715,-29.297,-36.621,-42.969,-10.742
1692044559.370,-33.203,-25.391,-34.668,-32.715,-99.609
1692044559.374,-26.367,-18.555,-29.785,-29.297,29.785
1692044559.378,-29.297,-24.414,-28.320,-26.367,-19.043
1692044559.382,-37.598,-26.367,-26.855,-31.250,-168.945
1692044559.386,-34.668,-27.832,-25.391,-30.273,-97.168
1692044559.390,-27.344,-31.738,-25.391,-22.949,269.531
1692044559.393,-25.879,-31.250,-25.879,-17.578,474.121
1692044559.397,-29.297,-33.691,-28.809,-27.344,102.051
1692044559.401,-29.297,-28.809,-25.391,-26.367,-212.402
1692044559.405,-22.461,-21.973,-20.996,-18.066,-205.078
1692044559.409,-25.879,-30.273,-25.879,-13.672,-192.871
1692044559.425,-26.855,-33.203,-27.344,-8.301,-217.773
1692044559.429,-19.531,-28.809,-24.414,-12.695,-172.363
1692044559.433,-20.508,-28.809,-21.484,-19.531,-126.465
1692044559.437,-27.344,-28.320,-24.902,-18.555,-152.344
1692044559.441,-28.809,-28.320,-29.785,-13.184,-210.938
1692044559.445,-28.809,-25.879,-25.879,-5.371,35.645
1692044559.449,-21.973,-27.344,-27.344,-11.230,472.656
1692044559.452,-25.879,-27.832,-32.227,-31.738,121.582
1692044559.456,-35.156,-24.414,-31.738,-35.156,-193.359
1692044559.460,-34.180,-28.809,-31.250,-24.414,-68.848
1692044559.464,-31.738,-30.273,-27.344,-26.855,-91.309
1692044559.468,-26.855,-26.367,-30.762,-31.250,-73.242
1692044559.470,-22.461,-25.879,-30.273,-40.039,-85.938
1692044559.474,-35.645,-27.832,-28.320,-40.039,4.395
1692044559.478,-41.504,-28.320,-27.832,-30.273,68.359
1692044559.482,-30.762,-31.738,-27.344,-31.250,-90.332
1692044559.486,-31.738,-33.203,-35.156,-38.086,-70.312
1692044559.490,-41.992,-25.879,-37.109,-44.922,81.543
1692044559.494,-42.480,-19.043,-35.645,-48.828,37.598
1692044559.497,-42.969,-22.949,-37.598,-46.387,-56.152
1692044559.501,-43.945,-32.227,-43.457,-49.805,-44.922
1692044559.505,-33.691,-35.645,-38.086,-38.574,213.379
1692044559.509,-40.039,-37.598,-34.668,-37.598,129.395
1692044559.513,-43.945,-34.180,-39.062,-50.781,-181.152
1692044559.515,-40.527,-31.250,-37.598,-47.852,-188.477
1692044559.519,-41.504,-29.785,-36.133,-35.645,-127.441
1692044559.523,-39.062,-27.832,-33.203,-24.414,-156.250
1692044559.527,-36.621,-33.203,-31.250,-32.227,-182.129
1692044559.531,-39.551,-29.297,-31.738,-38.086,-136.230
1692044559.535,-33.691,-27.344,-31.250,-26.367,-50.293
1692044559.539,-22.461,-32.227,-33.203,-22.461,13.672
1692044559.542,-26.367,-32.227,-35.156,-28.809,-29.785
1692044559.546,-30.762,-27.832,-34.180,-33.203,46.875
1692044559.550,-33.203,-27.344,-33.691,-32.715,322.266
1692044559.554,-40.039,-28.320,-37.109,-32.715,64.941
1692044559.558,-31.250,-25.879,-36.133,-30.762,-67.383
1692044559.560,-21.484,-30.273,-23.926,-17.578,102.051
1692044559.564,-23.438,-32.227,-23.438,-16.602,-2.930
1692044559.568,-29.785,-32.715,-30.762,-32.227,-236.328
1692044559.572,-35.645,-30.762,-27.832,-30.273,-249.023
1692044559.576,-30.762,-29.297,-28.320,-19.531,-66.895
1692044559.580,-25.879,-29.785,-36.133,-22.461,5.371
1692044559.584,-33.203,-30.762,-38.086,-30.762,-54.688
1692044559.587,-29.785,-33.691,-32.715,-27.832,-117.676
1692044559.591,-28.320,-32.715,-36.621,-23.926,96.680
1692044559.595,-28.320,-31.738,-36.621,-28.809,113.770
1692044559.599,-20.020,-33.691,-32.715,-33.203,-78.613
1692044559.603,-19.043,-32.227,-29.785,-34.180,-55.664
1692044559.605,-27.832,-30.762,-24.902,-31.250,28.320
1692044559.609,-33.691,-34.668,-22.949,-31.250,-135.254
1692044559.613,-30.273,-33.203,-23.438,-34.668,-189.941
1692044559.617,-29.785,-31.738,-26.367,-25.879,-77.637
1692044559.621,-38.086,-37.598,-28.320,-23.926,-67.871
1692044559.625,-40.039,-37.598,-30.762,-36.621,-26.855
1692044559.629,-41.504,-35.645,-32.715,-44.922,-40.039
1692044559.632,-33.691,-33.203,-28.320,-32.715,15.625
1692044559.636,-25.879,-28.320,-23.438,-13.184,268.066
1692044559.640,-27.344,-23.926,-26.367,-8.789,-5.859
1692044559.644,-20.508,-27.344,-24.902,-9.766,-186.035
1692044559.648,-16.602,-32.227,-26.367,-19.531,102.539
1692044559.665,-32.227,-28.809,-31.738,-26.855,118.164
1692044559.669,-32.715,-28.320,-32.715,-23.926,-84.961
1692044559.673,-20.508,-24.902,-30.273,-22.461,-158.691
1692044559.677,-22.461,-24.902,-34.180,-21.484,63.477
1692044559.681,-25.879,-27.832,-38.574,-31.250,86.426
1692044559.685,-13.672,-20.996,-34.668,-23.926,-172.852
1692044559.689,-11.719,-18.066,-34.180,-12.207,-133.301
1692044559.692,-22.461,-26.855,-38.086,-16.602,167.969
1692044559.696,-20.508,-32.227,-38.574,-28.320,113.281
1692044559.700,-29.785,-26.367,-32.715,-38.086,-172.852
1692044559.704,-37.109,-21.973,-31.250,-40.527,-162.109
1692044559.708,-37.109,-24.902,-34.668,-35.156,-108.398
1692044559.695,-29.785,-22.949,-34.668,-29.785,-134.277
1692044559.699,-30.273,-24.902,-32.227,-30.762,-157.715
1692044559.703,-40.039,-26.367,-32.715,-36.621,-111.816
1692044559.707,-36.133,-22.461,-35.645,-42.480,-5.371
1692044559.711,-30.273,-25.879,-33.691,-33.691,-64.941
1692044559.715,-22.949,-26.855,-28.809,-29.785,-80.078
1692044559.719,-19.531,-31.738,-29.785,-44.434,104.492
1692044559.722,-29.297,-37.598,-32.715,-54.688,163.086
1692044559.726,-39.062,-34.668,-34.668,-54.199,-102.051
1692044559.730,-32.715,-33.203,-28.809,-44.922,-265.625
1692044559.734,-39.551,-35.156,-23.926,-33.203,-4.883
1692044559.738,-47.363,-37.598,-26.367,-24.414,480.469
1692044559.740,-43.945,-34.668,-30.762,-29.785,145.508
1692044559.744,-49.805,-35.156,-28.320,-27.344,-250.000
1692044559.748,-46.387,-33.691,-27.344,-20.508,-112.793
1692044559.752,-33.203,-33.691,-32.227,-25.391,-77.148
1692044559.756,-27.344,-34.668,-28.809,-29.297,-175.293
1692044559.760,-28.320,-38.574,-29.785,-34.668,-148.438
1692044559.764,-35.156,-39.062,-29.297,-32.227,209.961
1692044559.767,-35.645,-38.086,-24.414,-23.438,159.180
1692044559.771,-32.227,-36.133,-24.902,-21.973,-178.223
1692044559.775,-31.250,-23.926,-29.785,-19.531,-120.117
1692044559.779,-38.574,-25.391,-33.203,-22.461,128.906
1692044559.783,-47.852,-31.738,-27.832,-34.180,-39.551
1692044559.786,-47.363,-28.320,-21.973,-37.598,-162.109
1692044559.790,-36.133,-28.809,-23.926,-38.086,-97.656
1692044559.794,-25.391,-29.297,-26.855,-39.062,-67.383
1692044559.798,-26.367,-28.320,-29.297,-36.621,-129.395
1692044559.802,-32.227,-28.320,-30.273,-40.039,-193.848
1692044559.806,-36.133,-27.832,-30.273,-36.133,8.789
1692044559.810,-33.203,-31.250,-32.227,-27.832,217.285
1692044559.813,-33.203,-34.180,-30.273,-27.832,13.184
1692044559.817,-38.574,-32.227,-25.879,-26.855,-82.520
1692044559.821,-43.457,-31.738,-32.715,-31.738,26.367
1692044559.825,-44.434,-35.645,-29.785,-36.133,121.582
1692044559.829,-43.945,-33.203,-22.461,-31.250,23.438
1692044559.845,-45.898,-34.180,-21.973,-29.785,-103.516
1692044559.849,-42.969,-33.691,-20.508,-24.414,12.207
1692044559.853,-44.922,-30.273,-22.461,-24.414,13.672
1692044559.857,-42.969,-26.367,-22.949,-27.344,-210.938
1692044559.861,-28.320,-23.438,-27.344,-20.020,-135.254
1692044559.865,-22.949,-28.320,-31.250,-19.043,175.293
1692044559.869,-25.879,-24.414,-31.738,-23.438,112.305
1692044559.872,-23.926,-22.461,-34.668,-32.227,-228.027
1692044559.876,-19.043,-25.879,-36.133,-31.250,-197.266
1692044559.880,-18.555,-29.785,-32.715,-16.602,129.883
1692044559.884,-16.113,-27.832,-30.762,-22.949,28.320
1692044559.888,-15.137,-22.949,-29.297,-25.879,-198.242
1692044559.890,-13.672,-23.926,-30.762,-26.367,-128.906
1692044559.894,-7.812,-28.320,-30.762,-22.461,68.359
1692044559.898,-17.578,-38.086,-33.691,-15.137,29.785
1692044559.902,-13.672,-32.715,-34.180,-11.719,-86.914
1692044559.906,-9.277,-24.902,-31.738,-17.578,-96.191
1692044559.910,-17.090,-29.785,-27.344,-20.996,3.906
1692044559.914,-17.090,-26.855,-25.879,-13.184,-15.137
1692044559.917,-11.719,-21.484,-30.762,-8.789,-166.016
1692044559.921,-12.695,-22.461,-29.297,-9.766,-35.156
1692044559.925,-20.020,-27.832,-30.762,-14.160,230.957
1692044559.929,-27.344,-28.320,-34.668,-18.555,-11.719
1692044559.933,-31.738,-24.902,-33.203,-21.973,-150.879
1692044559.935,-26.367,-27.832,-34.180,-22.949,107.910
1692044559.939,-17.578,-30.273,-35.645,-22.461,154.297
1692044559.943,-28.320,-31.738,-33.691,-29.297,-167.969
1692044559.947,-32.227,-28.809,-34.180,-35.645,-188.477
1692044559.951,-28.320,-27.832,-36.133,-35.156,-101.562
1692044559.955,-19.531,-26.367,-34.668,-26.367,-86.426
1692044559.959,-14.648,-24.414,-31.738,-18.555,-34.180
1692044559.962,-23.438,-21.973,-30.273,-21.484,-32.227
1692044559.966,-25.879,-21.973,-29.297,-22.461,116.211
1692044559.970,-21.973,-20.996,-31.738,-14.160,-12.207
1692044559.974,-28.809,-17.090,-32.715,-7.812,-218.262
1692044559.978,-25.879,-21.484,-31.738,-4.883,-78.125
1692044559.980,-21.484,-26.367,-31.738,2.441,43.945
1692044559.984,-25.879,-30.273,-31.250,-4.883,-90.332
1692044559.988,-29.785,-33.203,-31.250,-14.648,-149.902
1692044559.992,-32.227,-34.180,-28.809,-13.184,3.418
1692044559.996,-36.133,-34.668,-29.297,-16.113,43.945
1692044560.000,-26.855,-33.691,-32.227,-13.672,68.848
1692044560.004,-14.648,-24.902,-30.762,-10.742,23.926
1692044560.007,-25.391,-23.438,-29.785,-20.020,-28.320
1692044560.011,-28.320,-32.227,-32.227,-10.742,202.637
1692044560.015,-10.254,-29.785,-32.715,-3.906,-81.543
1692044560.019,-11.230,-25.879,-31.738,-14.648,-214.844
1692044560.023,-20.020,-24.902,-32.227,-19.531,54.199
1692044560.025,-24.414,-21.973,-32.227,-23.926,-49.805
1692044560.029,-31.250,-23.926,-32.227,-28.809,-209.961
1692044560.033,-32.227,-26.855,-36.621,-26.367,-143.555
1692044560.037,-19.531,-24.414,-31.738,-17.090,83.008
1692044560.041,-23.438,-22.461,-25.391,-24.902,55.664
1692044560.045,-41.504,-26.855,-22.461,-36.133,-79.590
1692044560.049,-47.363,-30.762,-22.949,-33.203,8.301
1692044560.052,-50.781,-30.273,-25.391,-34.180,331.055
1692044560.056,-55.664,-30.762,-25.391,-39.551,335.449
1692044560.060,-62.012,-30.273,-25.391,-45.410,-104.980
1692044560.064,-67.383,-27.344,-26.367,-46.875,-215.332
1692044560.068,-60.547,-27.832,-31.738,-43.945,-149.902
1692044560.085,-58.105,-27.832,-34.668,-28.809,-184.570
1692044560.089,-58.594,-23.438,-30.762,-31.738,-194.336
1692044560.093,-54.688,-22.949,-30.273,-40.039,-126.465
1692044560.097,-50.293,-26.855,-30.273,-37.598,-112.793
1692044560.101,-54.199,-27.832,-29.297,-36.621,-94.727
1692044560.105,-45.410,-26.367,-28.320,-27.832,-13.184
1692044560.109,-31.738,-27.344,-29.297,-17.578,206.055
1692044560.112,-27.832,-27.832,-28.320,-16.113,337.891
1692044560.116,-27.832,-24.902,-30.762,-23.438,-5.371
1692044560.120,-29.297,-27.832,-34.180,-26.855,-209.473
1692044560.124,-16.602,-30.762,-35.645,-25.879,-25.391
1692044560.128,-13.184,-26.855,-33.691,-22.461,82.031
1692044560.117,-18.555,-22.949,-30.762,-23.438,-111.816
1692044560.121,-23.438,-21.484,-27.832,-34.180,-201.172
1692044560.125,-25.391,-26.855,-28.809,-36.621,-8.301
1692044560.129,-28.320,-32.227,-32.715,-37.109,-10.742
1692044560.133,-25.391,-29.297,-33.691,-37.598,-196.289
1692044560.137,-19.531,-25.879,-34.180,-34.668,-27.344
1692044560.141,-31.250,-24.902,-30.762,-37.598,157.227
1692044560.144,-41.504,-24.902,-29.785,-44.922,-63.965
1692044560.148,-49.805,-29.785,-29.785,-45.410,-215.820
1692044560.152,-46.875,-31.738,-29.297,-40.527,-94.727
1692044560.156,-37.598,-31.738,-28.809,-39.551,197.754
1692044560.160,-35.645,-31.738,-28.320,-49.316,114.746
1692044560.160,-41.992,-28.320,-30.273,-60.547,-144.531
1692044560.164,-48.340,-28.809,-32.715,-58.594,-109.863
1692044560.168,-43.945,-28.320,-29.297,-42.969,-15.625
1692044560.172,-34.180,-20.020,-26.855,-38.574,-44.922
1692044560.176,-37.109,-19.043,-28.320,-40.039,-145.508
1692044560.180,-41.016,-21.973,-27.832,-32.715,-14.648
1692044560.184,-41.016,-24.414,-28.320,-28.809,485.352
1692044560.187,-41.504,-31.250,-32.715,-25.391,311.523
1692044560.191,-36.133,-28.809,-33.691,-21.484,-177.246
1692044560.195,-30.273,-22.949,-30.273,-23.926,-163.574
1692044560.199,-33.203,-19.531,-27.344,-24.902,-135.254
1692044560.203,-33.203,-20.508,-23.438,-23.438,-126.953
1692044560.221,-26.855,-23.926,-23.438,-24.902,-183.594
1692044560.225,-19.531,-20.508,-20.996,-13.672,43.457
1692044560.229,-11.719,-22.949,-26.367,-20.020,177.246
1692044560.233,-20.020,-27.344,-35.645,-34.180,-142.090
1692044560.237,-32.715,-27.832,-39.062,-30.273,-181.641
1692044560.241,-20.508,-28.320,-36.133,-27.344,-26.855
1692044560.245,-12.695,-29.785,-34.180,-25.879,-51.270
1692044560.248,-14.648,-27.344,-32.715,-19.531,-176.270
1692044560.252,-22.461,-23.438,-30.273,-18.555,-170.898
1692044560.256,-29.297,-26.855,-27.344,-20.020,164.551
1692044560.260,-28.809,-30.273,-29.297,-19.043,75.684
1692044560.264,-26.855,-33.691,-28.320,-18.066,-184.570
1692044560.265,-25.879,-30.273,-24.414,-21.484,-121.094
1692044560.269,-25.879,-28.809,-23.926,-21.973,-65.918
1692044560.273,-32.227,-32.227,-26.855,-26.855,-89.844
1692044560.277,-26.367,-23.438,-27.832,-26.855,-107.910
1692044560.281,-19.531,-19.531,-24.414,-16.602,-6.836
1692044560.285,-24.414,-21.973,-30.273,-17.578,128.906
1692044560.289,-37.598,-22.949,-36.621,-34.180,77.148
1692044560.292,-43.945,-27.832,-37.598,-43.457,-137.207
1692044560.296,-39.551,-29.297,-40.039,-30.762,-6.836
1692044560.300,-33.691,-27.832,-36.621,-25.391,395.020
1692044560.304,-34.668,-20.996,-33.203,-37.109,119.141
1692044560.308,-36.621,-16.602,-36.621,-45.898,-167.969
1692044560.310,-40.039,-25.391,-34.668,-46.387,-13.184
1692044560.314,-42.480,-27.832,-33.691,-42.480,1.465
1692044560.318,-34.668,-22.949,-38.086,-32.715,-144.043
1692044560.322,-25.879,-27.344,-36.621,-25.879,-144.043
1692044560.326,-32.227,-34.668,-36.133,-34.668,-114.746
1692044560.330,-41.992,-33.203,-37.109,-41.016,-32.227
1692044560.334,-35.156,-27.344,-33.691,-28.320,-20.020
1692044560.337,-23.926,-27.832,-34.180,-16.113,-85.938
1692044560.341,-24.414,-32.227,-35.156,-13.184,174.805
1692044560.345,-35.156,-31.738,-30.762,-20.508,190.918
1692044560.349,-45.410,-33.203,-29.785,-31.738,-154.785
1692044560.353,-42.969,-35.645,-28.320,-28.809,-207.520
1692044560.355,-38.086,-36.621,-28.320,-22.461,-162.109
1692044560.359,-35.156,-35.156,-27.344,-19.531,-197.754
1692044560.363,-31.250,-30.762,-26.855,-22.949,-189.453
1692044560.367,-31.738,-29.785,-30.273,-27.344,-159.668
1692044560.371,-32.227,-31.250,-34.668,-20.996,-123.535
1692044560.375,-32.227,-27.832,-35.645,-23.438,-27.344
1692044560.379,-31.738,-26.855,-34.180,-30.273,-20.508
1692044560.382,-32.227,-25.879,-36.621,-32.227,50.293
1692044560.386,-39.551,-28.320,-37.109,-34.180,286.133
1692044560.390,-38.086,-33.203,-36.621,-33.203,-7.324
1692044560.394,-26.367,-29.297,-35.156,-30.762,-220.215
1692044560.398,-14.160,-25.391,-30.273,-29.297,165.039
1692044560.400,-15.625,-25.879,-28.809,-31.250,247.559
1692044560.404,-22.461,-25.391,-33.203,-37.598,-160.156
1692044560.408,-31.250,-31.738,-37.109,-41.016,-248.047
1692044560.412,-38.086,-34.180,-37.598,-37.598,-115.234
1692044560.416,-35.645,-30.273,-38.086,-26.855,-80.078
1692044560.420,-31.738,-32.715,-37.598,-28.320,-70.312
1692044560.424,-27.832,-31.738,-33.691,-39.062,-37.598
1692044560.427,-36.621,-31.738,-33.203,-30.273,187.500
1692044560.431,-48.340,-32.715,-36.621,-22.949,137.207
1692044560.435,-32.715,-25.391,-34.668,-24.414,-115.723
1692044560.439,-20.020,-20.508,-34.180,-20.996,-61.523
1692044560.443,-26.367,-18.066,-35.645,-28.809,-59.082
1692044560.460,-31.250,-18.555,-32.715,-40.527,-143.555
1692044560.464,-41.504,-23.926,-34.668,-41.016,-138.184
1692044560.468,-44.922,-30.762,-38.574,-38.574,-75.195
1692044560.472,-31.738,-37.598,-41.016,-48.340,-15.137
1692044560.476,-40.039,-36.621,-41.016,-56.152,-76.660
1692044560.480,-40.527,-35.156,-40.039,-50.781,-37.598
1692044560.484,-38.086,-38.086,-41.504,-37.598,133.301
1692044560.487,-27.832,-41.504,-38.086,-21.973,345.703
1692044560.491,-5.371,-40.527,-31.738,1.465,20.996
1692044560.495,-25.879,-30.273,-33.203,-21.973,-255.371
1692044560.499,-80.566,-25.879,-38.086,-84.473,-156.250
1692044560.503,-95.703,-28.320,-36.133,-90.820,-72.266
1692044560.491,-76.660,-28.320,-38.086,-77.637,-131.836
1692044560.495,-89.844,-24.902,-42.480,-103.516,-134.766
1692044560.499,-107.910,-20.508,-40.527,-113.281,132.324
1692044560.503,-111.328,-18.066,-43.457,-122.070,139.160
1692044560.507,-125.000,-16.113,-46.875,-141.602,-188.965
1692044560.511,-117.676,-13.672,-46.387,-132.812,-165.527
1692044560.515,-96.680,-11.230,-49.316,-125.977,28.320
1692044560.518,-100.586,-12.695,-49.805,-130.371,-71.289
1692044560.522,-106.445,-14.648,-42.969,-124.512,-189.453
1692044560.526,-101.562,-18.555,-39.551,-113.281,-150.391
1692044560.530,-82.520,-21.973,-38.086,-88.379,177.246
1692044560.534,-72.754,-24.902,-39.551,-75.684,116.699
1692044560.535,-78.125,-31.738,-38.574,-87.891,-121.582
1692044560.539,-77.637,-35.645,-36.621,-93.750,-91.309
1692044560.543,-73.242,-29.785,-36.621,-83.984,-75.684
1692044560.547,-61.035,-26.855,-33.203,-68.359,-71.289
1692044560.551,-44.922,-27.344,-30.273,-60.059,-74.707
1692044560.555,-33.691,-19.043,-29.785,-58.105,160.156
1692044560.559,-35.645,-15.137,-27.344,-52.246,524.414
1692044560.562,-36.133,-14.648,-28.809,-50.781,116.699
1692044560.566,-28.809,-16.602,-32.715,-49.805,-196.289
1692044560.570,-17.578,-19.531,-30.273,-35.645,-58.105
1692044560.574,-13.672,-18.555,-29.785,-39.062,-59.082
1692044560.578,-29.297,-18.555,-32.715,-51.270,-79.590
1692044560.595,-47.363,-20.020,-33.691,-50.293,-116.699
1692044560.599,-41.504,-17.578,-30.273,-41.504,59.570
1692044560.603,-21.973,-18.066,-28.809,-23.438,98.145
1692044560.607,-20.996,-21.973,-28.809,-20.996,-196.777
1692044560.611,-30.273,-15.137,-25.879,-33.691,-163.574
1692044560.615,-41.016,-18.555,-28.809,-46.387,61.035
1692044560.619,-44.434,-28.320,-32.715,-46.875,10.254
1692044560.622,-29.785,-26.367,-33.203,-41.016,-45.898
1692044560.626,-21.484,-25.391,-32.715,-37.598,-68.848
1692044560.630,-27.832,-21.973,-31.738,-44.922,162.109
1692044560.634,-39.551,-22.461,-31.738,-53.711,115.723
1692044560.638,-37.598,-26.367,-36.621,-41.992,-153.809
1692044560.640,-30.762,-26.855,-34.668,-39.062,-156.250
1692044560.644,-37.109,-27.832,-30.762,-54.688,-146.973
1692044560.648,-46.875,-24.414,-28.809,-57.617,-156.250
1692044560.652,-57.617,-25.879,-24.902,-62.988,-171.875
1692044560.656,-62.012,-33.203,-30.273,-62.988,-99.609
1692044560.660,-49.805,-32.715,-28.320,-47.852,67.871
1692044560.664,-48.340,-26.855,-24.902,-50.293,89.844
1692044560.667,-50.293,-24.414,-29.297,-55.664,-96.680
1692044560.671,-42.969,-29.785,-29.785,-47.363,-38.574
1692044560.675,-33.203,-38.574,-24.414,-22.461,325.195
1692044560.679,-45.410,-30.762,-29.297,-35.645,85.449
1692044560.683,-51.270,-21.973,-33.691,-55.176,-69.336
1692044560.685,-42.969,-20.508,-29.785,-56.152,93.262
1692044560.689,-43.457,-19.531,-29.785,-62.988,105.469
1692044560.693,-51.758,-20.020,-32.227,-70.312,-110.352
1692044560.697,-57.129,-20.020,-39.062,-72.266,-166.992
1692044560.701,-49.805,-28.809,-41.016,-62.500,-5.859
1692044560.705,-36.621,-29.785,-39.062,-60.547,49.316
1692044560.709,-31.738,-22.949,-41.992,-65.918,17.578
1692044560.712,-39.062,-24.414,-41.504,-60.547,-90.332
1692044560.716,-35.645,-26.367,-41.992,-52.734,115.234
1692044560.720,-30.762,-28.809,-42.969,-46.387,129.883
1692044560.724,-41.016,-33.203,-35.156,-50.293,-179.199
1692044560.728,-37.598,-39.062,-27.832,-51.270,-160.156
1692044560.731,-30.762,-36.133,-26.367,-45.410,-92.773
1692044560.735,-28.320,-30.273,-32.227,-49.316,-184.082
1692044560.739,-25.391,-34.668,-32.715,-43.945,-138.184
1692044560.743,-27.832,-38.086,-29.297,-34.180,-76.660
1692044560.747,-28.320,-33.203,-30.273,-35.645,-112.305
1692044560.751,-36.621,-32.227,-29.785,-40.527,4.395
1692044560.755,-32.227,-28.809,-30.273,-36.621,-31.250
1692044560.758,-13.672,-23.926,-26.367,-22.461,-31.738
1692044560.762,-11.719,-22.949,-19.531,-16.602,297.363
1692044560.766,-25.879,-27.344,-21.973,-27.832,27.832
1692044560.770,-19.531,-30.273,-23.926,-20.996,-202.148
1692044560.774,-13.184,-26.367,-28.320,-14.160,108.887
1692044560.776,-16.602,-28.320,-30.762,-18.555,21.973
1692044560.780,-10.742,-30.762,-33.203,-24.902,-197.266
1692044560.784,-14.160,-33.203,-34.668,-34.668,-136.719
1692044560.788,-20.508,-31.738,-30.762,-28.809,5.371
1692044560.792,-18.555,-33.203,-28.809,-22.949,-10.254
1692044560.796,-13.672,-35.156,-28.809,-10.742,-55.664
1692044560.800,-16.113,-29.297,-30.762,-1.953,51.270
1692044560.803,-18.555,-29.297,-30.273,-15.625,238.281
1692044560.807,-26.367,-33.203,-31.738,-25.879,90.820
1692044560.811,-29.297,-31.738,-33.203,-24.902,-204.102
1692044560.815,-15.625,-23.926,-31.738,-24.902,-190.430
1692044560.819,-8.789,-25.879,-31.738,-26.367,-159.180
1692044560.820,-14.160,-31.250,-35.156,-19.531,-192.383
1692044560.824,-18.555,-25.391,-32.715,-15.137,-169.922
1692044560.828,-8.301,-23.926,-30.762,-10.742,-62.500
1692044560.832,3.418,-27.344,-34.668,-5.371,6.836
1692044560.836,0.488,-20.020,-35.645,-5.371,-4.883
1692044560.840,-7.812,-19.043,-33.691,-8.301,-41.016
1692044560.844,-16.602,-24.414,-34.668,-15.137,31.738
1692044560.847,-21.484,-24.414,-32.715,-16.602,284.180
1692044560.851,-13.672,-23.926,-24.902,-17.090,55.664
1692044560.855,-6.836,-20.996,-24.414,-21.973,-197.754
1692044560.859,-6.348,-23.438,-26.855,-24.902,-67.383
1692044560.863,-11.719,-27.832,-27.832,-23.926,-21.973
1692044560.865,-26.855,-32.715,-28.320,-16.113,-138.184
1692044560.869,-28.320,-29.785,-29.297,-12.695,-152.832
1692044560.873,-18.066,-25.391,-29.785,-12.207,44.922
1692044560.877,-14.648,-27.344,-31.250,-13.672,2.930
1692044560.881,-22.949,-29.785,-31.738,-21.973,-215.332
1692044560.885,-29.785,-26.367,-25.879,-29.785,-93.262
1692044560.889,-34.668,-23.926,-25.391,-29.297,255.371
1692044560.892,-43.457,-29.297,-27.344,-30.273,144.531
1692044560.896,-48.340,-32.715,-31.250,-44.922,-211.426
1692044560.900,-46.387,-35.156,-33.691,-47.363,-195.312
1692044560.904,-41.504,-38.086,-31.738,-30.762,51.270
1692044560.908,-41.992,-37.109,-33.203,-28.320,-68.359
1692044560.910,-34.180,-32.715,-31.738,-34.180,-216.309
1692044560.914,-26.367,-26.855,-24.902,-30.762,-131.348
1692044560.918,-36.133,-27.832,-26.367,-39.062,-156.250
1692044560.922,-55.664,-28.809,-36.133,-47.852,-158.691
1692044560.926,-55.176,-30.273,-36.621,-40.039,-125.977
1692044560.930,-34.180,-29.297,-33.691,-35.645,19.043
1692044560.934,-41.992,-32.227,-33.203,-39.551,173.828
1692044560.937,-53.223,-32.227,-34.668,-51.270,-50.293
1692044560.941,-54.199,-32.227,-32.715,-44.434,-208.984
1692044560.945,-55.664,-35.645,-29.785,-32.227,49.805
1692044560.949,-47.852,-30.762,-25.879,-35.645,202.148
1692044560.953,-43.945,-26.855,-21.973,-40.039,-57.129
1692044560.971,-52.246,-31.250,-24.414,-44.434,-140.137
1692044560.975,-50.293,-32.715,-24.414,-41.992,4.395
1692044560.979,-40.527,-27.832,-24.902,-35.156,19.043
1692044560.983,-38.574,-23.926,-25.391,-25.879,-164.551
1692044560.987,-41.992,-25.879,-27.832,-25.391,-126.953
1692044560.991,-48.828,-28.320,-31.738,-36.133,80.078
1692044560.995,-54.688,-24.902,-32.227,-47.852,87.891
1692044560.998,-50.781,-26.367,-31.250,-51.270,-144.043
1692044561.002,-31.738,-30.273,-31.738,-45.898,-156.250
1692044561.006,-21.973,-23.438,-29.785,-35.156,237.305
1692044561.010,-31.250,-20.996,-26.855,-41.016,60.059
1692044561.014,-35.645,-23.926,-26.367,-49.805,-204.590
1692044561.015,-29.785,-21.973,-24.414,-43.945,15.137
1692044561.019,-27.344,-20.508,-26.855,-41.016,47.852
1692044561.023,-26.367,-23.926,-31.250,-43.945,-129.395
1692044561.027,-29.785,-24.414,-28.809,-47.852,-187.012
1692044561.031,-35.645,-27.832,-30.762,-43.945,-154.785
1692044561.035,-38.086,-35.156,-35.156,-41.992,10.742
1692044561.039,-39.551,-35.645,-37.598,-38.574,98.633
1692044561.042,-38.574,-32.715,-39.551,-35.645,-93.262
1692044561.046,-43.945,-36.133,-39.551,-37.598,-10.254
1692044561.050,-57.129,-36.621,-34.180,-39.062,235.352
1692044561.054,-53.223,-44.922,-26.367,-25.391,-53.711
1692044561.058,-28.320,-40.527,-28.809,-9.277,-71.777
1692044561.061,-31.250,-22.461,-41.504,-30.762,134.766
1692044561.065,-49.316,-21.973,-46.875,-54.199,53.223
1692044561.069,-58.594,-18.555,-46.875,-59.570,-56.152
1692044561.073,-62.988,-21.973,-46.875,-53.711,-84.961
1692044561.077,-42.969,-23.926,-43.945,-40.527,14.160
1692044561.081,-30.273,-19.043,-38.086,-46.875,69.336
1692044561.085,-37.109,-25.879,-41.504,-54.688,-41.016
1692044561.088,-44.434,-22.461,-46.875,-56.152,-174.316
1692044561.092,-43.945,-13.672,-44.434,-46.875,41.992
1692044561.096,-33.203,-17.090,-45.410,-42.480,51.270
1692044561.100,-21.484,-20.508,-47.363,-37.109,-200.195
1692044561.104,-21.484,-22.949,-42.969,-33.203,-195.312
1692044561.105,-38.086,-23.926,-37.109,-37.109,-128.418
1692044561.109,-32.227,-24.414,-34.180,-22.949,-127.930
1692044561.113,-18.066,-27.344,-36.621,-17.090,-174.805
1692044561.117,-17.578,-20.508,-37.598,-14.648,-151.367
1692044561.121,-12.207,-18.555,-34.180,-6.836,-48.828
1692044561.125,-10.254,-23.438,-36.133,-22.949,52.734
1692044561.129,-5.371,-23.926,-42.480,-31.250,-54.199
1692044561.132,4.883,-17.090,-37.109,-16.602,11.719
1692044561.136,-2.441,-16.113,-29.297,-9.766,327.637
1692044561.140,-11.230,-26.367,-29.785,-19.531,69.824
1692044561.144,-13.672,-30.762,-27.832,-21.484,-185.059
1692044561.148,-8.789,-26.855,-23.926,-18.066,61.523
1692044561.165,2.930,-20.996,-25.879,-10.742,24.902
1692044561.169,5.371,-19.043,-29.297,0.000,-170.898
1692044561.173,1.953,-25.391,-31.738,-2.930,-58.105
1692044561.177,7.324,-22.461,-29.785,-0.488,-28.320
1692044561.181,-6.836,-17.090,-26.367,-3.418,-133.789
1692044561.185,-17.090,-18.066,-30.762,-7.324,-87.402
1692044561.189,-7.324,-15.625,-28.320,5.859,-10.254
1692044561.192,0.977,-20.020,-23.438,4.395,328.125
1692044561.196,-14.648,-25.391,-27.344,-13.672,371.582
1692044561.200,-23.438,-23.926,-31.250,-16.602,-138.184
1692044561.204,-25.391,-28.320,-28.320,-8.789,-191.895
1692044561.208,-27.344,-30.762,-26.367,-13.184,-73.730
1692044561.210,-23.926,-35.156,-26.855,-10.742,-130.859
1692044561.214,-21.973,-32.227,-28.320,-7.324,-182.129
1692044561.218,-24.902,-25.879,-25.391,-11.230,-134.766
1692044561.222,-29.297,-27.344,-22.949,-0.977,-76.172
1692044561.226,-28.809,-29.785,-20.996,2.930,-100.098
1692044561.230,-15.137,-28.809,-21.973,-2.441,-45.410
1692044561.234,-3.906,-22.949,-28.320,-2.441,102.051
1692044561.237,-16.113,-23.926,-27.344,-12.695,95.703
1692044561.241,-25.879,-28.809,-29.785,-18.066,-98.145
1692044561.245,-27.344,-28.809,-30.273,-20.020,-112.793
1692044561.249,-26.367,-23.438,-27.344,-22.461,159.668
1692044561.253,-25.879,-24.414,-30.273,-24.414,545.898
1692044561.241,-28.320,-24.414,-25.391,-32.715,292.480
1692044561.245,-27.832,-25.391,-20.996,-31.738,-180.664
1692044561.249,-27.832,-29.785,-25.391,-29.297,-165.039
1692044561.253,-18.066,-27.344,-28.320,-26.855,-163.574
1692044561.257,-11.230,-28.809,-28.809,-17.578,-202.148
1692044561.261,-18.555,-34.180,-26.855,-13.672,-50.293
1692044561.265,-19.531,-39.062,-18.555,-1.953,148.438
1692044561.268,-15.625,-37.109,-22.949,1.953,-18.066
1692044561.272,-17.578,-25.391,-30.273,-13.672,-199.707
1692044561.276,-26.855,-20.020,-30.273,-28.809,-154.297
1692044561.280,-41.016,-18.555,-30.273,-36.621,165.527
1692044561.284,-47.852,-18.066,-29.785,-37.109,45.898
1692044561.286,-41.016,-17.090,-29.297,-27.344,-223.633
1692044561.290,-36.621,-15.137,-31.738,-23.926,-139.160
1692044561.294,-30.762,-15.625,-30.762,-29.785,-1.953
1692044561.298,-28.320,-21.484,-34.668,-35.156,-72.266
1692044561.302,-33.691,-26.367,-37.109,-41.504,-174.316
1692044561.306,-43.457,-27.832,-29.785,-35.156,-7.324
1692044561.310,-42.480,-30.762,-26.367,-17.578,136.719
1692044561.313,-42.480,-34.668,-28.809,-15.625,-62.012
1692044561.317,-41.504,-34.180,-33.691,-22.949,-150.391
1692044561.321,-40.527,-30.273,-34.180,-31.250,-7.324
1692044561.325,-55.176,-37.109,-33.691,-40.527,62.012
1692044561.329,-46.875,-39.062,-37.109,-44.434,-17.090
1692044561.345,-32.227,-26.855,-37.109,-41.016,-94.727
1692044561.349,-40.039,-18.066,-35.156,-41.016,-9.277
1692044561.353,-46.387,-23.438,-40.039,-49.805,-4.883
1692044561.357,-46.387,-22.949,-35.645,-47.852,-132.812
1692044561.361,-33.691,-10.742,-34.668,-39.551,-126.953
1692044561.365,-28.809,-12.207,-40.527,-43.457,182.617
1692044561.369,-40.527,-21.973,-38.086,-49.805,261.230
1692044561.372,-33.691,-22.949,-38.086,-56.641,-157.715
1692044561.376,-37.109,-21.973,-39.062,-56.641,-185.547
1692044561.380,-35.645,-26.367,-36.133,-43.457,50.781
1692044561.384,-25.391,-30.762,-33.691,-36.133,-55.176
1692044561.388,-30.762,-28.809,-33.691,-42.480,-179.688
1692044561.405,-38.086,-23.926,-29.297,-40.527,-104.492
1692044561.409,-31.250,-21.484,-27.832,-34.180,-60.547
1692044561.413,-26.367,-21.484,-30.273,-22.461,-93.750
1692044561.417,-26.367,-27.344,-35.645,-23.438,-91.309
1692044561.421,-34.668,-32.715,-41.992,-36.621,-66.406
1692044561.425,-36.621,-30.762,-36.621,-33.203,21.484
1692044561.429,-30.762,-27.344,-31.250,-24.902,35.156
1692044561.432,-36.621,-25.879,-31.250,-23.438,-23.926
1692044561.436,-29.785,-28.320,-24.902,-21.484,99.121
1692044561.440,-27.344,-25.879,-23.438,-28.320,339.355
1692044561.444,-37.109,-24.414,-28.320,-42.480,70.312
1692044561.448,-39.551,-21.484,-29.297,-36.621,-111.328
1692044561.435,-36.621,-24.902,-29.785,-23.926,48.340
1692044561.439,-35.645,-29.297,-29.785,-25.879,4.395
1692044561.443,-32.715,-26.367,-29.297,-32.227,-168.945
1692044561.447,-41.016,-31.738,-31.250,-38.574,-188.477
1692044561.451,-41.016,-34.668,-29.785,-31.738,-92.285
1692044561.455,-29.785,-29.785,-32.227,-28.809,-24.414
1692044561.459,-3.418,-10.742,-43.945,-16.113,-77.148
1692044561.462,16.602,-8.789,-34.668,1.953,-23.438
1692044561.466,-26.367,-36.133,-13.184,-29.297,97.168
1692044561.470,-64.453,-44.922,-12.695,-61.035,-102.539
1692044561.474,-57.617,-40.039,-18.555,-58.594,-240.723
1692044561.478,-43.457,-37.598,-23.926,-54.199,-116.211
1692044561.481,-40.527,-37.109,-20.996,-44.434,249.023
1692044561.485,-54.688,-37.598,-10.254,-54.199,98.633
1692044561.489,-55.176,-41.016,-4.395,-59.570,-240.234
1692044561.493,-44.922,-42.480,-8.301,-44.922,-135.742
1692044561.497,-45.410,-46.875,-14.160,-47.852,146.484
1692044561.501,-40.039,-41.992,-11.230,-50.293,135.254
1692044561.505,-34.180,-38.086,-10.742,-47.852,10.254
1692044561.508,-41.992,-35.156,-14.648,-44.434,25.879
1692044561.512,-40.527,-25.879,-13.184,-34.180,189.453
1692044561.516,-35.645,-25.879,-13.672,-32.227,-47.363
1692044561.520,-33.691,-24.414,-13.184,-27.344,-134.277
1692044561.524,-19.043,-24.902,-13.672,-29.297,139.648
1692044561.526,-35.645,-29.785,-19.531,-45.898,182.129
1692044561.530,-45.410,-29.785,-20.996,-40.527,-183.594
1692044561.534,-25.391,-29.297,-19.043,-23.438,-204.102
1692044561.538,-22.949,-30.762,-19.531,-18.066,-63.965
1692044561.542,-24.414,-28.320,-21.973,-17.578,-166.016
1692044561.546,-33.691,-28.320,-24.414,-23.438,-178.223
1692044561.550,-39.551,-33.203,-26.367,-25.879,-26.367
1692044561.553,-44.922,-34.180,-24.414,-20.508,201.660
1692044561.557,-44.434,-31.738,-26.855,-14.648,137.695
1692044561.561,-38.574,-35.156,-30.273,-19.531,-156.250
1692044561.565,-44.922,-40.527,-33.203,-31.250,-170.898
1692044561.569,-43.457,-40.527,-39.062,-31.250,-82.031
1692044561.571,-35.645,-38.086,-42.480,-29.785,-106.934
1692044561.575,-31.738,-31.738,-39.551,-32.227,-110.352
1692044561.579,-30.762,-26.855,-36.621,-29.785,-49.316
1692044561.583,-36.133,-30.273,-35.156,-28.320,-28.320
1692044561.587,-34.668,-28.809,-32.227,-31.250,-166.016
1692044561.591,-25.879,-27.344,-30.762,-22.949,-179.199
1692044561.595,-28.809,-28.809,-31.738,-16.113,106.934
1692044561.598,-17.090,-20.508,-33.203,-14.160,384.766
1692044561.602,-7.812,-18.066,-38.086,-20.508,84.473
1692044561.606,-19.043,-18.066,-40.039,-28.320,-215.820
1692044561.610,-14.160,-18.066,-31.738,-21.973,-142.090
1692044561.614,-13.184,-22.949,-27.832,-10.742,-9.277
1692044561.615,-19.531,-25.879,-31.250,-7.324,-52.734
1692044561.619,-20.996,-27.344,-34.180,-16.113,-149.414
1692044561.623,-20.020,-25.879,-34.180,-22.461,33.691
1692044561.627,-27.344,-25.879,-33.691,-20.996,177.246
1692044561.631,-23.926,-27.832,-35.645,-17.578,-65.918
1692044561.635,-17.578,-25.879,-38.574,-21.484,-113.281
1692044561.639,-23.926,-23.438,-33.691,-20.508,296.387
1692044561.642,-36.621,-20.020,-27.832,-17.578,301.270
1692044561.646,-45.410,-20.996,-24.414,-15.137,-183.105
1692044561.650,-39.062,-25.391,-25.391,-13.672,-191.895
1692044561.654,-30.762,-26.855,-33.203,-16.113,-64.453
1692044561.658,-35.645,-28.320,-34.180,-20.508,-121.094
1692044561.660,-40.039,-29.297,-31.250,-21.484,-172.363
1692044561.664,-34.668,-28.809,-32.227,-18.555,-146.973
1692044561.668,-30.762,-30.273,-33.691,-14.648,-81.055
1692044561.672,-35.645,-32.715,-34.180,-13.672,-93.262
1692044561.676,-31.250,-29.785,-30.762,-20.020,-142.578
1692044561.680,-30.762,-28.809,-31.250,-34.180,16.113
1692044561.684,-36.621,-30.762,-30.273,-31.250,152.344
1692044561.687,-20.996,-29.785,-30.762,-13.184,-16.113
1692044561.691,-25.879,-27.832,-34.180,-28.320,-171.387
1692044561.695,-37.598,-28.320,-35.645,-28.809,-58.594
1692044561.699,-39.551,-34.180,-38.086,-17.578,219.727
1692044561.703,-45.898,-33.691,-39.551,-33.691,76.172
1692044561.721,-42.480,-37.598,-41.504,-44.434,-151.367
1692044561.725,-34.180,-38.574,-41.992,-33.203,-15.137
1692044561.729,-28.320,-33.691,-40.527,-36.133,38.086
1692044561.733,-25.391,-27.832,-35.156,-49.805,-180.664
1692044561.737,-26.367,-23.438,-29.785,-39.062,-154.785
1692044561.741,-16.113,-27.832,-30.762,-22.949,74.219
1692044561.745,-22.949,-31.738,-28.320,-18.555,43.457
1692044561.748,-36.133,-33.691,-30.273,-20.020,-130.371
1692044561.752,-21.973,-32.227,-28.809,-17.578,-81.055
1692044561.756,-20.020,-28.809,-25.879,-21.973,233.398
1692044561.760,-25.879,-29.785,-27.832,-18.555,172.852
1692044561.764,-25.879,-29.785,-34.180,-10.742,-109.863
1692044561.765,-27.832,-28.809,-32.715,-15.137,-136.230
1692044561.769,-30.762,-27.344,-28.320,-26.367,-144.043
1692044561.773,-32.227,-24.414,-28.320,-30.273,-161.621
1692044561.777,-26.367,-28.809,-28.320,-23.926,-129.395
1692044561.781,-18.066,-32.227,-30.762,-13.672,-89.844
1692044561.785,-20.020,-32.227,-23.926,-17.090,-5.859
1692044561.789,-23.926,-35.156,-27.344,-20.020,91.309
1692044561.792,-22.949,-32.227,-29.785,-19.043,-105.469
1692044561.796,-21.973,-26.855,-20.996,-20.020,-64.941
1692044561.800,-15.625,-26.855,-25.879,-11.230,225.586
1692044561.804,-19.043,-34.668,-33.203,-12.207,-20.508
1692044561.808,-42.480,-37.109,-35.645,-32.715,-131.348
1692044561.810,-37.109,-28.809,-34.180,-38.086,106.934
1692044561.814,-31.738,-31.738,-31.738,-36.621,166.016
1692044561.818,-35.645,-28.809,-29.297,-41.504,-138.672
1692044561.822,-26.367,-24.414,-29.785,-37.109,-176.758
1692044561.826,-10.742,-20.996,-25.879,-31.250,-83.496
1692044561.830,0.977,-13.672,-28.809,-37.109,-60.547
1692044561.834,0.488,-16.113,-31.738,-38.574,-36.621
1692044561.837,-2.441,-18.555,-29.297,-27.344,-37.109
1692044561.841,0.977,-19.531,-34.180,-20.996,160.645
1692044561.845,-9.277,-24.414,-40.527,-29.785,79.102
1692044561.849,-9.277,-22.461,-37.598,-27.832,-170.410
1692044561.853,-4.395,-17.090,-28.809,-14.160,-166.016
1692044561.856,-7.324,-22.949,-24.414,-14.160,-146.484
1692044561.860,-2.930,-25.391,-27.832,-15.625,-50.781
1692044561.864,-5.859,-23.438,-29.785,-21.973,-104.004
1692044561.868,-17.578,-24.414,-25.879,-22.461,-209.473
1692044561.872,-19.531,-21.484,-24.902,-18.555,-74.219
1692044561.876,-11.230,-19.043,-23.438,-10.254,42.969
1692044561.880,-9.277,-17.090,-20.508,-5.371,-13.184
1692044561.883,-18.555,-16.113,-25.391,-1.465,-45.410
1692044561.887,-27.344,-24.414,-25.879,-7.812,196.777
1692044561.891,-36.133,-27.832,-23.438,-24.902,-39.062
1692044561.895,-30.273,-23.926,-27.832,-26.367,-234.375
1692044561.899,-15.625,-21.973,-24.902,-17.090,32.715
1692044561.901,-7.812,-22.949,-23.438,-22.461,53.223
1692044561.905,-9.277,-22.461,-29.297,-30.762,-119.141
1692044561.909,-22.949,-21.484,-30.273,-34.668,-95.215
1692044561.913,-23.926,-27.344,-21.973,-23.438,40.039
1692044561.917,-21.973,-34.180,-20.996,-22.949,27.344
1692044561.921,-26.367,-33.203,-26.855,-35.156,-5.859
1692044561.925,-28.320,-25.879,-29.785,-41.992,-13.672
1692044561.928,-31.738,-20.508,-28.809,-42.480,189.941
1692044561.932,-32.227,-24.414,-30.273,-33.203,237.793
1692044561.936,-30.762,-29.297,-34.180,-29.785,-95.215
1692044561.940,-31.738,-26.367,-31.738,-34.668,-126.465
1692044561.944,-30.762,-26.367,-30.762,-39.062,-1.953
1692044561.945,-31.250,-32.227,-33.203,-44.922,-115.234
1692044561.949,-30.762,-31.250,-29.785,-30.273,-214.844
1692044561.953,-23.926,-20.508,-33.203,-3.418,-124.023
1692044561.957,6.348,-17.090,-37.109,9.277,-91.309
1692044561.961,-13.184,-31.250,-26.855,-16.602,-141.113
1692044561.965,-46.387,-41.504,-27.344,-30.762,-102.051
1692044561.969,-36.621,-45.410,-24.414,3.418,65.918
1692044561.972,-11.230,-40.527,-21.484,33.203,419.922
1692044561.976,4.883,-34.180,-23.926,31.738,124.512
1692044561.980,-14.648,-43.457,-26.367,5.371,-220.215
1692044561.984,-11.719,-45.898,-29.785,5.371,-83.984
1692044561.988,14.160,-31.250,-32.715,23.438,15.625
1692044561.990,23.438,-23.438,-31.250,26.855,-96.680
1692044561.994,34.180,-24.414,-20.996,42.969,-167.969
1692044561.998,19.043,-30.273,-17.578,34.668,60.547
1692044562.002,8.301,-30.762,-25.391,19.531,45.898
1692044562.006,19.043,-27.832,-31.250,19.531,-151.367
1692044562.010,4.883,-28.809,-29.785,22.949,-23.926
1692044562.014,-3.906,-24.414,-29.785,20.996,240.234
1692044562.017,-15.137,-25.879,-35.156,8.789,179.688
1692044562.021,-11.230,-29.297,-30.273,6.348,-88.867
1692044562.025,-2.441,-31.250,-22.949,4.395,-90.820
1692044562.029,5.371,-34.180,-20.996,4.395,49.805
1692044562.033,0.000,-32.715,-21.973,6.836,-69.824
1692044562.035,-2.930,-30.762,-21.484,9.277,-208.008
1692044562.039,-0.488,-27.344,-20.508,-0.488,-129.395
1692044562.043,-3.906,-21.973,-22.461,-7.812,-83.496
1692044562.047,5.371,-28.320,-25.391,-5.859,-134.766
1692044562.051,-4.883,-31.250,-22.461,0.000,-188.965
1692044562.055,-17.090,-27.832,-20.996,1.953,0.000
1692044562.059,-27.344,-27.832,-19.043,4.883,230.957
1692044562.062,-26.367,-31.738,-23.438,4.395,-21.973
1692044562.066,-11.230,-33.691,-29.297,6.348,-166.992
1692044562.070,-10.254,-25.391,-27.832,5.859,-2.441
1692044562.074,-8.789,-20.996,-24.902,-0.488,124.023
1692044562.078,-22.949,-24.414,-23.926,-11.230,74.219
1692044562.110,-10.742,-26.367,-23.926,-8.301,-69.336
1692044562.114,1.465,-28.809,-28.809,10.742,57.129
1692044562.118,-15.137,-37.109,-36.621,11.719,220.703
1692044562.122,-25.879,-36.133,-32.227,-16.113,-99.121
1692044562.126,-30.273,-27.832,-26.855,-16.602,-124.512
1692044562.130,-31.250,-25.879,-22.461,0.488,123.535
1692044562.134,-27.832,-27.832,-24.902,6.836,54.199
1692044562.137,-21.484,-32.715,-29.297,4.395,-78.125
1692044562.141,-26.367,-33.691,-25.879,-1.953,-98.145
1692044562.145,-37.598,-31.250,-28.320,-8.301,131.348
1692044562.149,-39.062,-32.227,-29.297,-25.879,53.711
1692044562.153,-44.434,-32.227,-22.461,-34.668,-165.527
1692044562.141,-41.992,-24.902,-21.973,-19.531,-119.141
1692044562.145,-27.344,-20.020,-22.461,-7.812,11.230
1692044562.149,-24.414,-23.438,-24.414,-14.160,-25.879
1692044562.153,-32.227,-26.367,-31.250,-30.762,-193.359
1692044562.157,-39.062,-31.738,-31.738,-26.855,-86.914
1692044562.161,-29.297,-33.691,-29.785,-11.230,121.094
1692044562.165,-14.648,-25.391,-26.855,-13.184,-13.184
1692044562.168,-11.719,-15.137,-22.949,-19.043,-168.457
1692044562.172,-18.066,-19.043,-20.508,-18.555,-92.773
1692044562.176,-18.066,-18.066,-22.949,-15.625,-20.508
1692044562.180,-13.672,-16.602,-23.438,-4.883,-17.090
1692044562.184,-15.137,-23.926,-21.484,-4.883,-14.160
1692044562.185,-24.414,-24.414,-26.855,-16.602,102.539
1692044562.189,-38.086,-17.578,-25.391,-20.996,408.203
1692044562.193,-42.480,-18.555,-21.973,-27.344,35.645
1692044562.197,-41.992,-21.484,-26.367,-33.203,-234.375
1692044562.201,-46.875,-7.324,-25.391,-28.320,27.832
1692044562.205,-38.574,-6.348,-20.020,-28.320,-4.395
1692044562.209,-41.504,-17.578,-28.320,-28.809,-50.781
1692044562.212,-44.922,-22.461,-24.902,-27.832,-131.348
1692044562.216,-49.805,-29.785,-16.602,-43.945,105.957
1692044562.220,-64.941,-26.855,-28.809,-59.082,175.781
1692044562.224,-56.152,-19.531,-36.133,-58.105,-151.367
1692044562.228,-75.195,-36.133,-26.855,-64.453,-188.477
1692044562.230,-83.496,-42.969,-28.809,-56.641,-166.016
1692044562.234,-65.918,-33.691,-29.785,-52.734,-160.645
1692044562.238,-64.453,-26.367,-30.762,-62.500,-172.363
1692044562.242,-57.129,-23.438,-34.668,-77.148,-169.922
1692044562.246,-54.199,-21.973,-40.039,-75.195,-143.555
1692044562.250,-48.340,-23.926,-42.969,-62.500,-88.867
1692044562.254,-40.039,-26.367,-41.016,-48.340,-99.121
1692044562.257,-32.227,-27.344,-41.504,-33.203,-20.020
1692044562.261,-28.809,-31.250,-39.551,-26.367,323.730
1692044562.265,-31.250,-27.344,-41.016,-29.297,70.312
1692044562.269,-34.668,-21.973,-34.180,-33.691,-166.992
1692044562.273,-18.555,-25.879,-20.996,-15.625,45.898
1692044562.275,-10.254,-26.855,-24.902,-3.906,61.035
1692044562.279,-11.719,-26.855,-27.832,-18.066,-142.578
1692044562.283,-15.625,-24.414,-22.949,-28.320,-220.215
1692044562.287,-22.949,-31.250,-24.902,-36.621,-101.562
1692044562.291,-19.531,-32.227,-27.832,-25.879,-109.863
1692044562.295,-17.578,-23.438,-27.344,-11.230,-111.816
1692044562.299,-19.043,-28.809,-23.926,-17.578,0.977
1692044562.302,-24.902,-28.320,-28.320,-23.438,92.773
1692044562.306,-34.180,-30.762,-35.645,-29.785,-58.594
1692044562.310,-42.480,-37.598,-33.203,-33.691,-171.387
1692044562.314,-40.527,-37.109,-25.879,-25.879,-100.586
1692044562.318,-27.344,-32.715,-22.461,-9.766,166.016
1692044562.320,-35.156,-25.391,-22.949,-22.461,78.613
1692044562.324,-43.945,-28.320,-29.785,-36.133,-196.777
1692044562.328,-36.133,-34.180,-35.156,-33.691,-111.816
1692044562.332,-39.551,-30.762,-36.133,-26.855,-63.477
1692044562.336,-37.109,-29.785,-30.762,-20.020,-125.000
1692044562.340,-27.344,-34.180,-30.273,-23.926,-140.625
1692044562.344,-30.273,-27.344,-30.273,-27.344,-7.324
1692044562.347,-36.621,-29.785,-26.855,-23.926,234.375
1692044562.351,-32.227,-37.109,-29.785,-24.902,0.977
1692044562.355,-28.809,-27.832,-29.785,-20.508,-174.316
1692044562.359,-36.133,-21.484,-29.785,-18.555,-1.953
1692044562.363,-37.598,-25.391,-36.133,-27.344,61.523
1692044562.366,-39.551,-30.762,-38.086,-34.180,-34.668
1692044562.370,-30.273,-29.785,-39.551,-26.855,-156.250
1692044562.374,-18.066,-25.391,-34.180,-13.184,38.086
1692044562.378,-17.090,-29.297,-31.250,-17.090,160.645
1692044562.382,-21.973,-28.320,-30.273,-29.785,-161.133
1692044562.386,-27.344,-20.020,-26.855,-20.020,-180.176
1692044562.390,-14.160,-17.578,-28.320,2.930,166.016
1692044562.393,-9.277,-23.438,-32.715,-1.465,118.652
1692044562.397,-19.043,-23.438,-33.691,-15.625,-201.172
1692044562.401,-31.738,-23.926,-30.273,-25.391,-198.242
1692044562.405,-41.504,-21.484,-37.109,-31.738,-138.672
1692044562.409,-31.738,-21.973,-41.992,-22.949,-122.559
1692044562.411,-17.578,-21.973,-32.227,-16.602,-122.559
1692044562.415,-13.184,-24.414,-32.227,-26.855,-72.754
1692044562.419,-23.438,-28.809,-35.645,-38.574,82.031
1692044562.423,-34.668,-27.344,-36.133,-39.062,-48.340
1692044562.427,-33.691,-37.598,-33.691,-35.156,-177.734
1692044562.431,-28.809,-42.969,-31.738,-25.879,76.172
1692044562.435,-30.273,-36.133,-31.738,-20.020,491.211
1692044562.438,-35.645,-32.715,-30.762,-25.391,162.109
1692044562.442,-34.668,-33.691,-28.320,-34.668,-231.445
1692044562.446,-29.297,-28.809,-27.832,-26.855,-156.738
1692044562.450,-20.020,-25.879,-30.762,-13.672,-112.305
1692044562.454,-20.996,-31.738,-32.227,-21.484,-101.562
1692044562.470,-31.738,-29.297,-29.785,-28.320,-151.855
1692044562.474,-24.414,-24.414,-21.973,-19.531,-24.414
1692044562.478,-22.461,-25.879,-27.344,-13.672,135.254
1692044562.482,-23.926,-25.391,-32.227,-8.789,-84.473
1692044562.486,-22.949,-25.879,-34.180,-14.648,-158.691
1692044562.490,-36.133,-27.344,-38.086,-24.902,142.090
1692044562.494,-33.203,-33.691,-33.691,-19.043,125.000
1692044562.497,-6.348,-40.039,-32.227,10.254,-154.297
1692044562.501,-16.602,-26.855,-38.086,-3.418,-117.676
1692044562.505,-52.734,-18.066,-39.551,-46.875,142.578
1692044562.509,-47.852,-30.273,-37.109,-64.453,17.578
1692044562.513,-41.016,-26.855,-38.574,-66.406,-217.773
1692044562.515,-45.898,-17.090,-36.621,-61.035,-157.227
1692044562.519,-42.969,-16.602,-38.574,-57.129,-56.152
1692044562.523,-41.992,-15.625,-42.969,-66.406,-65.918
1692044562.527,-56.152,-17.578,-48.340,-81.055,-129.395
1692044562.531,-56.641,-26.367,-54.688,-80.566,-144.043
1692044562.535,-46.875,-33.203,-48.340,-64.941,8.301
1692044562.539,-36.133,-33.203,-41.016,-56.641,63.477
1692044562.542,-20.996,-30.273,-40.039,-49.316,-19.043
1692044562.546,-24.414,-26.855,-31.738,-34.180,23.438
1692044562.550,-25.879,-26.367,-31.250,-20.020,276.367
1692044562.554,-29.297,-30.273,-34.668,-25.391,91.309
1692044562.558,-27.832,-26.367,-34.668,-17.578,-60.547
1692044562.560,-17.578,-25.391,-34.668,-15.137,69.824
1692044562.564,-19.043,-33.203,-35.156,-7.812,33.691
1692044562.568,-24.414,-30.762,-37.109,-8.789,-195.312
1692044562.572,-15.137,-27.832,-32.227,-13.184,-201.660
1692044562.576,-6.348,-24.902,-28.809,-2.930,-42.480
1692044562.580,-11.719,-24.414,-32.715,-4.883,61.035
1692044562.584,-11.230,-27.832,-32.715,-7.324,31.250
1692044562.587,-13.184,-29.297,-27.344,-13.672,-105.957
1692044562.591,-13.672,-24.902,-26.367,-3.418,91.309
1692044562.595,-13.184,-27.832,-35.645,0.977,104.004
1692044562.599,-9.766,-34.668,-36.621,-3.906,-193.359
1692044562.603,-9.277,-29.785,-32.227,-5.371,-171.875
1692044562.605,-20.508,-28.809,-29.785,-13.672,-7.812
1692044562.609,-33.691,-31.738,-30.273,-18.555,-131.836
1692044562.613,-33.203,-27.344,-31.738,-17.090,-171.875
1692044562.617,-26.367,-25.879,-28.320,-12.695,-84.473
1692044562.621,-16.602,-24.414,-23.438,-27.832,-53.711
1692044562.625,-7.812,-23.926,-27.344,-41.992,44.922
1692044562.629,-20.508,-25.391,-29.785,-48.340,33.691
1692044562.632,-34.668,-28.320,-26.855,-41.016,-16.113
1692044562.636,-33.691,-30.273,-28.809,-29.785,267.578
1692044562.640,-29.297,-29.297,-32.227,-38.574,60.547
1692044562.644,-37.109,-38.086,-35.156,-45.410,-222.168
1692044562.648,-36.621,-39.551,-35.645,-41.016,-15.137
1692044562.650,-32.715,-31.250,-33.203,-33.691,139.648
1692044562.654,-32.227,-28.320,-34.668,-35.156,-82.031
1692044562.658,-28.320,-26.367,-35.645,-28.809,-187.988
1692044562.662,-33.691,-29.785,-33.203,-19.531,-27.832
1692044562.666,-45.410,-33.691,-32.227,-26.855,-104.492
1692044562.670,-39.551,-33.691,-31.250,-28.320,-111.328
1692044562.674,-25.391,-29.297,-29.785,-18.066,69.824
1692044562.677,-22.461,-20.508,-29.297,-8.789,209.473
1692044562.681,-24.902,-20.020,-33.203,-13.672,158.203
1692044562.685,-33.203,-20.996,-36.621,-26.855,-134.277
1692044562.689,-36.133,-24.902,-33.691,-36.621,-193.848
1692044562.693,-23.926,-21.973,-29.785,-31.250,-131.836
1692044562.696,10.742,-8.301,-42.969,-5.859,-127.930
1692044562.700,11.230,-14.160,-31.738,6.348,-170.410
1692044562.704,-39.062,-29.785,-7.812,-22.461,-49.805
1692044562.708,-60.059,-34.180,-15.137,-43.457,76.172
1692044562.712,-43.945,-38.574,-26.367,-27.832,-105.469
1692044562.716,-27.832,-38.086,-21.973,-19.531,-85.449
1692044562.720,-34.180,-42.969,-23.438,-37.109,123.535
1692044562.723,-41.992,-45.898,-22.461,-35.156,156.250
1692044562.727,-36.621,-42.480,-21.484,-31.250,-92.285
1692044562.731,-26.367,-44.434,-32.227,-28.320,-241.699
1692044562.735,-16.113,-49.805,-28.320,-22.949,-112.305
1692044562.739,-13.184,-43.457,-14.648,-30.762,108.398
1692044562.741,-22.461,-39.551,-9.766,-26.855,-38.574
1692044562.745,-21.973,-42.480,-16.602,-5.859,-220.215
1692044562.749,-25.391,-40.527,-17.090,-4.395,-41.016
1692044562.753,-41.992,-41.016,-17.578,-19.043,-18.066
1692044562.757,-29.785,-38.086,-15.625,-13.672,-160.645
1692044562.761,-21.973,-35.156,-18.555,-8.789,-83.008
1692044562.765,-28.809,-33.203,-17.578,-3.906,203.125
1692044562.768,-20.996,-32.227,-18.066,7.324,170.898
1692044562.772,-11.719,-30.762,-16.113,5.371,-189.453
1692044562.776,-16.602,-32.227,-18.066,-3.418,-158.203
1692044562.780,-26.367,-29.785,-25.391,-4.395,-4.395
1692044562.784,-35.156,-28.320,-28.320,-13.184,-169.922
1692044562.785,-38.574,-34.668,-20.508,-22.949,-235.352
1692044562.789,-35.156,-32.715,-19.043,-17.090,-134.277
1692044562.793,-27.832,-27.832,-32.715,-9.766,-85.938
1692044562.797,-23.926,-31.250,-26.855,-22.461,-110.840
1692044562.801,-23.926,-32.227,-27.344,-30.762,-166.504
1692044562.805,-20.020,-30.762,-35.156,-20.996,18.066
1692044562.809,-23.926,-30.273,-40.527,-9.766,178.223
1692044562.812,-27.832,-29.297,-34.668,-18.555,25.879
1692044562.816,-23.926,-30.762,-30.273,-26.855,-113.770
1692044562.820,-27.344,-24.902,-32.227,-29.785,-76.660
1692044562.824,-31.738,-17.090,-27.832,-26.855,97.656
1692044562.828,-17.578,-14.648,-30.762,-12.207,7.812
1692044562.845,-8.301,-14.648,-32.227,-4.883,-127.930
1692044562.849,-14.648,-18.555,-27.832,-12.207,-21.973
1692044562.853,-20.020,-22.949,-30.273,-21.484,28.320
1692044562.857,-29.297,-23.438,-30.762,-20.996,-173.340
1692044562.861,-28.320,-20.996,-29.297,-13.184,-122.559
1692044562.865,-23.926,-21.484,-27.832,-8.789,117.188
1692044562.869,-28.320,-22.461,-21.484,-16.602,34.668
1692044562.872,-30.273,-24.902,-26.855,-29.297,-160.156
1692044562.876,-29.785,-20.996,-31.738,-25.391,-193.848
1692044562.880,-28.320,-20.508,-33.203,-18.555,187.500
1692044562.884,-26.855,-22.461,-31.738,-14.160,206.055
1692044562.888,-29.297,-23.438,-28.809,-17.578,-187.500
1692044562.890,-30.273,-27.832,-29.785,-27.344,-143.066
1692044562.894,-20.508,-25.391,-29.297,-25.391,23.438
1692044562.898,-9.277,-23.926,-30.762,-17.090,-74.707
1692044562.902,-9.766,-25.879,-25.879,-8.301,-155.273
1692044562.906,-18.555,-27.832,-22.949,-15.137,-89.355
1692044562.910,-34.180,-32.227,-24.414,-27.344,0.977
1692044562.914,-34.180,-38.086,-28.320,-32.227,-50.781
1692044562.917,-21.484,-32.715,-34.668,-29.297,-182.617
1692044562.921,-27.344,-28.320,-34.668,-17.090,-35.645
1692044562.925,-32.715,-31.738,-35.156,-20.996,293.457
1692044562.929,-33.691,-26.367,-39.062,-35.156,40.527
1692044562.933,-37.598,-24.902,-38.086,-35.156,-163.574
1692044562.935,-29.785,-27.832,-38.574,-28.809,136.719
1692044562.939,-20.020,-23.926,-40.039,-30.762,260.742
1692044562.943,-25.391,-21.973,-41.016,-37.109,-83.496
1692044562.947,-32.715,-23.438,-38.574,-46.875,-218.750
1692044562.951,-42.480,-28.320,-36.621,-56.152,-131.348
1692044562.955,-40.527,-24.902,-37.598,-33.203,-82.520
1692044562.959,-27.832,-22.949,-35.645,-22.461,21.484
1692044562.962,-25.391,-20.996,-36.133,-31.250,-13.672
1692044562.966,-26.367,-16.602,-37.109,-26.367,135.742
1692044562.970,-24.414,-20.020,-36.133,-25.879,84.473
1692044562.974,-23.438,-16.113,-34.180,-22.949,-200.195
1692044562.978,-16.602,-15.625,-40.039,-12.207,-148.438
1692044562.980,-6.348,-17.090,-39.062,-9.277,-64.941
1692044562.984,-14.160,-13.672,-27.832,-17.578,-148.438
1692044562.988,-22.461,-18.555,-23.926,-20.508,-124.512
1692044562.992,-20.020,-20.508,-25.391,-12.695,66.406
1692044562.996,-12.207,-16.113,-38.574,-3.418,85.449
1692044563.000,-0.488,-19.531,-35.645,2.441,20.020
1692044563.004,-20.508,-28.809,-11.719,-13.672,-75.684
1692044563.007,-47.363,-34.180,-8.789,-32.227,-50.293
1692044563.011,-39.551,-29.297,-14.648,-19.531,237.793
1692044563.015,-20.996,-26.367,-16.113,0.977,58.594
1692044563.019,-10.254,-29.297,-8.301,15.137,-118.164
1692044563.023,-14.160,-34.180,-9.766,8.789,112.793
1692044563.025,-28.809,-38.574,-23.926,-6.348,126.953
1692044563.029,-26.367,-35.645,-23.926,-5.859,-118.652
1692044563.033,-15.625,-33.203,-21.973,3.418,-149.414
1692044563.037,-18.555,-33.203,-25.391,-9.277,-58.594
1692044563.041,-26.367,-34.180,-27.832,-29.297,-82.520
1692044563.045,-29.297,-31.738,-28.320,-31.738,-94.238
1692044563.049,-35.645,-32.227,-27.832,-28.809,-68.848
1692044563.052,-28.809,-35.156,-23.926,-11.719,216.797
1692044563.056,-26.367,-41.504,-25.391,-8.301,444.336
1692044563.060,-30.762,-42.480,-30.273,-26.855,-16.602
1692044563.064,-43.457,-37.109,-36.133,-41.016,-243.652
1692044563.068,-51.758,-35.645,-35.645,-40.527,-153.809
1692044563.070,-34.180,-35.645,-27.344,-24.414,-166.504
1692044563.074,-22.949,-32.227,-24.902,-16.113,-149.902
1692044563.078,-23.438,-26.367,-26.855,-21.973,-95.215
1692044563.082,-22.949,-28.320,-33.691,-32.227,-106.934
1692044563.086,-30.273,-35.645,-37.109,-38.086,-109.863
1692044563.090,-33.203,-31.738,-34.180,-32.227,17.090
1692044563.094,-26.855,-28.809,-30.273,-23.438,176.270
1692044563.097,-25.879,-35.156,-27.832,-18.066,419.922
1692044563.101,-35.645,-34.668,-27.832,-25.879,97.168
1692044563.105,-46.387,-31.738,-30.762,-35.645,-283.691
1692044563.109,-46.875,-34.668,-32.715,-36.621,-71.289
1692044563.113,-41.504,-36.133,-29.785,-34.180,56.152
1692044563.115,-43.457,-33.691,-28.320,-46.387,-121.582
1692044563.119,-39.551,-33.203,-28.809,-52.734,-220.215
1692044563.123,-35.156,-28.320,-28.320,-41.504,-15.137
1692044563.127,-33.691,-21.973,-30.273,-38.086,133.789
1692044563.131,-29.297,-25.391,-33.203,-35.645,-175.293
1692044563.135,-19.531,-26.367,-35.645,-32.227,-176.270
1692044563.139,-26.367,-24.414,-33.203,-36.621,229.004
1692044563.142,-31.250,-28.809,-28.320,-36.621,168.945
1692044563.146,-21.973,-25.879,-31.738,-25.391,-228.516
1692044563.150,-19.043,-25.879,-30.762,-21.484,-216.309
1692044563.154,-25.391,-31.738,-24.414,-23.926,-43.457
1692044563.158,-39.551,-31.250,-23.438,-28.809,-122.559
1692044563.177,-52.734,-31.250,-26.367,-35.645,-252.930
1692044563.181,-42.969,-33.691,-22.461,-33.203,-137.695
1692044563.185,-26.855,-25.879,-20.996,-25.879,20.020
1692044563.189,-29.297,-23.926,-26.367,-31.250,-136.230
1692044563.193,-39.062,-27.832,-27.832,-36.621,-256.836
1692044563.197,-51.758,-26.855,-28.809,-41.992,-76.660
1692044563.201,-52.246,-23.926,-27.832,-36.621,86.426
1692044563.204,-44.434,-23.926,-28.320,-32.227,-24.902
1692044563.208,-37.598,-29.297,-30.273,-37.109,-109.863
1692044563.212,-33.203,-26.855,-28.809,-36.621,-23.438
1692044563.216,-40.527,-24.414,-25.391,-41.504,79.102
1692044563.220,-44.922,-30.762,-26.855,-45.410,-40.527
1692044563.220,-30.273,-32.715,-30.762,-33.691,-105.469
1692044563.224,-30.273,-33.691,-31.250,-31.250,114.746
1692044563.228,-41.992,-40.039,-32.715,-44.922,99.121
1692044563.232,-42.480,-37.109,-34.668,-50.293,-196.289
1692044563.236,-35.156,-28.809,-30.273,-42.969,-217.285
1692044563.240,-27.344,-29.297,-24.414,-27.344,105.469
1692044563.244,-29.785,-29.785,-20.996,-19.531,148.438
1692044563.247,-37.109,-31.738,-20.508,-27.832,-19.531
1692044563.251,-33.203,-30.273,-23.438,-39.551,-89.844
1692044563.255,-27.344,-29.297,-25.879,-28.809,172.852
1692044563.259,-26.367,-29.297,-27.832,-19.043,305.664
1692044563.263,-26.855,-28.320,-27.832,-31.738,-86.426
1692044563.265,-18.066,-23.926,-27.832,-22.461,-185.059
1692044563.269,-23.438,-26.367,-29.297,-22.949,-147.461
1692044563.273,-40.527,-30.273,-29.785,-34.180,-166.504
1692044563.277,-44.434,-29.297,-29.785,-32.715,-138.672
1692044563.281,-41.504,-29.297,-27.344,-32.715,-53.223
1692044563.285,-33.691,-26.855,-25.879,-32.715,120.605
1692044563.289,-37.109,-23.926,-27.832,-40.527,58.105
1692044563.292,-41.992,-28.320,-34.180,-41.504,-191.895
1692044563.296,-41.992,-31.738,-33.691,-36.133,-165.527
1692044563.300,-35.645,-33.203,-31.738,-28.320,155.273
1692044563.304,-32.227,-33.691,-36.133,-23.926,-22.461
1692044563.308,-37.598,-29.785,-34.180,-33.203,-182.617
1692044563.310,-35.645,-29.297,-32.715,-44.922,-81.055
1692044563.314,-26.367,-32.227,-37.598,-35.156,-61.523
1692044563.318,-22.461,-30.273,-33.203,-20.020,-169.434
1692044563.322,-25.879,-24.414,-31.738,-29.297,-174.805
1692044563.326,-28.809,-25.391,-35.156,-34.180,-83.008
1692044563.330,-17.578,-35.645,-35.156,-22.949,-61.035
1692044563.334,-25.879,-30.762,-43.945,-28.809,-51.758
1692044563.337,-40.527,-21.484,-51.270,-46.387,-47.852
1692044563.341,-24.902,-23.438,-41.992,-38.086,230.957
1692044563.345,-22.949,-32.227,-36.133,-30.273,276.367
1692044563.349,-33.203,-36.133,-41.992,-39.551,-172.363
1692044563.353,-30.762,-32.715,-42.969,-39.062,-197.754
1692044563.355,-24.414,-33.203,-36.133,-30.762,-59.570
1692044563.359,-17.090,-27.832,-33.691,-15.625,-110.840
1692044563.363,-7.812,-25.879,-31.738,-5.371,-133.301
1692044563.367,-4.883,-23.926,-25.879,-14.160,-155.762
1692044563.371,-7.812,-20.020,-29.785,-27.832,-145.020
1692044563.375,-6.836,-17.578,-35.645,-21.484,-32.715
1692044563.379,-4.883,-16.113,-32.227,-5.859,-12.207
1692044563.382,-16.602,-22.461,-31.250,-9.766,-22.949
1692044563.386,-24.902,-26.855,-31.738,-20.508,284.180
1692044563.390,-24.902,-27.344,-34.668,-21.973,100.098
1692044563.394,-21.973,-25.391,-35.645,-13.672,-153.320
1692044563.398,-14.648,-20.020,-28.809,-7.324,70.801
1692044563.400,-16.113,-23.926,-24.414,-11.719,41.504
1692044563.404,-29.297,-29.785,-23.926,-18.555,-160.645
1692044563.408,-32.715,-26.855,-25.879,-19.531,-187.988
1692044563.412,-22.949,-27.344,-30.762,-12.695,-82.031
1692044563.416,-19.043,-32.715,-31.250,-10.254,4.395
1692044563.420,-23.926,-30.273,-29.297,-18.066,76.172
1692044563.424,-18.555,-26.367,-25.879,-17.578,91.797
1692044563.427,-16.113,-27.832,-25.391,-16.602,254.395
1692044563.431,-14.648,-25.391,-31.250,-18.066,182.617
1692044563.435,-11.719,-22.461,-29.785,-14.648,-119.141
1692044563.439,-18.066,-27.832,-29.297,-16.113,-65.918
1692044563.443,-32.715,-33.203,-32.227,-24.414,60.059
1692044563.445,-35.645,-32.227,-32.715,-21.973,-60.547
1692044563.449,-39.551,-29.297,-36.133,-18.066,-118.164
1692044563.453,-38.086,-33.691,-35.156,-24.902,-51.758
1692044563.457,-30.273,-32.715,-30.762,-24.902,-16.113
1692044563.461,-34.668,-25.879,-28.320,-30.762,-83.984
1692044563.465,-40.039,-30.273,-27.344,-42.969,-127.441
1692044563.469,-38.574,-32.227,-27.832,-39.062,85.449
1692044563.472,-33.691,-31.738,-31.250,-30.762,372.559
1692044563.476,-28.809,-33.691,-33.203,-31.250,57.617
1692044563.480,-25.391,-32.715,-32.715,-29.297,-180.664
1692044563.484,-25.391,-32.227,-29.297,-33.691,-79.102
1692044563.488,-27.344,-30.762,-24.902,-32.227,-46.875
1692044563.491,-16.113,-25.879,-23.926,-16.602,-82.520
1692044563.495,-13.184,-26.367,-23.438,-9.766,-16.602
1692044563.499,-25.391,-30.762,-24.902,-22.949,149.902
1692044563.503,-29.297,-27.832,-24.902,-24.902,200.684
1692044563.507,-30.273,-24.414,-29.297,-18.066,-78.613
1692044563.511,-20.996,-28.320,-34.668,-16.113,-7.324
1692044563.515,-13.672,-29.785,-30.762,-8.301,350.098
1692044563.518,-17.578,-27.344,-32.227,-12.695,254.395
1692044563.522,-18.066,-20.508,-27.832,-24.414,-108.398
1692044563.526,-3.418,-14.648,-28.320,-10.742,-121.094
1692044563.530,2.441,-18.555,-33.691,-0.977,-25.391
1692044563.534,-11.719,-28.809,-19.531,-10.254,-46.875
1692044563.550,-31.738,-29.297,-16.602,-15.625,-108.398
1692044563.554,-30.273,-27.344,-23.926,-16.113,-89.355
1692044563.558,-24.414,-29.785,-28.809,-8.789,-24.902
1692044563.562,-22.949,-29.297,-29.785,-6.348,49.805
1692044563.566,-19.531,-34.180,-31.250,-20.508,40.527
1692044563.570,-23.926,-38.086,-36.133,-27.344,131.348
1692044563.574,-36.133,-32.715,-35.156,-23.926,478.516
1692044563.577,-41.992,-32.227,-34.180,-27.832,212.402
1692044563.581,-38.574,-30.762,-37.598,-41.504,-154.785
1692044563.585,-34.180,-24.902,-34.668,-38.086,-98.145
1692044563.589,-25.879,-20.508,-31.250,-35.156,-63.965
1692044563.593,-26.367,-21.484,-35.156,-40.527,-79.590
1692044563.595,-33.691,-22.461,-38.086,-38.574,-144.043
1692044563.599,-42.969,-25.879,-43.945,-32.227,-49.805
1692044563.603,-36.133,-29.785,-44.922,-29.297,22.949
1692044563.607,-37.109,-27.344,-35.156,-31.738,-167.969
1692044563.611,-41.504,-28.320,-33.203,-37.598,-218.262
1692044563.615,-35.156,-24.902,-32.715,-40.039,0.977
1692044563.619,-39.062,-26.855,-29.785,-38.574,-16.113
1692044563.622,-38.574,-29.297,-23.438,-29.785,-90.820
1692044563.626,-34.180,-23.438,-22.461,-35.645,-133.301
1692044563.630,-35.645,-25.391,-24.902,-44.434,114.746
1692044563.634,-42.480,-26.855,-26.855,-46.875,204.590
1692044563.638,-44.434,-25.391,-33.691,-51.758,-170.898
1692044563.640,-34.668,-27.832,-36.621,-47.363,-201.172
1692044563.644,-35.645,-25.879,-35.156,-52.734,-110.352
1692044563.648,-35.156,-30.273,-33.203,-59.570,-206.543
1692044563.652,-41.016,-35.156,-34.180,-54.199,-246.582
1692044563.656,-42.969,-33.203,-29.297,-45.410,-166.992
1692044563.660,-41.504,-33.203,-22.949,-37.109,-30.762
1692044563.664,-43.457,-34.668,-27.344,-40.527,-64.453
1692044563.667,-46.875,-36.133,-36.133,-46.875,-280.273
1692044563.671,-50.293,-28.320,-34.180,-38.086,-149.414
1692044563.675,-46.875,-23.438,-34.180,-32.227,287.109
1692044563.679,-41.992,-28.320,-38.574,-46.387,60.547
1692044563.683,-30.273,-24.414,-36.621,-39.062,-171.875
1692044563.685,-33.203,-20.508,-37.109,-38.086,-68.848
1692044563.689,-30.762,-20.508,-31.738,-40.039,-113.281
1692044563.693,-25.391,-26.367,-30.762,-29.297,-216.797
1692044563.697,-21.484,-28.320,-39.062,-31.250,-208.008
1692044563.701,-18.555,-25.391,-41.992,-26.367,-118.164
1692044563.705,-28.809,-28.320,-37.109,-32.715,-86.914
1692044563.709,-48.828,-27.832,-35.645,-59.570,-128.418
1692044563.712,-57.617,-25.391,-39.062,-55.176,-152.344
1692044563.716,-49.316,-23.926,-37.598,-37.109,118.652
1692044563.720,-40.039,-26.367,-40.039,-39.551,155.273
1692044563.724,-39.062,-27.344,-37.598,-47.363,-160.156
1692044563.728,-44.922,-27.832,-32.715,-43.945,-155.273
1692044563.730,-41.992,-27.832,-32.227,-34.668,-14.648
1692044563.734,-41.504,-25.879,-30.762,-33.691,-120.605
1692044563.738,-38.086,-26.367,-28.320,-30.273,-173.340
1692044563.742,-31.738,-23.926,-27.344,-28.320,-155.273
1692044563.746,-36.621,-25.879,-30.762,-41.504,-185.059
1692044563.750,-41.016,-28.809,-34.180,-41.992,-90.820
1692044563.754,-31.738,-24.414,-29.297,-21.973,-59.082
1692044563.757,-32.227,-23.926,-29.297,-28.320,-62.500
1692044563.761,-40.527,-30.273,-30.273,-37.598,243.652
1692044563.765,-43.457,-32.715,-31.738,-42.969,20.020
1692044563.769,-47.363,-31.250,-37.598,-46.387,-219.727
1692044563.773,-44.434,-32.715,-36.621,-34.180,-13.672
1692044563.777,-41.016,-27.344,-34.668,-30.273,41.992
1692044563.781,-40.527,-22.461,-38.574,-48.340,-72.266
1692044563.785,-41.016,-26.367,-39.551,-54.688,-63.477
1692044563.789,-47.852,-28.320,-36.621,-46.387,18.066
1692044563.793,-41.016,-25.879,-37.109,-32.715,-92.285
1692044563.797,-21.484,-25.391,-37.109,-30.762,-107.422
1692044563.801,-25.879,-27.832,-36.133,-38.086,19.043
1692044563.804,-38.086,-33.203,-35.645,-36.133,129.883
1692044563.808,-49.805,-39.551,-36.133,-35.645,46.875
1692044563.812,-45.898,-39.062,-34.180,-41.016,-211.914
1692044563.816,-37.598,-34.668,-30.273,-36.621,-129.395
1692044563.820,-33.691,-33.203,-33.203,-32.715,-71.777
1692044563.820,-38.086,-34.668,-34.668,-34.668,-161.133
1692044563.824,-49.316,-33.691,-29.785,-29.785,-191.406
1692044563.828,-50.293,-29.785,-31.250,-27.832,-110.840
1692044563.832,-43.945,-31.250,-31.738,-31.738,-19.531
1692044563.836,-29.297,-28.809,-28.809,-26.367,54.688
1692044563.840,-36.133,-26.855,-31.738,-25.879,35.645
1692044563.844,-51.758,-34.180,-30.762,-40.527,68.848
1692044563.847,-50.781,-32.715,-31.738,-37.109,340.332
1692044563.851,-41.016,-27.832,-34.180,-23.926,169.922
1692044563.855,-28.809,-28.320,-33.691,-20.996,-161.133
1692044563.859,-31.250,-28.809,-34.180,-23.438,1.465
1692044563.863,-43.457,-28.320,-32.715,-26.855,148.438
1692044563.865,-41.504,-29.297,-35.645,-31.738,-160.645
1692044563.869,-30.273,-31.250,-41.992,-28.809,-250.488
1692044563.873,-27.832,-27.344,-40.039,-20.996,4.395
1692044563.877,-25.879,-22.461,-33.203,-24.414,-34.180
1692044563.881,-25.391,-18.066,-35.156,-23.926,-191.406
1692044563.885,-33.691,-19.043,-38.086,-17.578,-31.738
1692044563.889,-30.273,-20.020,-34.668,-15.137,234.375
1692044563.892,-16.602,-17.578,-35.156,-12.695,233.398
1692044563.896,-20.020,-19.531,-35.645,-22.461,-129.395
1692044563.900,-24.902,-21.484,-32.227,-31.738,-188.477
1692044563.904,-23.926,-24.414,-30.273,-21.484,-19.531
1692044563.908,-26.855,-26.367,-31.250,-18.066,-114.258
1692044563.910,-15.625,-27.832,-27.344,-19.531,-166.016
1692044563.914,-12.695,-24.902,-25.391,-23.926,-132.324
1692044563.918,-19.531,-23.438,-25.879,-32.715,-159.180
1692044563.922,-30.273,-27.344,-23.438,-39.551,-166.016
1692044563.926,-26.855,-24.414,-20.508,-30.273,-150.391
1692044563.930,-17.090,-22.949,-20.508,-25.879,29.785
1692044563.934,-24.414,-24.902,-26.855,-25.879,236.816
1692044563.937,-34.180,-20.996,-31.250,-36.133,-12.695
1692044563.941,-27.344,-22.949,-33.203,-39.062,-177.246
1692044563.945,-13.672,-25.391,-28.809,-22.461,-18.066
1692044563.949,-10.742,-24.414,-27.832,-20.508,225.586
1692044563.953,-8.789,-25.391,-31.738,-34.180,107.910
1692044563.970,-29.785,-24.414,-33.203,-42.969,-165.039
1692044563.974,-42.969,-24.414,-29.297,-37.598,-86.914
1692044563.978,-41.016,-25.879,-27.832,-29.785,11.230
1692044563.982,-42.969,-26.367,-30.273,-36.133,-142.578
1692044563.986,-37.109,-27.832,-28.320,-33.203,-145.508
1692044563.990,-35.156,-29.297,-26.367,-32.227,28.320
1692044563.994,-39.551,-29.297,-29.785,-34.668,-2.441
1692044563.997,-38.086,-30.273,-35.156,-32.715,-149.902
1692044564.001,-20.508,-25.879,-27.832,-27.832,-121.094
1692044564.005,-10.742,-20.996,-20.508,-17.578,159.180
1692044564.009,-19.043,-21.484,-23.438,-27.344,44.434
1692044564.013,-26.367,-20.020,-26.367,-30.762,-196.289
1692044564.003,-20.508,-17.578,-27.832,-26.367,-112.793
1692044564.007,-15.625,-20.508,-31.738,-22.949,33.203
1692044564.011,-28.320,-25.879,-34.668,-20.508,-59.082
1692044564.015,-38.574,-26.855,-33.203,-27.344,-168.457
1692044564.019,-38.086,-26.367,-31.738,-34.180,-130.371
1692044564.023,-40.527,-30.273,-36.133,-31.250,15.625
1692044564.027,-37.598,-31.738,-37.598,-24.902,74.219
1692044564.030,-33.691,-30.762,-36.621,-26.855,-92.773
1692044564.034,-41.504,-29.785,-34.668,-31.250,-41.992
1692044564.038,-56.641,-30.762,-33.691,-33.691,220.703
1692044564.042,-58.105,-28.320,-36.621,-41.504,-7.324
1692044564.046,-41.504,-25.879,-37.109,-40.527,-94.238
1692044564.061,-38.574,-26.367,-31.250,-35.645,60.547
1692044564.065,-39.062,-29.297,-26.367,-37.109,-19.531
1692044564.069,-41.016,-32.227,-27.832,-42.480,-68.359
1692044564.073,-43.945,-30.762,-33.203,-47.363,-134.277
1692044564.077,-44.922,-33.203,-33.203,-49.805,66.406
1692044564.081,-40.527,-34.180,-31.250,-43.457,371.582
1692044564.085,-44.922,-30.762,-33.203,-41.992,63.477
1692044564.088,-54.688,-32.227,-29.785,-50.293,-154.785
1692044564.092,-48.340,-31.738,-25.391,-43.945,62.988
1692044564.096,-37.109,-29.785,-23.438,-37.109,-2.441
1692044564.100,-41.504,-32.227,-27.344,-36.133,-211.426
1692044564.104,-46.387,-29.785,-29.297,-39.062,-172.852
1692044564.120,-36.621,-21.973,-27.344,-47.852,-147.949
1692044564.124,-29.785,-20.020,-26.367,-45.410,-192.871
1692044564.128,-23.438,-20.996,-22.949,-38.086,-171.875
1692044564.132,-17.578,-22.461,-25.391,-32.715,-67.871
1692044564.136,-23.438,-30.273,-32.227,-36.621,15.625
1692044564.140,-27.344,-32.715,-34.668,-44.922,-21.973
1692044564.144,-19.531,-20.996,-32.227,-36.133,-50.293
1692044564.147,-17.578,-18.555,-28.809,-20.508,16.602
1692044564.151,-20.996,-23.438,-27.832,-15.625,331.055
1692044564.155,-29.785,-24.414,-30.762,-21.973,127.930
1692044564.159,-46.875,-24.902,-30.273,-36.621,-203.613
1692044564.163,-49.805,-25.391,-21.973,-44.434,36.621
1692044564.151,-53.711,-28.809,-23.926,-41.992,44.922
1692044564.155,-48.340,-34.668,-31.250,-35.156,-233.398
1692044564.159,-34.668,-34.180,-27.832,-35.156,-254.395
1692044564.163,-31.250,-27.832,-28.809,-35.645,-140.137
1692044564.167,-29.785,-28.320,-33.203,-36.133,-117.676
1692044564.171,-35.156,-29.297,-28.809,-33.691,-84.961
1692044564.175,-27.832,-25.879,-20.508,-31.738,6.836
1692044564.178,-27.344,-21.973,-20.508,-28.320,187.500
1692044564.182,-38.086,-21.973,-24.414,-28.809,20.996
1692044564.186,-40.039,-23.926,-24.902,-33.203,-182.617
1692044564.190,-41.504,-20.020,-24.902,-23.926,-193.359
1692044564.194,-38.574,-28.320,-20.508,-11.719,117.188
1692044564.195,-20.020,-44.434,-18.555,0.488,230.957
1692044564.199,-13.184,-36.133,-35.156,-10.254,-143.066
1692044564.203,-42.480,-18.066,-43.457,-44.922,-212.891
1692044564.207,-61.523,-15.137,-40.527,-64.941,-151.855
1692044564.211,-50.781,-16.602,-38.574,-55.176,-197.754
1692044564.215,-55.176,-18.066,-42.480,-67.871,-168.945
1692044564.219,-63.477,-15.137,-48.340,-84.961,-16.113
1692044564.222,-63.477,-10.742,-51.758,-75.195,205.566
1692044564.226,-72.754,-7.812,-58.105,-82.031,-56.152
1692044564.230,-64.453,-5.371,-60.059,-78.125,-201.660
1692044564.234,-69.336,-3.906,-55.664,-79.102,9.766
1692044564.238,-62.500,-4.883,-56.152,-81.055,145.996
1692044564.255,-63.965,-3.418,-62.988,-83.496,-93.262
1692044564.259,-74.707,-3.906,-65.918,-89.844,-255.371
1692044564.263,-69.336,-7.812,-65.918,-86.914,-86.426
1692044564.267,-68.359,-11.719,-70.312,-90.332,-53.223
1692044564.271,-70.312,-11.230,-67.383,-98.633,-182.129
1692044564.275,-78.125,-8.789,-59.570,-106.445,-153.809
1692044564.279,-73.242,-6.836,-57.129,-103.027,135.254
1692044564.282,-69.824,-9.277,-62.988,-97.168,151.855
1692044564.286,-64.453,-13.184,-71.777,-96.680,-212.402
1692044564.290,-58.105,-8.301,-67.871,-81.055,-207.031
1692044564.294,-51.270,-7.812,-64.453,-78.613,-162.109
1692044564.298,-43.945,-10.254,-64.941,-80.566,-162.109
1692044564.286,-36.621,-9.766,-59.082,-64.941,-11.230
1692044564.290,-31.250,-12.207,-61.035,-58.105,-17.578
1692044564.294,-30.762,-9.766,-62.500,-62.012,-11.230
1692044564.298,-35.156,-6.836,-53.711,-68.848,-110.352
1692044564.302,-30.273,-7.324,-52.734,-62.988,-169.434
1692044564.306,-20.996,-10.742,-60.059,-55.176,82.031
1692044564.310,-15.625,-9.277,-58.105,-54.199,223.145
1692044564.313,-16.113,-5.371,-57.129,-59.570,20.020
1692044564.317,-25.391,-9.277,-59.082,-57.617,-108.398
1692044564.321,-23.926,-5.859,-59.570,-52.734,33.203
1692044564.325,-27.832,-1.953,-58.594,-50.293,380.371
1692044564.329,-29.297,-5.859,-53.223,-45.898,237.305
1692044564.345,-20.020,-6.836,-48.828,-41.016,-76.660
1692044564.349,-9.277,-9.277,-42.480,-36.133,-21.484
1692044564.353,-13.672,-9.766,-35.645,-36.621,96.680
1692044564.357,-21.484,-8.789,-40.527,-41.504,-51.758
1692044564.361,-18.066,-16.602,-44.434,-36.133,-116.211
1692044564.365,-11.719,-18.066,-37.598,-26.367,227.539
1692044564.369,-17.090,-17.578,-36.133,-28.320,270.508
1692044564.372,-24.414,-17.090,-32.227,-32.227,-118.164
1692044564.376,-28.320,-18.555,-31.250,-27.344,-183.594
1692044564.380,-31.738,-23.926,-34.668,-28.320,47.852
1692044564.384,-31.250,-25.391,-41.016,-36.133,-20.996
1692044564.388,-31.250,-26.367,-41.504,-36.621,-150.879
1692044564.390,-40.039,-29.297,-32.715,-33.203,-149.902
1692044564.394,-44.922,-28.320,-28.809,-28.320,-145.996
1692044564.398,-29.297,-29.297,-29.785,-23.926,-142.578
1692044564.402,-23.438,-32.715,-32.715,-16.113,-104.980
1692044564.406,-25.391,-30.273,-30.273,-15.137,-15.625
1692044564.410,-29.785,-28.320,-31.250,-24.902,56.641
1692044564.414,-25.391,-31.250,-29.297,-20.996,22.949
1692044564.417,-10.254,-27.832,-24.902,-8.301,-59.570
1692044564.421,-2.441,-29.297,-26.367,-10.254,-20.508
1692044564.425,-11.719,-34.668,-33.691,-16.602,269.531
1692044564.429,-26.367,-32.715,-40.527,-27.344,58.105
1692044564.433,-27.344,-33.203,-38.086,-28.320,-147.461
1692044564.450,-18.066,-34.180,-38.574,-16.602,-34.668
1692044564.454,-19.531,-32.715,-33.203,-16.602,-67.871
1692044564.458,-19.531,-32.227,-27.344,-19.531,-133.789
1692044564.462,-23.438,-33.203,-29.785,-21.973,-141.602
1692044564.466,-31.250,-32.715,-29.785,-22.461,2.930
1692044564.470,-33.691,-35.156,-32.715,-19.531,51.270
1692044564.474,-27.344,-36.621,-35.156,-17.578,-59.082
1692044564.477,-30.762,-34.180,-30.762,-21.973,-23.926
1692044564.481,-33.691,-27.344,-25.879,-17.090,239.258
1692044564.485,-30.273,-24.414,-26.855,-16.602,278.320
1692044564.489,-26.855,-25.391,-33.203,-24.414,-108.887
1692044564.493,-21.973,-24.414,-36.133,-19.531,-143.555
1692044564.480,-28.809,-30.273,-32.715,-20.508,-78.125
1692044564.484,-36.133,-31.738,-29.785,-34.668,-155.762
1692044564.488,-44.434,-29.297,-31.738,-37.598,-184.570
1692044564.492,-31.250,-33.203,-32.227,-21.484,-111.816
1692044564.496,-24.414,-34.668,-33.691,-16.602,-39.551
1692044564.500,-43.457,-24.902,-34.180,-45.898,15.137
1692044564.504,-57.617,-20.508,-33.203,-74.219,88.379
1692044564.507,-49.805,-22.949,-33.691,-66.895,69.336
1692044564.511,-47.363,-18.066,-29.785,-57.617,54.688
1692044564.515,-42.969,-14.648,-30.762,-58.594,52.734
1692044564.519,-37.598,-20.508,-31.738,-55.176,63.965
1692044564.523,-39.062,-24.902,-25.879,-53.711,114.258
1692044564.525,-44.922,-25.391,-24.414,-52.734,452.148
1692044564.529,-59.082,-24.414,-31.738,-51.758,310.059
1692044564.533,-58.594,-31.250,-28.320,-45.410,-92.285
1692044564.537,-51.270,-34.668,-27.832,-40.527,-77.148
1692044564.541,-47.363,-35.645,-34.668,-43.945,-92.773
1692044564.545,-57.617,-41.992,-36.133,-52.734,-64.941
1692044564.549,-57.129,-36.621,-38.086,-58.105,-11.719
1692044564.552,-38.574,-32.227,-36.621,-49.316,176.758
1692044564.556,-36.133,-33.203,-34.668,-40.039,228.027
1692044564.560,-43.457,-29.297,-34.180,-46.875,-98.145
1692044564.564,-43.945,-30.762,-35.645,-54.688,-190.430
1692044564.568,-40.039,-32.715,-33.203,-50.781,-107.910
1692044564.570,-40.039,-36.621,-35.645,-44.922,-18.555
1692044564.574,-31.738,-36.133,-38.574,-41.016,-75.195
1692044564.578,-22.949,-24.902,-30.273,-38.574,-103.027
1692044564.582,-41.992,-23.926,-30.762,-45.898,24.414
1692044564.586,-55.176,-27.344,-38.086,-51.758,-69.824
1692044564.590,-43.945,-28.809,-37.109,-44.922,-145.020
1692044564.594,-37.109,-31.738,-31.250,-41.504,49.316
1692044564.597,-40.039,-31.250,-30.762,-48.828,332.520
1692044564.601,-43.945,-28.809,-31.250,-53.711,10.254
1692044564.605,-48.340,-30.762,-38.086,-54.199,-227.539
1692044564.609,-45.410,-30.762,-37.598,-41.016,-89.844
1692044564.613,-39.062,-30.273,-34.180,-35.156,35.645
1692044564.615,-36.621,-31.250,-30.762,-40.039,-50.781
1692044564.619,-39.551,-30.273,-28.320,-36.133,-188.965
1692044564.623,-40.527,-33.203,-23.926,-35.156,32.715
1692044564.627,-43.945,-36.621,-24.414,-38.086,171.387
1692044564.631,-42.480,-33.691,-27.832,-38.574,-103.516
1692044564.635,-36.133,-30.762,-27.344,-38.574,-150.391
1692044564.639,-35.645,-30.273,-26.855,-38.086,186.035
1692044564.642,-30.762,-27.344,-29.785,-45.410,254.883
1692044564.646,-35.645,-28.320,-32.715,-56.152,-152.832
1692044564.650,-39.551,-33.203,-28.320,-50.781,-185.547
1692044564.654,-34.180,-32.227,-24.902,-42.969,-83.496
1692044564.658,-37.598,-33.691,-25.879,-41.992,-159.668
1692044564.660,-48.828,-32.227,-23.926,-44.922,-200.684
1692044564.664,-51.270,-27.832,-26.367,-41.504,-148.926
1692044564.668,-35.645,-28.809,-30.762,-30.273,-73.242
1692044564.672,-31.738,-28.809,-30.762,-34.668,-90.332
1692044564.676,-41.016,-29.297,-26.855,-46.875,-137.207
1692044564.680,-42.480,-34.180,-29.785,-54.688,-30.762
1692044564.684,-40.039,-36.621,-36.133,-47.852,225.586
1692044564.687,-34.180,-31.250,-32.715,-38.086,152.832
1692044564.691,-37.598,-26.855,-29.297,-36.621,-140.137
1692044564.695,-33.691,-27.344,-30.762,-38.086,-134.277
1692044564.699,-36.133,-31.250,-35.645,-34.668,159.180
1692044564.703,-47.363,-32.227,-41.016,-33.691,-9.277
1692044564.720,-45.898,-31.738,-44.922,-32.227,-200.195
1692044564.724,-31.250,-28.320,-37.598,-27.832,-24.902
1692044564.728,-25.391,-28.320,-27.832,-28.809,34.668
1692044564.732,-37.598,-25.391,-30.273,-33.691,-134.277
1692044564.736,-36.621,-25.391,-31.738,-34.180,-179.688
1692044564.740,-27.832,-32.715,-33.203,-38.574,2.930
1692044564.744,-27.344,-31.738,-35.156,-33.691,32.227
1692044564.747,-26.367,-24.902,-33.203,-28.320,-40.527
1692044564.751,-29.785,-27.832,-32.227,-37.598,-68.359
1692044564.755,-39.062,-29.297,-35.156,-33.691,111.816
1692044564.759,-38.574,-24.902,-33.691,-22.461,140.137
1692044564.763,-27.832,-24.902,-29.785,-23.438,-165.527
1692044564.765,-30.762,-25.391,-24.414,-25.879,-223.145
1692044564.769,-29.297,-24.902,-22.461,-28.320,-148.926
1692044564.773,-31.250,-28.320,-25.879,-29.297,-138.672
1692044564.777,-48.828,-29.785,-29.785,-30.273,-183.105
1692044564.781,-44.434,-28.320,-30.762,-33.691,-139.160
1692044564.785,-29.785,-33.691,-30.762,-37.598,-2.441
1692044564.789,-32.227,-37.109,-29.297,-41.016,88.867
1692044564.792,-38.574,-38.086,-29.297,-34.180,-74.707
1692044564.796,-29.297,-36.621,-30.762,-19.531,-67.871
1692044564.800,-22.949,-27.344,-30.762,-10.742,275.879
1692044564.804,-22.461,-27.832,-35.645,-13.184,134.766
1692044564.808,-4.883,-29.297,-32.715,-8.789,-69.336
1692044564.810,-4.883,-26.367,-30.762,-12.695,29.297
1692044564.814,-33.203,-20.508,-35.156,-38.086,171.387
1692044564.818,-50.293,-24.414,-36.621,-61.523,-97.168
1692044564.822,-42.969,-36.621,-32.227,-62.988,-187.500
1692044564.826,-53.223,-37.109,-34.668,-78.125,-54.199
1692044564.830,-69.824,-29.297,-40.039,-95.215,-57.617
1692044564.834,-68.359,-21.973,-41.016,-81.055,-66.406
1692044564.837,-62.988,-21.973,-35.645,-56.152,-54.688
1692044564.841,-53.711,-24.902,-24.902,-49.316,190.918
1692044564.845,-53.223,-26.855,-23.438,-55.664,138.184
1692044564.849,-57.129,-26.367,-26.367,-55.176,-173.828
1692044564.853,-34.180,-22.461,-30.273,-41.504,-197.754
1692044564.855,-17.578,-20.996,-29.297,-28.320,-85.938
1692044564.859,-29.297,-26.855,-27.832,-27.832,-16.602
1692044564.863,-35.645,-30.762,-29.297,-30.762,-88.379
1692044564.867,-36.621,-32.227,-30.762,-26.367,-58.594
1692044564.871,-46.387,-33.691,-33.691,-23.926,37.598
1692044564.875,-30.273,-32.715,-32.715,-21.484,-9.766
1692044564.879,-28.320,-29.785,-30.762,-20.996,-72.754
1692044564.882,-32.715,-31.738,-32.715,-20.020,35.645
1692044564.886,-25.391,-34.180,-32.227,-8.301,107.910
1692044564.890,-27.344,-30.273,-33.203,-11.719,-127.930
1692044564.894,-23.926,-28.809,-36.133,-10.254,-229.004
1692044564.898,-18.066,-27.832,-36.621,-7.812,55.664
1692044564.900,-8.301,-24.902,-33.203,-13.672,264.648
1692044564.904,-10.254,-20.996,-32.715,-24.414,-113.281
1692044564.908,-22.949,-20.996,-36.133,-18.066,-240.723
1692044564.912,-20.996,-24.414,-30.762,-2.930,-43.457
1692044564.916,3.906,-23.438,-22.949,-1.465,-67.871
1692044564.920,6.348,-21.484,-22.949,-3.906,-73.242
1692044564.924,-4.395,-20.508,-22.461,-6.836,0.000
1692044564.927,1.953,-24.902,-20.508,0.000,147.461
1692044564.931,-0.488,-28.320,-20.996,3.418,229.980
1692044564.935,-12.695,-25.391,-27.344,-2.930,-73.730
1692044564.939,-16.602,-22.949,-27.344,-4.883,-179.199
1692044564.943,-24.414,-22.949,-26.367,-17.090,-116.211
1692044564.947,-34.180,-26.367,-28.809,-22.461,-139.648
1692044564.951,-31.738,-26.367,-28.320,-15.137,-144.043
1692044564.955,-31.250,-26.855,-28.809,-16.113,-98.145
1692044564.959,-36.621,-31.250,-33.691,-18.555,-119.629
1692044564.963,-33.691,-34.668,-38.086,-26.367,-107.422
1692044564.967,-29.785,-27.344,-29.785,-29.297,-63.477
1692044564.971,-30.762,-20.996,-24.902,-23.926,54.688
1692044564.974,-21.484,-25.879,-30.762,-17.090,434.570
1692044564.978,-17.090,-29.297,-34.180,-21.484,202.148
1692044564.982,-25.879,-33.203,-35.156,-30.273,-181.641
1692044564.986,-31.250,-32.227,-39.551,-34.180,-123.535
1692044564.990,-22.949,-23.926,-37.109,-25.391,-59.082
1692044564.990,-8.789,-24.414,-31.738,-14.160,-104.492
1692044564.994,-12.207,-27.344,-28.809,-19.043,-164.062
1692044564.998,-20.020,-28.809,-28.320,-21.484,-37.598
1692044565.002,-33.203,-31.250,-29.785,-25.391,-38.574
1692044565.006,-31.250,-27.344,-28.809,-24.902,-156.250
1692044565.010,-20.020,-25.391,-29.297,-15.625,-109.375
1692044565.014,-25.391,-29.297,-27.344,-17.090,250.000
1692044565.017,-35.156,-32.227,-27.832,-27.832,469.727
1692044565.021,-45.898,-30.762,-30.762,-42.969,0.977
1692044565.025,-40.527,-32.715,-31.250,-37.598,-193.848
1692044565.029,-27.832,-33.203,-28.809,-16.602,62.500
1692044565.033,-27.344,-34.180,-25.391,-16.113,-30.273
1692044565.035,-28.809,-34.180,-23.926,-20.508,-199.707
1692044565.039,-28.320,-32.227,-22.949,-18.555,-169.922
1692044565.043,-32.227,-34.180,-24.414,-23.438,-106.445
1692044565.047,-31.738,-37.109,-29.297,-20.996,-110.840
1692044565.051,-27.832,-34.668,-34.668,-17.578,-130.859
1692044565.055,-25.391,-29.785,-33.203,-20.996,52.246
1692044565.059,-37.598,-29.297,-30.762,-28.320,214.355
1692044565.062,-39.062,-29.297,-31.250,-23.926,-6.836
1692044565.066,-24.414,-30.762,-35.156,-13.672,-134.766
1692044565.070,-7.324,-32.715,-41.016,-7.812,-32.227
1692044565.074,-2.441,-26.367,-41.504,-16.602,91.797
1692044565.078,-35.156,-34.668,-40.527,-40.039,63.477
1692044565.110,-48.340,-45.898,-33.691,-35.156,-59.570
1692044565.114,-29.297,-41.992,-22.949,-14.648,29.297
1692044565.118,-37.109,-47.852,-23.926,-18.555,236.328
1692044565.122,-46.387,-46.387,-27.344,-36.621,-38.574
1692044565.126,-38.574,-36.133,-31.738,-39.551,-185.059
1692044565.130,-24.414,-33.203,-33.203,-29.297,11.230
1692044565.134,-16.113,-31.738,-33.691,-17.578,61.035
1692044565.137,-10.254,-31.738,-39.062,-11.230,-113.281
1692044565.141,-16.602,-32.715,-40.527,-12.207,-136.719
1692044565.145,-29.785,-24.902,-35.156,-12.695,-3.906
1692044565.149,-32.715,-26.367,-39.551,-20.996,-82.520
1692044565.153,-27.832,-33.203,-37.109,-21.484,-167.480
1692044565.140,-17.578,-38.086,-25.879,-8.301,-117.188
1692044565.144,-19.531,-38.086,-22.949,-2.930,320.801
1692044565.148,-20.020,-32.227,-22.461,-3.418,245.117
1692044565.152,-4.883,-24.902,-22.461,-2.930,-171.875
1692044565.156,-12.695,-23.926,-23.438,-1.953,-153.320
1692044565.160,-20.020,-25.879,-22.949,-0.488,-25.879
1692044565.164,-10.254,-23.438,-24.414,-3.418,-2.930
1692044565.167,-12.207,-15.625,-31.250,-15.625,-122.070
1692044565.171,-20.508,-15.137,-24.414,-26.855,-107.910
1692044565.175,-29.785,-19.531,-21.484,-28.320,-69.336
1692044565.179,-20.996,-21.973,-25.879,-25.391,-137.695
1692044565.183,-19.043,-21.484,-24.902,-25.879,-115.723
1692044565.185,-20.996,-23.438,-27.832,-30.762,-26.855
1692044565.189,-21.484,-22.949,-26.855,-34.180,302.246
1692044565.193,-37.109,-25.391,-24.414,-31.738,100.098
1692044565.197,-41.992,-23.926,-27.344,-32.715,-182.129
1692044565.201,-38.574,-18.555,-29.785,-35.645,44.434
1692044565.205,-42.969,-23.926,-30.762,-46.875,83.984
1692044565.209,-38.086,-28.320,-31.250,-59.570,-116.699
1692044565.212,-34.180,-27.832,-24.902,-57.617,-200.684
1692044565.216,-43.457,-31.250,-24.902,-45.410,62.988
1692044565.220,-49.316,-30.273,-29.785,-46.875,84.473
1692044565.224,-47.363,-27.832,-29.297,-55.176,-191.406
1692044565.228,-42.969,-23.926,-24.414,-49.805,-214.844
1692044565.230,-56.152,-24.414,-27.832,-60.547,-137.207
1692044565.234,-54.199,-29.297,-32.227,-56.641,-151.367
1692044565.238,-33.203,-27.832,-34.668,-40.039,-170.410
1692044565.242,-40.039,-29.297,-30.273,-47.363,-166.992
1692044565.246,-57.129,-34.668,-27.832,-51.270,-169.922
1692044565.250,-65.430,-36.621,-30.273,-49.316,-117.188
1692044565.254,-60.547,-36.133,-31.250,-50.293,-42.480
1692044565.257,-42.480,-34.180,-31.738,-48.828,37.109
1692044565.261,-36.133,-29.297,-31.250,-47.852,286.133
1692044565.265,-40.039,-25.879,-36.133,-54.688,94.238
1692044565.269,-37.109,-23.926,-36.133,-50.781,-238.281
1692044565.273,-21.484,-23.926,-32.715,-41.504,-106.934
1692044565.275,-20.996,-28.809,-40.527,-38.086,-1.953
1692044565.279,-28.320,-31.738,-43.945,-40.527,-189.941
1692044565.283,-31.738,-29.785,-41.504,-50.293,-243.164
1692044565.287,-35.156,-25.879,-38.086,-42.969,-152.832
1692044565.291,-26.367,-28.320,-37.598,-20.996,-137.695
1692044565.295,-11.719,-28.809,-38.574,-12.207,-37.598
1692044565.299,-10.742,-27.832,-36.621,-12.207,35.156
1692044565.302,-16.602,-30.273,-34.180,-13.672,132.812
1692044565.306,-16.113,-28.809,-35.645,-22.949,88.867
1692044565.310,-20.020,-27.344,-33.691,-24.414,-171.875
1692044565.314,-13.184,-27.344,-27.344,-18.066,-229.980
1692044565.318,-15.137,-20.996,-22.949,-9.766,-55.664
1692044565.320,-20.996,-18.066,-21.973,-18.555,-152.344
1692044565.324,-25.391,-21.973,-24.902,-33.691,-241.211
1692044565.328,-28.809,-25.391,-25.391,-27.832,-184.082
1692044565.332,-23.926,-22.949,-26.855,-20.020,-148.438
1692044565.336,-32.227,-23.926,-31.738,-20.996,-158.203
1692044565.340,-32.715,-26.367,-30.273,-28.320,-111.816
1692044565.344,-27.832,-22.461,-27.832,-28.320,26.855
1692044565.347,-36.133,-28.320,-28.320,-26.367,232.422
1692044565.351,-34.668,-30.762,-30.273,-29.785,51.758
1692044565.355,-33.203,-30.273,-33.691,-39.551,-142.090
1692044565.359,-37.598,-30.273,-39.062,-41.016,-47.363
1692044565.363,-26.855,-26.855,-36.133,-32.715,7.812
1692044565.365,-26.855,-29.785,-33.203,-25.391,-24.902
1692044565.369,-34.668,-31.250,-37.598,-22.461,-158.203
1692044565.373,-19.531,-30.762,-33.691,-17.578,4.395
1692044565.377,-20.508,-29.785,-32.715,-20.020,264.160
1692044565.381,-33.691,-19.043,-31.738,-25.879,-20.020
1692044565.385,-19.043,-24.414,-27.832,-14.160,-77.148
1692044565.389,4.883,-33.691,-29.297,2.930,218.750
1692044565.392,-19.531,-24.414,-30.273,-11.719,153.320
1692044565.396,-52.246,-18.066,-31.738,-42.969,-146.973
1692044565.400,-44.434,-16.113,-31.250,-44.434,-164.551
1692044565.404,-40.527,-17.090,-28.320,-42.969,-109.375
1692044565.408,-67.383,-16.113,-27.344,-72.754,-133.301
1692044565.411,-68.359,-15.625,-36.133,-86.426,-168.457
1692044565.415,-71.289,-17.578,-40.527,-94.727,-115.723
1692044565.419,-80.566,-17.090,-36.133,-97.656,-51.758
1692044565.423,-65.430,-19.043,-31.738,-82.520,-112.305
1692044565.427,-64.941,-18.555,-32.715,-75.684,-180.664
1692044565.431,-58.594,-21.973,-35.156,-61.523,19.531
1692044565.435,-45.898,-27.344,-35.156,-49.805,410.156
1692044565.438,-48.340,-26.367,-32.227,-60.059,117.188
1692044565.442,-52.734,-25.391,-32.227,-63.477,-222.656
1692044565.446,-34.180,-27.344,-30.273,-47.852,-113.770
1692044565.450,-28.320,-24.414,-25.879,-40.039,-65.430
1692044565.454,-50.293,-24.902,-27.832,-44.922,3.906
1692044565.470,-47.852,-28.809,-27.832,-53.711,-67.383
1692044565.474,-48.340,-24.414,-22.461,-48.340,-26.367
1692044565.478,-52.734,-22.949,-20.996,-40.527,56.641
1692044565.482,-46.875,-24.414,-24.414,-37.109,-114.746
1692044565.486,-47.852,-29.785,-29.785,-42.480,-35.156
1692044565.490,-43.457,-30.273,-29.297,-42.969,330.078
1692044565.494,-42.480,-24.414,-22.461,-42.969,379.395
1692044565.497,-46.875,-21.973,-20.508,-43.945,-49.316
1692044565.501,-28.320,-22.949,-27.832,-25.879,-123.535
1692044565.505,-18.066,-22.949,-29.297,-22.949,60.547
1692044565.509,-23.438,-23.438,-31.250,-26.855,-74.219
1692044565.513,-24.414,-23.438,-32.227,-23.926,-205.566
1692044565.515,-24.902,-23.926,-25.391,-21.484,-119.141
1692044565.519,-8.789,-27.344,-27.344,-15.137,-74.219
1692044565.523,-13.184,-29.297,-32.227,-25.391,-126.953
1692044565.527,-28.320,-24.902,-27.832,-41.504,-171.387
1692044565.531,-24.414,-23.438,-24.414,-24.902,-97.656
1692044565.535,-20.020,-28.320,-25.879,-17.090,-9.766
1692044565.539,-9.766,-21.484,-30.273,-14.648,-10.742
1692044565.542,-2.441,-18.555,-33.203,-9.277,23.926
1692044565.546,-16.113,-27.344,-29.785,-15.137,58.594
1692044565.550,-17.090,-22.461,-27.832,-12.695,352.051
1692044565.554,-10.742,-20.508,-23.438,-14.648,236.816
1692044565.558,-5.371,-22.461,-24.414,-14.160,-31.250
1692044565.560,7.324,-15.625,-28.320,-10.742,72.266
1692044565.564,0.977,-14.160,-30.762,-17.090,102.539
1692044565.568,-21.973,-14.160,-32.715,-21.484,-76.660
1692044565.572,-21.973,-19.043,-27.832,-21.484,-134.277
1692044565.576,-2.930,-20.996,-26.367,-17.090,-47.363
1692044565.580,-8.301,-22.949,-29.297,-14.160,42.969
1692044565.584,-20.996,-25.391,-25.391,-20.508,25.391
1692044565.587,-19.043,-19.531,-26.367,-22.949,-89.355
1692044565.591,-20.996,-15.137,-27.344,-16.602,152.832
1692044565.595,-13.672,-13.672,-20.508,-18.066,251.953
1692044565.599,-9.766,-18.066,-20.020,-26.855,-148.438
1692044565.603,-22.461,-22.461,-23.438,-34.180,-200.195
1692044565.621,-40.039,-23.438,-20.996,-32.715,25.879
1692044565.625,-43.457,-22.949,-24.414,-26.855,-93.262
1692044565.629,-36.621,-23.926,-30.273,-33.203,-181.152
1692044565.633,-30.762,-25.879,-25.879,-37.598,-89.844
1692044565.637,-24.414,-26.855,-31.738,-33.203,-36.133
1692044565.641,-18.555,-22.949,-34.668,-24.414,-38.086
1692044565.645,-21.484,-20.020,-32.715,-16.602,-136.230
1692044565.648,-14.160,-21.973,-37.109,-9.766,-54.688
1692044565.652,-1.953,-25.391,-33.691,6.836,290.527
1692044565.656,-0.488,-24.902,-39.062,-0.488,81.543
1692044565.660,-12.695,-23.926,-44.434,-17.578,-134.277
1692044565.664,-28.320,-25.879,-42.969,-14.648,52.246
1692044565.650,-17.578,-19.531,-33.203,-6.836,123.047
1692044565.654,-7.812,-17.578,-22.461,-2.441,-101.562
1692044565.658,-9.277,-26.367,-29.297,-3.906,-194.336
1692044565.662,-21.484,-29.785,-33.203,-20.020,-24.414
1692044565.666,-33.691,-25.391,-30.273,-31.738,-82.031
1692044565.670,-27.344,-28.320,-29.785,-25.879,-160.645
1692044565.674,-16.113,-26.855,-30.762,-21.973,3.418
1692044565.677,-15.625,-24.414,-27.832,-19.531,135.254
1692044565.681,-23.438,-31.738,-27.344,-18.066,-23.926
1692044565.685,-36.133,-28.809,-26.855,-17.578,-173.340
1692044565.689,-36.621,-26.855,-26.855,-26.367,-145.996
1692044565.693,-30.273,-32.715,-29.297,-30.273,166.504
1692044565.696,-28.320,-25.391,-28.320,-25.879,264.160
1692044565.700,-31.250,-20.508,-27.344,-33.691,-115.234
1692044565.704,-25.879,-24.902,-21.973,-35.156,-85.449
1692044565.708,-21.973,-23.926,-17.578,-27.832,66.406
1692044565.712,-20.996,-24.902,-17.578,-23.438,-104.980
1692044565.716,-15.625,-25.391,-20.020,-27.344,-125.488
1692044565.720,-19.531,-26.367,-20.508,-35.156,41.504
1692044565.723,-35.645,-26.855,-16.113,-34.180,279.297
1692044565.727,-47.852,-27.344,-19.043,-32.227,50.781
1692044565.731,-45.898,-27.832,-22.461,-28.809,-216.797
1692044565.735,-32.715,-28.320,-20.996,-25.879,-71.289
1692044565.739,-42.969,-33.203,-20.020,-23.438,-16.602
1692044565.740,-43.457,-34.668,-25.391,-24.414,-152.344
1692044565.744,-27.832,-33.203,-28.320,-20.020,-178.711
1692044565.748,-27.832,-31.250,-26.367,-12.207,41.992
1692044565.752,-20.020,-26.367,-26.367,-6.836,73.730
1692044565.756,-11.719,-22.949,-30.273,-14.648,-102.051
1692044565.760,-18.555,-23.926,-33.691,-31.250,-92.773
1692044565.764,-24.902,-23.926,-32.715,-26.367,137.695
1692044565.767,-22.461,-20.020,-37.109,-20.996,187.012
1692044565.771,-14.160,-20.508,-40.527,-23.926,-100.098
1692044565.775,6.348,-17.578,-33.691,-14.160,-148.926
1692044565.779,1.953,-17.578,-31.738,-27.344,79.102
1692044565.783,-16.602,-24.902,-33.691,-37.598,-63.477
1692044565.785,-16.602,-18.555,-37.598,-30.762,-283.203
1692044565.789,-4.395,-19.043,-37.109,-23.438,-151.855
1692044565.793,-9.766,-26.367,-36.133,-23.438,-51.758
1692044565.797,-27.344,-21.973,-36.621,-32.227,-111.816
1692044565.801,-31.738,-22.461,-33.691,-34.180,-145.996
1692044565.805,-29.785,-28.809,-32.715,-27.344,60.547
1692044565.809,-21.484,-27.832,-34.180,-11.230,273.438
1692044565.812,-21.484,-25.391,-30.762,-18.555,62.012
1692044565.816,-26.367,-22.461,-24.414,-35.645,-186.035
1692044565.820,-26.367,-25.391,-25.879,-34.180,-140.137
1692044565.824,-33.203,-32.715,-26.367,-37.598,123.535
1692044565.828,-36.133,-27.832,-29.785,-43.457,41.016
1692044565.845,-34.180,-24.902,-32.227,-32.227,-180.664
1692044565.849,-24.902,-30.273,-30.762,-22.949,-57.617
1692044565.853,-24.902,-29.785,-31.738,-29.297,86.914
1692044565.857,-20.508,-26.367,-29.785,-29.785,-100.586
1692044565.861,-15.625,-24.414,-28.320,-22.949,-105.957
1692044565.865,-33.203,-34.180,-27.344,-22.949,145.996
1692044565.869,-42.480,-41.016,-26.855,-26.367,105.957
1692044565.872,-40.039,-38.086,-28.320,-29.785,-136.719
1692044565.876,-43.457,-33.203,-21.973,-18.555,-126.953
1692044565.880,-43.457,-32.715,-23.438,-19.043,83.496
1692044565.884,-42.969,-35.156,-28.809,-23.438,-1.953
1692044565.888,-36.621,-32.715,-28.809,-25.391,-160.645
1692044565.890,-33.203,-31.250,-29.297,-29.785,-107.910
1692044565.894,-33.691,-29.785,-31.250,-14.160,189.453
1692044565.898,-27.344,-26.855,-32.715,-6.348,122.559
1692044565.902,-18.555,-26.855,-31.738,-5.371,-138.184
1692044565.906,-16.113,-24.414,-28.320,-13.672,-127.930
1692044565.910,-19.531,-24.414,-28.320,-19.531,24.414
1692044565.914,-21.973,-24.902,-32.227,-22.461,63.477
1692044565.917,-23.926,-21.973,-32.715,-31.738,-83.984
1692044565.921,-24.414,-16.602,-31.250,-24.902,-10.254
1692044565.925,-25.879,-17.578,-26.367,-14.648,250.000
1692044565.929,-26.367,-19.531,-29.297,-22.949,-4.883
1692044565.933,-26.367,-17.578,-30.273,-23.438,-200.195
1692044565.935,-16.113,-20.508,-24.902,-10.254,66.406
1692044565.939,-9.766,-20.508,-21.973,-3.906,234.375
1692044565.943,-19.043,-14.160,-20.996,-8.301,-80.566
1692044565.947,-20.020,-12.207,-19.043,-16.602,-221.680
1692044565.951,-24.414,-19.531,-17.578,-20.508,-72.266
1692044565.955,-33.691,-26.855,-26.367,-17.578,-42.969
1692044565.959,-34.668,-24.902,-26.855,-21.973,-102.539
1692044565.962,-41.504,-28.809,-20.996,-25.879,-121.094
1692044565.966,-39.551,-30.762,-14.160,-24.414,85.449
1692044565.970,-30.273,-27.344,-17.578,-27.832,67.383
1692044565.974,-36.133,-30.273,-28.320,-20.996,-175.781
1692044565.978,-39.551,-34.180,-23.926,-14.648,-123.535
1692044565.981,-41.016,-32.227,-22.949,-22.949,-100.586
1692044565.985,-49.805,-28.809,-25.879,-23.438,-149.902
1692044565.989,-45.898,-24.902,-23.438,-20.996,-130.859
1692044565.993,-44.434,-21.973,-24.902,-37.598,-56.152
1692044565.997,-50.293,-21.973,-22.461,-36.621,58.594
1692044566.001,-31.738,-28.809,-23.926,-25.391,55.664
1692044566.005,-24.414,-29.297,-29.297,-31.738,-76.172
1692044566.008,-28.320,-27.832,-29.297,-32.715,-92.285
1692044566.012,-29.785,-25.391,-27.832,-22.461,226.074
1692044566.016,-23.926,-23.438,-34.180,-25.879,32.227
1692044566.020,-16.113,-24.414,-37.598,-24.902,-208.496
1692044566.024,-26.855,-29.297,-33.203,-33.691,-22.949
1692044566.025,-34.668,-30.273,-31.738,-42.480,45.898
1692044566.029,-30.273,-26.367,-30.273,-38.574,-140.625
1692044566.033,-19.043,-24.902,-26.367,-28.809,-176.758
1692044566.037,-17.578,-24.902,-30.762,-29.785,-104.980
1692044566.041,-23.438,-30.762,-39.551,-50.293,-91.309
1692044566.045,-20.996,-38.086,-44.922,-46.387,-32.227
1692044566.049,-8.789,-35.645,-48.340,-28.320,-42.480
1692044566.052,-7.812,-20.996,-43.457,-17.578,237.305
1692044566.056,-20.020,-19.043,-39.551,-15.137,391.602
1692044566.060,-16.602,-26.367,-30.762,-16.113,-70.801
1692044566.064,-13.184,-28.320,-26.855,-11.719,-235.840
1692044566.068,-18.066,-29.297,-31.250,-8.301,-119.141
1692044566.070,-25.879,-32.715,-25.879,-13.672,-96.191
1692044566.074,-30.762,-34.180,-25.879,-11.719,-102.539
1692044566.078,-42.480,-34.668,-29.297,-17.578,-112.305
1692044566.082,-57.129,-37.109,-29.785,-45.410,-104.980
1692044566.086,-59.570,-34.180,-33.203,-59.570,-112.793
1692044566.090,-62.012,-33.203,-34.668,-49.316,-58.594
1692044566.094,-58.105,-30.273,-31.738,-43.945,35.645
1692044566.097,-53.223,-27.344,-33.691,-50.781,358.398
1692044566.101,-61.523,-27.344,-38.086,-62.012,208.984
1692044566.105,-75.195,-30.273,-45.410,-59.082,-223.633
1692044566.109,-62.988,-29.785,-44.434,-47.852,-160.156
1692044566.113,-51.270,-25.879,-41.504,-49.316,16.113
1692044566.115,-54.688,-26.855,-42.480,-49.316,-74.219
1692044566.119,-36.133,-20.508,-40.039,-33.691,-159.668
1692044566.123,-12.695,-16.113,-38.574,-20.508,-46.875
1692044566.127,-3.418,-26.855,-39.551,-5.371,10.254
1692044566.131,1.953,-35.645,-31.250,15.625,-93.750
1692044566.135,12.695,-33.203,-26.855,16.602,11.230
1692044566.139,7.812,-24.414,-24.902,13.184,317.383
1692044566.142,-0.977,-20.996,-19.043,17.090,220.703
1692044566.146,3.906,-23.926,-17.578,14.160,-229.004
1692044566.150,0.000,-21.484,-21.484,12.207,-201.172
1692044566.154,2.441,-20.508,-20.996,12.207,-7.324
1692044566.158,3.418,-25.391,-26.367,2.930,-130.859
1692044566.160,-4.883,-29.297,-35.645,-6.836,-210.938
1692044566.164,6.836,-24.414,-34.668,-5.859,-155.273
1692044566.168,8.301,-25.391,-31.738,0.000,-86.914
1692044566.172,0.977,-25.879,-32.715,-4.395,-86.426
1692044566.176,-0.977,-21.484,-29.297,-14.648,-189.941
1692044566.180,-7.812,-25.879,-30.762,-17.578,-83.984
1692044566.184,-10.742,-27.832,-34.180,-9.277,226.562
1692044566.187,-4.395,-31.250,-32.227,-7.324,31.738
1692044566.191,-13.672,-32.715,-31.738,-10.254,-147.949
1692044566.195,-30.762,-27.344,-31.738,-10.254,-34.668
1692044566.199,-28.809,-30.762,-32.715,-16.602,90.332
1692044566.203,-22.461,-35.645,-32.715,-18.066,42.969
1692044566.206,-11.719,-34.180,-32.715,-11.719,-79.102
1692044566.210,-12.207,-32.715,-31.250,-1.465,31.738
1692044566.214,-17.578,-27.832,-25.879,-1.465,290.527
1692044566.218,-25.391,-25.391,-26.367,-11.230,-46.875
1692044566.222,-30.762,-33.691,-27.832,-9.277,-217.285
1692044566.226,-28.809,-37.109,-33.691,-4.395,89.355
1692044566.230,-20.996,-30.762,-34.668,-10.254,81.055
1692044566.233,-23.926,-28.809,-32.227,-22.461,-177.734
1692044566.237,-29.297,-25.391,-31.738,-19.043,-214.355
1692044566.241,-21.973,-25.391,-29.297,-5.371,74.219
1692044566.245,-8.301,-27.344,-32.227,-7.324,63.965
1692044566.249,-0.977,-26.367,-30.762,-0.977,-141.602
1692044566.265,-7.812,-30.273,-24.902,-3.418,-113.281
1692044566.269,-18.555,-29.785,-24.902,-12.695,-72.266
1692044566.273,-16.113,-26.855,-25.879,-2.930,-49.805
1692044566.277,-13.672,-26.367,-28.320,0.000,-69.824
1692044566.281,-8.789,-28.320,-26.367,-5.859,-79.102
1692044566.285,-12.207,-27.832,-21.484,-7.812,177.734
1692044566.289,-26.367,-23.438,-23.926,-15.137,37.598
1692044566.292,-27.344,-26.367,-29.785,-15.137,-217.773
1692044566.296,-29.297,-27.832,-31.250,-16.113,-104.004
1692044566.300,-29.785,-26.855,-31.250,-15.625,-53.223
1692044566.304,-30.762,-28.809,-33.691,-19.043,-87.402
1692044566.308,-36.133,-21.973,-32.715,-22.949,-78.613
1692044566.310,-31.250,-18.555,-33.203,-14.648,-86.426
1692044566.314,-16.113,-25.879,-30.762,2.441,248.535
1692044566.318,-23.926,-26.367,-35.156,-18.555,73.242
1692044566.322,-42.969,-14.648,-40.039,-49.805,-197.266
1692044566.326,-45.898,-16.113,-39.062,-58.105,-75.684
1692044566.330,-43.945,-17.090,-36.621,-60.059,-41.992
1692044566.334,-35.645,-17.578,-36.621,-59.570,-29.297
1692044566.337,-29.785,-19.043,-38.574,-56.152,2.441
1692044566.341,-27.344,-19.531,-36.133,-46.875,216.797
1692044566.345,-26.855,-21.973,-36.621,-47.363,331.543
1692044566.349,-36.621,-25.879,-37.109,-52.734,-80.078
1692044566.353,-40.527,-25.391,-37.598,-52.246,-160.156
1692044566.355,-32.227,-20.996,-32.715,-48.340,-30.762
1692044566.359,-29.297,-20.508,-27.344,-47.852,-103.516
1692044566.363,-32.227,-26.367,-30.273,-53.223,-181.152
1692044566.367,-34.668,-32.227,-30.762,-55.664,-164.551
1692044566.371,-28.320,-26.855,-27.832,-36.621,-94.238
1692044566.375,-21.484,-25.391,-24.902,-18.066,3.418
1692044566.379,-20.020,-27.344,-24.414,-11.230,-26.367
1692044566.382,-21.484,-26.367,-25.879,-1.953,-53.223
1692044566.386,-34.180,-32.715,-25.879,8.789,351.074
1692044566.390,-39.551,-37.109,-25.391,8.789,145.996
1692044566.394,-36.133,-33.203,-24.414,4.883,-172.363
1692044566.398,-26.367,-31.250,-23.438,9.277,-26.367
1692044566.400,-25.879,-33.203,-24.902,-3.418,-28.809
1692044566.404,-32.715,-35.156,-28.809,-17.578,-247.559
1692044566.408,-42.480,-34.668,-34.180,-14.648,-258.301
1692044566.412,-42.969,-32.715,-33.203,-9.766,-119.141
1692044566.416,-24.902,-31.250,-30.273,-9.766,-80.566
1692044566.420,-13.672,-27.344,-35.156,-11.719,-35.645
1692044566.424,-12.207,-20.020,-37.109,-20.020,-83.984
1692044566.427,-27.832,-22.461,-30.273,-30.762,91.797
1692044566.431,-43.457,-24.902,-33.691,-32.227,217.285
1692044566.435,-43.457,-21.484,-37.109,-37.598,-132.324
1692044566.439,-39.062,-25.391,-35.645,-49.316,-145.996
1692044566.443,-36.133,-18.555,-40.039,-55.664,52.246
1692044566.445,-24.902,-12.695,-36.133,-53.711,-126.465
1692044566.449,-22.461,-19.043,-35.645,-55.664,-204.102
1692044566.453,-23.926,-20.996,-33.691,-48.340,-77.637
1692044566.457,-23.926,-22.949,-27.832,-46.875,-63.477
1692044566.461,-36.621,-25.391,-26.855,-52.734,-110.352
1692044566.465,-38.086,-26.367,-26.367,-48.828,-135.742
1692044566.469,-32.227,-28.320,-25.391,-35.645,-36.133
1692044566.472,-28.809,-33.203,-25.879,-25.391,286.621
1692044566.476,-32.715,-32.715,-27.344,-31.738,133.301
1692044566.480,-26.367,-27.832,-26.367,-31.250,-148.926
1692044566.484,-30.762,-25.879,-27.344,-17.090,-77.148
1692044566.488,-35.156,-28.320,-25.879,0.977,-10.254
1692044566.491,-22.461,-31.250,-20.020,14.648,-69.336
1692044566.495,-13.672,-26.855,-20.020,9.277,-145.996
1692044566.499,-17.090,-28.320,-23.438,0.977,21.484
1692044566.503,-21.484,-32.227,-29.785,-3.906,180.664
1692044566.507,-17.578,-31.250,-31.250,-0.488,-51.758
1692044566.511,-13.184,-30.273,-24.414,6.836,-101.562
1692044566.515,-13.184,-30.762,-22.949,2.930,208.496
1692044566.518,-16.602,-27.344,-22.949,-6.836,263.672
1692044566.522,-23.926,-20.508,-20.508,-16.113,-172.852
1692044566.526,-26.367,-23.438,-23.438,-13.184,-238.770
1692044566.530,-15.625,-22.949,-26.367,-7.812,-70.801
1692044566.534,-18.555,-23.438,-25.391,-20.508,-48.340
1692044566.535,-38.574,-30.273,-27.344,-38.086,-107.910
1692044566.539,-36.133,-30.273,-30.762,-40.527,-131.348
1692044566.543,-27.344,-23.926,-34.180,-34.180,-66.406
1692044566.547,-21.484,-22.949,-35.645,-23.926,56.152
1692044566.551,-17.090,-25.391,-36.133,-23.438,-2.441
1692044566.555,-14.648,-18.555,-34.180,-34.668,-31.738
1692044566.559,-25.391,-16.113,-33.203,-29.297,371.582
1692044566.562,-27.344,-20.020,-26.367,-33.691,222.168
1692044566.566,-15.137,-20.508,-24.902,-38.574,-199.219
1692044566.570,-10.742,-23.926,-27.832,-29.297,-175.781
1692044566.574,-8.789,-27.344,-30.762,-34.668,-121.582
1692044566.578,-10.742,-27.832,-33.203,-42.480,-99.121
1692044566.595,-16.113,-27.344,-32.715,-36.621,-208.008
1692044566.599,-14.160,-27.344,-34.180,-31.250,-93.750
1692044566.603,-12.207,-28.320,-33.691,-28.809,50.293
1692044566.607,-20.020,-29.297,-31.738,-32.715,-127.930
1692044566.611,-33.691,-29.297,-33.203,-39.062,-197.754
1692044566.615,-31.738,-28.809,-31.250,-37.109,-14.648
1692044566.619,-28.320,-30.762,-29.297,-39.551,73.242
1692044566.622,-27.344,-31.738,-26.855,-37.109,9.277
1692044566.626,-20.020,-25.391,-21.973,-20.020,-83.008
1692044566.630,-4.883,-28.809,-20.996,-0.488,133.301
1692044566.634,-26.855,-32.715,-25.391,-19.531,202.637
1692044566.638,-50.781,-30.273,-34.668,-48.340,-77.637
1692044566.640,-27.832,-28.320,-35.156,-37.598,-51.270
1692044566.644,-27.344,-27.344,-30.762,-39.062,-26.367
1692044566.648,-56.152,-28.320,-26.855,-60.059,-91.797
1692044566.652,-56.152,-27.344,-23.926,-53.711,-124.023
1692044566.656,-49.805,-29.297,-24.902,-36.621,-78.613
1692044566.660,-59.570,-28.809,-27.344,-31.738,71.289
1692044566.664,-56.152,-22.949,-28.320,-41.992,-2.930
1692044566.667,-50.293,-23.926,-29.297,-41.016,-165.039
1692044566.671,-56.152,-30.273,-30.273,-40.039,-83.496
1692044566.675,-43.945,-30.273,-28.320,-33.691,268.555
1692044566.679,-35.645,-25.391,-32.715,-24.902,132.324
1692044566.683,-46.875,-28.809,-30.762,-29.297,-120.117
1692044566.685,-53.711,-31.738,-29.785,-36.621,-18.555
1692044566.689,-58.594,-30.273,-30.273,-34.668,-3.418
1692044566.693,-60.059,-32.715,-31.738,-34.668,-169.434
1692044566.697,-42.969,-32.227,-28.320,-37.109,-157.227
1692044566.701,-41.504,-31.738,-22.949,-40.527,-48.340
1692044566.705,-52.734,-32.227,-24.902,-47.852,5.371
1692044566.709,-51.758,-30.762,-32.715,-53.223,15.137
1692044566.712,-50.293,-29.297,-29.785,-52.734,-46.387
1692044566.716,-45.898,-25.879,-28.809,-46.875,163.574
1692044566.720,-38.086,-27.832,-35.645,-47.363,232.422
1692044566.724,-35.156,-24.902,-37.598,-48.828,-88.867
1692044566.728,-37.598,-18.555,-33.691,-43.457,-117.676
1692044566.730,-37.109,-19.531,-24.902,-31.738,27.832
1692044566.734,-31.738,-23.926,-22.461,-26.855,-69.824
1692044566.738,-28.320,-26.855,-31.250,-28.320,-179.688
1692044566.742,-31.738,-21.973,-32.715,-28.809,-149.414
1692044566.746,-42.480,-24.902,-30.762,-35.645,-113.281
1692044566.750,-40.039,-29.297,-34.668,-35.645,-3.418
1692044566.754,-20.996,-28.320,-35.645,-18.555,-32.227
1692044566.757,-11.230,-30.273,-32.227,-10.742,-65.918
1692044566.761,-11.230,-29.297,-26.855,-1.953,200.684
1692044566.765,-17.090,-32.715,-20.508,-10.742,32.227
1692044566.769,-16.113,-32.715,-22.949,-10.254,-187.012
1692044566.773,-20.020,-24.414,-25.391,3.418,41.504
1692044566.776,-17.578,-25.879,-23.438,6.348,132.812
1692044566.780,-18.555,-33.691,-30.273,-6.836,6.348
1692044566.784,-22.949,-28.320,-28.809,-12.695,-86.426
1692044566.788,-26.367,-23.926,-26.367,-10.254,-67.383
1692044566.792,-29.297,-25.879,-33.691,-16.602,-30.273
1692044566.796,-18.066,-21.973,-28.809,-10.742,-57.617
1692044566.800,-12.695,-22.461,-26.367,-11.230,-32.227
1692044566.803,-22.949,-24.902,-26.855,-21.973,139.160
1692044566.807,-32.227,-27.344,-23.926,-24.902,154.297
1692044566.811,-22.461,-26.367,-29.297,-27.832,-148.926
1692044566.815,-21.973,-25.391,-37.109,-27.344,-149.902
1692044566.819,-22.949,-24.414,-29.785,-23.926,-65.918
1692044566.835,-22.461,-17.578,-21.973,-28.809,-140.137
1692044566.839,-41.016,-17.578,-20.996,-38.086,-163.086
1692044566.843,-37.109,-24.414,-22.461,-35.645,-97.656
1692044566.847,-16.602,-29.785,-24.902,-20.020,26.855
1692044566.851,-20.996,-33.691,-29.297,-20.020,17.578
1692044566.855,-36.621,-29.297,-29.297,-35.156,-7.812
1692044566.859,-39.062,-24.902,-24.902,-42.480,49.805
1692044566.862,-33.691,-27.344,-23.926,-40.039,259.766
1692044566.866,-33.691,-27.344,-26.855,-39.551,112.305
1692044566.870,-31.738,-23.438,-39.551,-48.340,-204.590
1692044566.874,-23.438,-16.602,-50.293,-36.621,-113.281
1692044566.878,-15.137,-21.484,-37.598,-13.184,-19.531
1692044566.865,-36.133,-46.387,-19.531,-30.762,-166.504
1692044566.869,-63.477,-58.594,-13.672,-50.293,-213.867
1692044566.873,-59.082,-55.664,-12.695,-42.969,-65.918
1692044566.877,-57.617,-50.293,-14.648,-41.504,-20.996
1692044566.881,-60.059,-42.969,-20.508,-48.340,-123.047
1692044566.885,-51.270,-34.668,-26.367,-35.156,11.719
1692044566.889,-41.504,-36.133,-24.414,-17.090,124.512
1692044566.892,-33.203,-41.016,-21.973,-9.766,-23.926
1692044566.896,-37.109,-39.062,-27.832,-11.719,-179.688
1692044566.900,-38.086,-42.480,-30.273,-21.484,-231.445
1692044566.904,-33.691,-44.434,-30.762,-23.438,107.910
1692044566.908,-27.832,-40.039,-33.691,-14.648,294.922
1692044566.910,-22.949,-39.551,-34.180,-17.090,-79.590
1692044566.914,-7.324,-31.738,-30.762,-13.184,-192.871
1692044566.918,-11.719,-24.414,-32.715,-15.137,-118.164
1692044566.922,-23.438,-28.809,-32.227,-21.973,-136.230
1692044566.926,-24.414,-30.273,-32.715,-21.973,-147.949
1692044566.930,-24.902,-25.391,-28.809,-16.113,47.363
1692044566.934,-21.973,-25.879,-28.320,-18.066,256.348
1692044566.937,-26.855,-21.973,-29.297,-33.691,-38.574
1692044566.941,-27.832,-16.602,-24.902,-26.367,-147.949
1692044566.945,-20.020,-26.367,-26.855,-20.020,-56.641
1692044566.949,-17.578,-29.297,-26.367,-20.996,0.977
1692044566.953,-20.020,-25.879,-27.344,-20.996,2.441
1692044566.956,-22.461,-23.926,-31.250,-27.832,-120.117
1692044566.960,-28.320,-24.902,-26.855,-28.809,5.859
1692044566.964,-31.250,-31.738,-24.414,-26.367,339.355
1692044566.968,-28.320,-34.668,-27.832,-20.996,78.613
1692044566.972,-21.973,-29.785,-29.297,-15.625,-179.688
1692044566.976,-25.879,-27.344,-30.273,-23.438,35.645
1692044566.980,-23.438,-27.832,-30.273,-31.738,66.406
1692044566.983,-23.926,-28.809,-28.320,-31.738,-111.328
