timestamps,TP9,AF7,AF8,TP10,Right AUX
1692210526.751,-34.668,-25.391,-27.344,-24.902,-67.383
1692210526.755,-25.391,-36.133,-25.391,-3.906,-95.703
1692210526.759,-35.156,-37.109,-25.879,-7.812,26.855
1692210526.763,-46.875,-37.109,-30.273,-39.551,82.520
1692210526.767,-45.898,-47.363,-26.367,-43.457,-178.711
1692210526.771,-25.391,-48.340,-21.973,-12.695,-171.875
1692210526.775,-11.719,-26.367,-24.414,3.906,191.895
1692210526.778,-37.109,-15.137,-33.203,-31.738,418.945
1692210526.782,-57.129,-16.602,-37.109,-78.125,65.430
1692210526.786,-62.012,-22.461,-34.180,-93.750,-217.285
1692210526.790,-56.641,-20.996,-28.809,-71.777,-66.406
1692210526.794,-50.293,-14.160,-32.227,-51.270,0.000
1692210526.810,-61.035,-16.113,-46.387,-69.336,-122.559
1692210526.814,-63.965,-15.137,-43.457,-86.914,-146.973
1692210526.818,-62.500,-11.230,-35.156,-101.074,-146.973
1692210526.822,-62.988,-18.555,-40.527,-94.238,-160.156
1692210526.826,-52.246,-26.367,-39.062,-57.617,-154.785
1692210526.830,-36.621,-23.926,-33.691,-39.551,-33.203
1692210526.834,-39.062,-21.973,-35.645,-56.641,317.871
1692210526.837,-42.480,-18.066,-33.203,-68.848,274.902
1692210526.841,-35.156,-14.160,-24.414,-49.316,-105.957
1692210526.845,-33.203,-20.996,-22.949,-22.949,-87.891
1692210526.849,-20.996,-17.090,-23.926,-5.371,-79.590
1692210526.853,-15.625,-15.625,-22.949,-25.879,-112.305
1692210526.840,-27.344,-27.344,-23.926,-55.176,-194.824
1692210526.844,-33.203,-26.367,-27.344,-41.504,-219.238
1692210526.848,-32.715,-22.949,-30.273,-10.742,-154.297
1692210526.852,-31.250,-20.996,-26.855,-7.324,-139.160
1692210526.856,-30.762,-20.508,-24.902,-23.926,-222.168
1692210526.860,-30.762,-20.508,-25.391,-35.645,-20.020
1692210526.864,-34.668,-20.508,-27.832,-35.156,154.785
1692210526.867,-33.691,-23.926,-27.344,-23.926,-80.078
1692210526.871,-21.484,-24.414,-28.320,-14.160,-117.188
1692210526.875,-16.113,-25.879,-31.738,-19.043,59.082
1692210526.879,-25.879,-25.391,-30.273,-34.668,311.035
1692210526.883,-31.250,-20.508,-29.297,-47.363,16.113
1692210526.900,-28.320,-22.461,-31.250,-36.133,-246.582
1692210526.904,-24.414,-27.344,-34.668,-17.090,-161.133
1692210526.908,-27.344,-31.250,-36.133,-31.250,-149.902
1692210526.912,-29.785,-32.715,-37.109,-56.641,-227.539
1692210526.916,-28.809,-25.391,-30.762,-52.734,-208.496
1692210526.920,-30.762,-26.855,-26.367,-21.973,-70.801
1692210526.924,-26.855,-32.715,-30.762,-4.883,-52.734
1692210526.927,-28.320,-29.297,-28.809,-19.531,-93.750
1692210526.931,-36.621,-28.320,-21.973,-37.598,-143.555
1692210526.935,-46.875,-29.785,-23.438,-47.363,122.559
1692210526.939,-49.805,-26.367,-26.367,-38.086,195.801
1692210526.943,-45.410,-27.832,-24.414,-25.391,-83.008
1692210526.945,-36.621,-32.715,-26.367,-25.879,-3.418
1692210526.949,-36.133,-31.738,-30.762,-41.504,20.996
1692210526.953,-47.852,-32.227,-29.785,-49.316,-77.148
1692210526.957,-37.109,-26.855,-25.391,-24.414,-90.332
1692210526.961,-20.508,-25.879,-23.438,-4.395,28.320
1692210526.965,-20.996,-23.438,-24.414,-13.184,108.887
1692210526.969,-30.762,-22.461,-27.832,-40.039,36.621
1692210526.972,-34.668,-32.715,-34.668,-54.688,-10.742
1692210526.976,-35.645,-38.086,-35.156,-41.016,109.375
1692210526.980,-34.180,-34.668,-36.133,-21.973,98.145
1692210526.984,-28.809,-35.156,-38.086,-24.414,-20.996
1692210526.988,-26.855,-32.715,-34.180,-43.945,-134.766
1692210526.990,-32.715,-33.691,-32.715,-55.664,20.020
1692210526.994,-33.691,-38.574,-32.227,-48.340,337.402
1692210526.998,-17.090,-35.645,-31.250,-29.297,29.785
1692210527.002,-17.578,-32.715,-37.109,-19.531,-172.852
1692210527.006,-31.738,-34.668,-38.574,-34.668,-64.941
1692210527.010,-36.133,-37.109,-30.273,-51.270,10.742
1692210527.014,-44.922,-34.180,-29.297,-47.363,-2.930
1692210527.017,-40.527,-33.203,-30.273,-30.273,-83.984
1692210527.021,-26.855,-29.785,-31.250,-24.414,162.598
1692210527.025,-23.926,-23.438,-26.367,-37.598,151.367
1692210527.029,-33.203,-21.484,-27.832,-55.664,-143.066
1692210527.033,-39.062,-19.043,-31.250,-56.641,-117.676
1692210527.035,-37.109,-23.438,-25.391,-35.156,1.953
1692210527.039,-32.227,-25.391,-21.973,-14.648,-32.715
1692210527.043,-35.156,-22.949,-22.949,-23.438,-97.656
1692210527.047,-47.363,-30.273,-22.461,-36.621,40.039
1692210527.051,-41.504,-31.738,-19.043,-35.156,73.242
1692210527.055,-34.180,-23.438,-20.996,-30.273,-16.602
1692210527.059,-31.250,-20.508,-24.414,-14.160,26.367
1692210527.062,-33.203,-26.855,-22.461,-14.648,237.793
1692210527.066,-44.434,-29.785,-19.531,-34.668,477.051
1692210527.070,-36.621,-24.902,-19.531,-39.062,99.121
1692210527.074,-23.438,-20.508,-20.996,-17.090,-234.863
1692210527.078,-20.996,-17.578,-20.020,-6.836,-137.207
1692210527.080,-26.367,-22.949,-20.996,-17.090,-120.605
1692210527.084,-37.109,-31.250,-26.855,-37.598,-184.570
1692210527.088,-45.410,-35.645,-28.320,-55.176,-173.828
1692210527.092,-48.828,-38.574,-30.273,-41.016,-50.781
1692210527.096,-34.668,-30.762,-24.414,-17.090,-42.969
1692210527.100,-28.809,-25.391,-20.508,-23.926,13.672
1692210527.104,-41.504,-31.250,-25.879,-45.410,53.711
1692210527.107,-53.223,-35.645,-25.879,-49.316,184.082
1692210527.111,-54.688,-35.645,-26.855,-44.922,134.277
1692210527.115,-42.480,-28.320,-21.484,-28.809,-194.824
1692210527.119,-37.598,-25.879,-20.020,-24.414,-191.895
1692210527.123,-32.715,-32.715,-22.949,-44.922,-143.066
1692210527.140,-32.715,-26.855,-18.555,-49.316,-182.617
1692210527.144,-36.133,-21.973,-23.438,-37.109,-189.453
1692210527.148,-21.973,-25.879,-28.809,-20.996,-103.027
1692210527.152,-10.254,-26.855,-25.879,-22.949,-63.965
1692210527.156,-6.836,-20.020,-27.344,-34.668,-99.121
1692210527.160,-13.672,-16.113,-23.926,-36.133,-85.449
1692210527.164,-19.043,-19.531,-21.973,-21.973,201.660
1692210527.167,-15.625,-19.043,-25.391,0.488,432.129
1692210527.171,-16.113,-16.602,-21.973,-0.488,130.859
1692210527.175,-23.438,-18.555,-26.367,-26.367,-147.949
1692210527.179,-40.527,-24.414,-28.809,-52.734,-31.250
1692210527.183,-47.852,-25.879,-28.320,-48.340,78.613
1692210527.170,-36.133,-25.391,-28.320,-27.832,-140.137
1692210527.174,-20.996,-25.391,-36.133,-20.996,-156.250
1692210527.178,-0.977,-11.719,-53.223,-25.391,-124.512
1692210527.182,-4.883,-17.090,-40.039,-32.715,-156.250
1692210527.186,-33.203,-34.180,-15.137,-35.645,-199.219
1692210527.190,-39.551,-32.715,-18.555,-26.367,-84.473
1692210527.194,-23.438,-32.227,-25.391,-7.324,103.027
1692210527.197,-17.090,-40.527,-26.367,-8.301,-26.855
1692210527.201,-21.484,-44.434,-23.926,-28.320,-193.848
1692210527.205,-21.973,-43.457,-22.461,-24.902,-156.738
1692210527.209,-15.137,-47.363,-19.043,8.789,247.070
1692210527.213,9.277,-43.945,-16.113,36.133,277.832
1692210527.230,10.254,-43.457,-20.020,20.508,-117.676
1692210527.234,2.930,-41.992,-20.020,1.465,-131.348
1692210527.238,0.000,-41.992,-14.648,1.953,-118.652
1692210527.242,3.906,-44.922,-11.719,21.973,-125.000
1692210527.246,18.555,-41.016,-10.254,43.945,-122.070
1692210527.250,13.184,-39.551,-8.301,28.809,64.941
1692210527.254,-2.930,-43.945,-15.137,3.906,193.848
1692210527.257,-6.348,-41.992,-23.438,1.465,-36.621
1692210527.261,-6.348,-38.086,-21.484,6.348,-140.625
1692210527.265,-10.254,-42.969,-19.043,14.648,44.434
1692210527.269,-11.719,-43.945,-21.484,9.277,270.996
1692210527.273,-18.555,-51.270,-28.809,-17.090,-42.480
1692210527.275,-32.227,-56.641,-24.902,-27.344,-269.043
1692210527.279,-38.086,-50.781,-20.996,-8.789,-65.918
1692210527.283,-28.809,-46.387,-26.367,4.883,-20.996
1692210527.287,-21.484,-44.922,-27.832,-7.324,-178.711
1692210527.291,-24.414,-43.945,-24.902,-24.414,-160.645
1692210527.295,-30.762,-40.527,-25.879,-30.762,7.324
1692210527.299,-36.133,-36.621,-29.297,-22.461,42.480
1692210527.302,-27.832,-32.227,-31.738,-5.859,-81.055
1692210527.306,-21.973,-35.645,-26.855,-10.742,-141.113
1692210527.310,-26.367,-37.598,-24.414,-22.461,169.434
1692210527.314,-29.297,-33.203,-30.273,-28.320,110.840
1692210527.318,-29.785,-34.180,-28.809,-22.461,-210.449
1692210527.335,-21.973,-34.668,-28.809,0.977,-65.918
1692210527.339,-8.789,-29.785,-25.879,9.766,61.035
1692210527.343,-10.254,-28.320,-20.020,-12.695,-142.578
1692210527.347,-25.391,-29.785,-18.066,-41.992,-246.582
1692210527.351,-29.297,-32.227,-20.996,-32.715,-76.660
1692210527.355,-26.855,-38.086,-22.461,-0.488,80.566
1692210527.359,-24.414,-36.621,-17.578,-2.930,57.617
1692210527.362,-22.461,-32.227,-22.461,-21.484,43.945
1692210527.366,-26.367,-34.180,-26.855,-33.203,137.695
1692210527.370,-25.879,-35.156,-20.996,-24.414,382.812
1692210527.374,-20.996,-28.809,-17.578,0.000,121.582
1692210527.378,-15.137,-24.414,-19.043,8.789,-223.145
1692210527.365,-6.836,-29.785,-24.902,-8.301,-186.523
1692210527.369,-16.602,-33.203,-25.391,-30.762,-184.082
1692210527.373,-32.227,-36.621,-20.508,-23.926,-216.797
1692210527.377,-30.762,-37.598,-22.461,-6.348,-121.582
1692210527.381,-28.809,-37.598,-25.879,1.953,61.035
1692210527.385,-36.621,-41.504,-24.414,-11.230,42.480
1692210527.389,-51.270,-37.598,-21.484,-42.969,-3.906
1692210527.392,-59.082,-33.691,-23.438,-58.594,-79.102
1692210527.396,-49.316,-27.344,-26.367,-35.645,-115.234
1692210527.400,-37.598,-25.879,-26.367,-18.066,-131.836
1692210527.404,-45.410,-30.762,-26.367,-33.691,-180.176
1692210527.408,-52.734,-33.691,-20.508,-48.340,-114.258
1692210527.410,-56.152,-31.738,-20.508,-47.363,151.855
1692210527.414,-55.176,-32.715,-31.250,-37.598,69.336
1692210527.418,-44.434,-36.133,-31.738,-27.344,-142.090
1692210527.422,-35.156,-37.598,-23.926,-30.273,-85.449
1692210527.426,-40.527,-32.227,-24.902,-49.316,-41.992
1692210527.430,-48.828,-26.367,-31.250,-61.035,-59.082
1692210527.434,-49.805,-29.297,-28.809,-46.875,-90.820
1692210527.437,-42.480,-31.250,-29.785,-25.879,143.066
1692210527.441,-30.273,-30.273,-21.973,-18.555,629.883
1692210527.445,-27.832,-31.250,-18.555,-37.109,394.043
1692210527.449,-26.855,-32.715,-25.879,-55.664,-176.758
1692210527.453,-23.438,-30.273,-23.438,-37.109,-201.172
1692210527.455,-16.602,-23.926,-17.090,-5.859,-160.156
1692210527.459,-16.113,-23.438,-19.043,-7.812,-187.988
1692210527.463,-24.414,-29.297,-20.020,-30.273,-140.137
1692210527.467,-23.926,-29.297,-20.996,-41.016,-90.332
1692210527.471,-24.902,-24.414,-26.855,-29.297,-146.484
1692210527.475,-20.996,-29.297,-31.738,-8.789,-142.578
1692210527.479,-14.160,-30.273,-32.227,-1.465,-45.410
1692210527.482,-18.555,-27.832,-28.320,-13.184,217.285
1692210527.486,-20.996,-31.250,-27.344,-28.320,151.855
1692210527.490,-26.855,-38.086,-28.320,-29.297,-213.867
1692210527.494,-28.320,-43.457,-27.832,-15.137,-160.645
1692210527.498,-21.973,-41.992,-24.414,-5.371,-50.781
1692210527.500,-25.391,-36.621,-26.367,-30.273,-148.438
1692210527.504,-30.762,-31.250,-29.785,-50.293,-196.289
1692210527.508,-34.180,-33.691,-32.227,-41.992,-111.816
1692210527.512,-39.551,-36.621,-29.297,-23.438,-38.086
1692210527.516,-37.598,-39.062,-27.344,-19.531,-33.203
1692210527.520,-34.180,-38.574,-30.273,-30.273,-34.180
1692210527.524,-37.598,-32.227,-28.320,-43.945,105.957
1692210527.527,-47.363,-32.715,-27.832,-42.969,366.211
1692210527.531,-45.898,-32.715,-28.320,-22.461,115.723
1692210527.535,-34.180,-32.715,-25.391,-11.719,-157.227
1692210527.539,-33.691,-41.016,-24.414,-21.484,-35.156
1692210527.543,-36.621,-40.527,-21.973,-40.039,-51.758
1692210527.545,-35.156,-38.086,-20.996,-46.875,-193.359
1692210527.549,-29.297,-38.574,-23.438,-29.297,-201.660
1692210527.553,-29.785,-36.133,-27.344,-12.207,-64.453
1692210527.557,-25.879,-37.109,-27.344,-22.949,-5.859
1692210527.561,-24.414,-35.645,-25.879,-41.992,-150.391
1692210527.565,-23.926,-32.715,-25.879,-47.852,-102.539
1692210527.569,-17.090,-29.297,-24.902,-25.879,208.008
1692210527.572,-19.043,-25.879,-28.809,-10.742,101.562
1692210527.576,-21.973,-26.367,-28.809,-20.508,-174.805
1692210527.580,-28.809,-21.484,-24.414,-28.809,-143.555
1692210527.584,-39.551,-26.855,-31.738,-45.410,-87.891
1692210527.588,-15.625,-44.434,-26.367,-13.672,-130.371
1692210527.591,17.578,-42.969,-11.719,34.668,-193.359
1692210527.595,-11.719,-27.832,-22.949,-6.836,37.109
1692210527.599,-59.570,-23.926,-26.367,-72.754,155.762
1692210527.603,-74.219,-32.227,-19.043,-85.938,-89.355
1692210527.607,-91.797,-33.691,-22.461,-85.938,-170.898
1692210527.611,-116.699,-30.762,-32.227,-98.145,28.320
1692210527.615,-128.418,-24.902,-40.527,-116.699,215.820
1692210527.618,-134.766,-21.973,-32.227,-142.578,18.555
1692210527.622,-148.926,-24.902,-27.832,-164.551,-126.953
1692210527.626,-160.645,-16.113,-33.691,-163.086,79.102
1692210527.630,-160.645,-10.742,-37.109,-148.926,240.723
1692210527.634,-145.996,-16.602,-34.180,-141.602,-55.176
1692210527.650,-143.555,-16.113,-37.109,-164.062,-158.691
1692210527.654,-154.785,-16.113,-47.363,-192.383,-138.672
1692210527.658,-151.367,-19.531,-43.945,-175.781,-156.250
1692210527.662,-133.301,-21.973,-40.527,-143.555,-55.176
1692210527.666,-124.512,-33.203,-42.480,-131.836,-59.570
1692210527.670,-116.699,-40.039,-38.574,-132.812,214.355
1692210527.674,-104.980,-36.621,-40.039,-135.254,313.477
1692210527.677,-96.680,-33.691,-38.574,-124.023,-137.695
1692210527.681,-79.590,-29.785,-38.086,-92.773,-63.965
1692210527.685,-63.965,-24.902,-43.945,-77.637,96.680
1692210527.689,-59.570,-23.438,-40.039,-85.938,-94.727
1692210527.693,-66.895,-22.949,-38.574,-103.516,-181.152
1692210527.695,-65.430,-26.855,-41.016,-97.656,-81.543
1692210527.699,-47.852,-29.297,-37.598,-72.754,-50.781
1692210527.703,-36.621,-27.832,-40.039,-58.105,-72.266
1692210527.707,-35.156,-26.367,-39.551,-65.918,-99.609
1692210527.711,-36.621,-28.809,-33.203,-84.961,-53.223
1692210527.715,-37.109,-30.273,-33.203,-72.754,78.125
1692210527.719,-36.133,-30.273,-24.414,-34.668,103.516
1692210527.722,-25.879,-31.250,-22.949,-21.484,78.613
1692210527.726,-24.902,-37.598,-27.832,-32.715,179.688
1692210527.730,-34.180,-43.945,-26.855,-44.434,418.945
1692210527.734,-38.574,-40.039,-38.086,-58.105,229.980
1692210527.738,-40.527,-38.574,-45.898,-39.551,-158.203
1692210527.740,-36.621,-37.109,-36.621,-7.324,-119.141
1692210527.744,-27.344,-32.715,-32.227,-13.672,-92.773
1692210527.748,-28.320,-23.926,-31.738,-44.434,-174.805
1692210527.752,-32.715,-19.043,-31.250,-53.223,-181.152
1692210527.756,-31.250,-23.438,-35.156,-33.203,-106.445
1692210527.760,-27.832,-23.438,-37.109,-10.742,0.977
1692210527.764,-20.020,-18.555,-31.250,1.465,11.230
1692210527.767,-12.207,-21.973,-28.320,-20.996,-118.652
1692210527.771,-15.137,-29.297,-27.832,-39.551,151.855
1692210527.775,-19.531,-28.320,-29.785,-21.973,176.270
1692210527.779,-13.184,-23.438,-28.809,-5.371,-216.797
1692210527.783,-13.672,-20.508,-27.344,-3.906,-145.996
1692210527.785,-26.367,-23.438,-30.762,-25.391,-74.707
1692210527.789,-31.738,-24.414,-27.832,-43.945,-162.109
1692210527.793,-26.367,-24.414,-26.855,-27.832,-148.926
1692210527.797,-19.531,-28.809,-26.855,-14.648,-22.949
1692210527.801,-16.602,-36.133,-26.367,-16.113,13.672
1692210527.805,-28.809,-38.574,-26.855,-27.832,-48.828
1692210527.809,-41.016,-34.668,-27.344,-38.574,-95.703
1692210527.812,-35.156,-33.691,-24.414,-22.949,125.977
1692210527.816,-35.156,-34.180,-25.879,-4.883,490.234
1692210527.820,-26.855,-35.156,-23.438,0.000,161.621
1692210527.824,-30.273,-37.109,-21.484,-22.949,-200.195
1692210527.828,-41.504,-37.598,-22.949,-47.852,-92.773
1692210527.830,-38.574,-28.809,-18.555,-33.203,-106.445
1692210527.834,-27.344,-24.902,-23.438,-11.230,-156.250
1692210527.838,-14.160,-31.738,-32.715,-14.648,-120.605
1692210527.842,-10.254,-32.227,-34.180,-30.762,-37.598
1692210527.846,-16.113,-23.926,-32.227,-49.805,-73.242
1692210527.850,-31.250,-26.855,-32.227,-46.875,-86.914
1692210527.854,-29.297,-29.785,-34.180,-23.926,0.000
1692210527.857,-26.855,-21.973,-29.297,-11.230,170.410
1692210527.861,-35.645,-22.461,-29.785,-27.344,74.219
1692210527.865,-35.156,-27.832,-31.250,-43.945,-226.074
1692210527.869,-33.691,-31.738,-36.133,-46.387,-147.461
1692210527.873,-24.902,-33.691,-35.645,-32.227,-95.215
1692210527.876,-26.367,-30.273,-31.738,-22.949,-121.582
1692210527.880,-30.273,-31.250,-33.691,-36.621,-124.512
1692210527.884,-13.184,-41.992,-28.809,-31.250,92.285
1692210527.888,-6.348,-34.180,-29.785,-20.020,174.805
1692210527.892,-40.039,-17.578,-35.645,-45.410,-48.828
1692210527.896,-57.617,-13.672,-40.039,-62.500,-30.273
1692210527.900,-62.012,-18.066,-40.039,-73.242,242.676
1692210527.903,-73.242,-25.391,-39.062,-83.008,366.699
1692210527.907,-62.988,-20.020,-36.133,-85.449,-24.414
1692210527.911,-52.734,-12.207,-33.203,-75.684,-265.625
1692210527.915,-55.664,-13.184,-35.156,-62.012,2.441
1692210527.919,-57.129,-21.484,-34.668,-66.895,127.930
1692210527.920,-51.270,-24.902,-34.180,-78.125,-193.848
1692210527.924,-57.617,-24.902,-32.715,-79.102,-226.562
1692210527.928,-61.523,-24.902,-33.203,-61.035,-131.348
1692210527.932,-45.898,-26.855,-30.273,-37.598,-154.297
1692210527.936,-30.762,-24.902,-23.438,-33.203,-93.750
1692210527.940,-35.645,-18.066,-19.531,-53.223,31.738
1692210527.944,-41.504,-16.602,-21.484,-62.988,280.273
1692210527.947,-34.180,-17.090,-27.344,-45.898,285.645
1692210527.951,-30.762,-21.484,-30.273,-34.180,-80.078
1692210527.955,-33.203,-27.832,-33.203,-37.598,-129.883
1692210527.959,-44.434,-26.855,-30.762,-52.246,-96.680
1692210527.963,-47.852,-25.879,-29.785,-69.336,-196.777
1692210527.965,-42.969,-26.367,-36.133,-60.547,-229.004
1692210527.969,-34.668,-27.344,-32.715,-31.250,-100.586
1692210527.973,-24.414,-26.855,-28.320,-20.996,-7.812
1692210527.977,-18.066,-20.996,-27.344,-41.992,-93.262
1692210527.981,-14.648,-21.973,-30.762,-49.316,-182.129
1692210527.985,-21.973,-28.320,-27.832,-40.039,46.875
1692210527.989,-25.391,-34.180,-29.785,-31.250,225.098
1692210527.992,-14.648,-26.367,-27.832,-12.207,49.805
1692210527.996,-14.160,-17.090,-28.809,-28.320,-71.777
1692210528.000,-20.996,-17.090,-31.738,-47.852,45.898
1692210528.004,-25.391,-21.973,-25.391,-40.039,355.957
1692210528.008,-29.297,-28.320,-24.902,-35.645,80.078
1692210528.025,-24.414,-25.879,-20.020,-26.855,-201.660
1692210528.029,-18.066,-20.508,-16.113,-28.809,-115.234
1692210528.033,-21.484,-18.066,-21.484,-41.016,-132.324
1692210528.037,-23.438,-13.184,-24.902,-41.504,-195.312
1692210528.041,-14.160,-12.207,-23.438,-19.043,-152.832
1692210528.045,-14.648,-22.461,-20.020,-8.789,41.992
1692210528.049,-16.602,-23.926,-22.461,-18.066,-9.277
1692210528.052,-16.113,-15.137,-30.762,-36.133,-164.551
1692210528.056,-20.508,-14.648,-28.809,-41.016,-179.199
1692210528.060,-24.902,-24.414,-27.344,-23.438,226.074
1692210528.064,-18.066,-25.879,-30.273,-4.883,247.559
1692210528.068,-16.602,-20.996,-33.203,-10.742,-169.922
1692210528.085,-25.879,-26.855,-35.156,-32.227,-139.160
1692210528.089,-27.832,-25.879,-32.227,-39.062,-59.570
1692210528.093,-27.344,-25.879,-29.297,-29.297,-141.602
1692210528.097,-22.949,-28.320,-30.273,-13.184,-154.297
1692210528.101,-21.973,-23.926,-30.762,-11.719,-54.688
1692210528.105,-24.902,-23.926,-27.832,-24.414,-8.301
1692210528.109,-26.367,-26.855,-27.344,-38.086,-30.762
1692210528.112,-26.367,-33.203,-26.855,-33.691,-65.918
1692210528.116,-19.043,-44.434,-30.762,-20.508,98.633
1692210528.120,-18.555,-36.621,-30.273,-16.602,419.434
1692210528.124,-26.855,-25.391,-22.461,-33.691,140.625
1692210528.128,-29.785,-29.785,-19.531,-46.875,-144.043
1692210528.115,-30.762,-29.785,-16.113,-29.297,7.324
1692210528.119,-25.391,-29.297,-14.160,-11.230,-22.461
1692210528.123,-26.855,-34.668,-16.113,-22.949,-145.020
1692210528.127,-41.016,-35.645,-20.996,-45.410,-146.973
1692210528.131,-44.434,-29.297,-20.996,-50.781,-63.965
1692210528.135,-41.016,-26.855,-19.043,-39.551,16.602
1692210528.139,-27.832,-29.785,-19.043,-18.555,46.387
1692210528.142,-15.625,-31.250,-18.555,-1.953,16.602
1692210528.146,-25.391,-33.203,-17.578,-26.367,-21.973
1692210528.150,-37.109,-35.156,-19.043,-46.875,-98.145
1692210528.154,-32.715,-34.180,-25.879,-39.551,-166.016
1692210528.158,-25.391,-30.273,-25.391,-28.809,-117.188
1692210528.161,-28.320,-27.344,-19.043,-20.020,166.016
1692210528.165,-27.344,-21.973,-20.020,-23.926,81.055
1692210528.169,-28.809,-22.461,-20.996,-40.527,-130.859
1692210528.173,-25.879,-23.438,-19.043,-31.738,5.371
1692210528.177,-22.461,-28.809,-26.367,-4.395,94.238
1692210528.181,-19.531,-37.109,-29.785,0.488,-7.324
1692210528.185,-16.113,-34.668,-31.250,-16.602,-147.949
1692210528.188,-21.484,-29.785,-28.320,-37.109,-11.230
1692210528.192,-32.715,-30.762,-25.391,-37.598,349.121
1692210528.196,-28.320,-27.344,-29.297,-19.531,113.281
1692210528.200,-30.273,-31.250,-24.414,-15.137,-185.059
1692210528.204,-34.668,-35.645,-23.926,-25.879,-145.020
1692210528.205,-37.109,-32.227,-20.020,-46.875,-195.312
1692210528.209,-30.273,-25.879,-22.949,-34.180,-250.000
1692210528.213,-12.695,-20.020,-28.809,8.301,-170.898
1692210528.217,-35.645,-31.738,-17.578,-6.836,-63.477
1692210528.221,-69.824,-44.922,-14.648,-52.246,-61.035
1692210528.225,-68.359,-43.457,-20.996,-62.012,-6.836
1692210528.229,-65.430,-35.156,-23.438,-62.988,3.418
1692210528.232,-79.102,-29.297,-33.691,-54.688,295.898
1692210528.236,-75.684,-33.691,-31.738,-38.086,347.656
1692210528.240,-69.336,-37.598,-27.344,-50.293,-113.281
1692210528.244,-83.008,-40.527,-33.691,-88.867,-190.430
1692210528.248,-80.566,-29.785,-31.738,-88.867,-140.137
1692210528.250,-66.406,-19.531,-31.738,-56.641,-166.992
1692210528.254,-59.082,-27.832,-37.109,-36.133,-194.336
1692210528.258,-45.410,-38.574,-34.180,-30.273,-46.875
1692210528.262,-48.340,-46.875,-33.691,-54.199,55.176
1692210528.266,-54.199,-49.316,-32.715,-67.383,-91.797
1692210528.270,-45.898,-42.480,-31.250,-40.039,-43.457
1692210528.274,-41.992,-37.598,-37.598,-13.672,243.164
1692210528.277,-38.574,-35.156,-35.645,-15.625,415.039
1692210528.281,-35.156,-33.203,-26.855,-41.504,112.305
1692210528.285,-37.109,-33.691,-26.855,-59.570,-177.734
1692210528.289,-30.273,-31.738,-22.949,-41.016,34.668
1692210528.293,-17.090,-30.762,-18.555,-9.766,165.527
1692210528.295,-15.137,-24.902,-28.320,-7.812,-145.996
1692210528.299,-26.367,-26.367,-30.762,-37.109,-213.379
1692210528.303,-37.598,-34.180,-24.902,-54.199,-140.625
1692210528.307,-41.992,-36.133,-25.391,-39.551,-155.273
1692210528.311,-37.109,-33.203,-28.320,-12.695,-190.918
1692210528.315,-37.598,-22.949,-31.738,-2.441,-101.074
1692210528.319,-39.062,-23.438,-34.668,-19.531,276.367
1692210528.322,-39.551,-39.062,-30.273,-41.992,194.824
1692210528.326,-42.480,-36.133,-28.809,-41.992,-205.078
1692210528.330,-35.156,-31.250,-32.715,-22.949,-108.398
1692210528.334,-27.832,-34.668,-30.762,-16.602,45.410
1692210528.338,-30.762,-30.273,-30.273,-36.621,-71.289
1692210528.340,-35.156,-27.344,-33.691,-59.570,-191.406
1692210528.344,-35.645,-33.691,-35.156,-60.547,-119.629
1692210528.348,-35.156,-28.320,-33.203,-43.945,-62.500
1692210528.352,-32.227,-18.555,-26.855,-32.227,-112.305
1692210528.356,-38.574,-23.438,-29.297,-43.457,-157.715
1692210528.360,-44.434,-28.320,-35.156,-62.012,98.145
1692210528.364,-49.805,-31.738,-39.551,-63.477,196.289
1692210528.367,-40.527,-26.855,-40.527,-41.016,1.465
1692210528.371,-22.949,-18.066,-37.109,-18.066,-48.340
1692210528.375,-19.531,-20.508,-36.133,-23.438,91.797
1692210528.379,-23.926,-26.855,-36.133,-42.969,229.980
1692210528.383,-29.785,-27.832,-33.203,-38.574,-72.754
1692210528.400,-26.855,-25.879,-30.762,-19.531,-66.895
1692210528.404,-16.113,-30.273,-34.180,-10.254,60.547
1692210528.408,-16.602,-32.227,-34.180,-22.949,-28.809
1692210528.412,-31.250,-33.203,-28.809,-43.457,-199.219
1692210528.416,-37.109,-33.691,-31.250,-46.875,-175.781
1692210528.420,-36.133,-34.180,-38.574,-31.738,73.242
1692210528.424,-38.086,-40.039,-39.551,-17.090,131.348
1692210528.427,-35.645,-38.086,-33.203,-26.367,-70.801
1692210528.431,-45.898,-41.016,-30.273,-50.293,-171.875
1692210528.435,-55.176,-47.363,-32.715,-57.129,49.805
1692210528.439,-53.223,-41.992,-30.762,-37.598,24.414
1692210528.443,-50.781,-39.551,-32.715,-18.066,-164.062
1692210528.446,-48.828,-44.434,-33.203,-18.555,-106.934
1692210528.450,-46.387,-44.922,-29.297,-36.621,-99.609
1692210528.454,-48.828,-34.668,-30.273,-53.223,-116.699
1692210528.458,-49.316,-32.227,-25.879,-37.109,-151.855
1692210528.462,-27.344,-44.434,-19.531,0.000,-5.371
1692210528.466,-16.602,-37.109,-20.996,-9.277,188.965
1692210528.470,-23.438,-24.414,-23.438,-51.758,-33.203
1692210528.473,-26.367,-25.879,-27.832,-60.059,-147.461
1692210528.477,-28.809,-28.320,-35.645,-46.387,33.203
1692210528.481,-29.785,-29.785,-36.133,-22.949,406.250
1692210528.485,-28.320,-28.320,-34.180,-26.367,167.480
1692210528.489,-25.879,-22.949,-32.715,-47.363,-247.559
1692210528.490,-26.855,-19.043,-33.691,-55.176,-171.875
1692210528.494,-23.926,-24.902,-31.738,-41.016,-119.629
1692210528.498,-20.020,-33.691,-29.785,-14.648,-127.441
1692210528.502,-18.555,-32.715,-29.297,-9.277,-64.941
1692210528.506,-21.484,-34.668,-28.320,-28.809,-21.973
1692210528.510,-27.832,-38.086,-29.785,-46.875,-52.734
1692210528.514,-32.227,-34.180,-28.320,-41.992,37.109
1692210528.517,-27.344,-32.715,-28.320,-23.926,27.832
1692210528.521,-19.043,-34.180,-30.762,-16.113,244.141
1692210528.525,-22.461,-35.645,-33.691,-27.832,270.020
1692210528.529,-23.926,-32.227,-32.227,-46.875,-178.711
1692210528.533,-23.926,-23.926,-28.320,-42.969,-178.711
1692210528.535,-23.926,-23.926,-26.855,-20.996,-95.215
1692210528.539,-20.996,-36.133,-30.273,-13.672,-146.484
1692210528.543,-18.066,-40.039,-30.762,-26.367,-204.590
1692210528.547,-26.367,-33.691,-30.273,-47.852,-80.566
1692210528.551,-40.527,-30.762,-34.180,-54.688,13.184
1692210528.555,-42.480,-31.738,-29.785,-36.621,-21.484
1692210528.559,-29.297,-35.645,-28.320,-20.996,-38.086
1692210528.562,-20.996,-35.156,-33.203,-29.297,41.016
1692210528.566,-38.086,-33.691,-31.738,-43.945,462.891
1692210528.570,-46.387,-26.367,-25.879,-44.434,324.219
1692210528.574,-37.109,-21.484,-25.391,-30.273,-127.930
1692210528.578,-30.273,-23.438,-32.227,-18.555,-134.766
1692210528.580,-29.785,-31.738,-34.180,-27.832,-108.398
1692210528.584,-36.133,-35.645,-31.738,-55.176,-180.664
1692210528.588,-38.086,-28.809,-27.344,-58.594,-199.219
1692210528.592,-38.574,-32.227,-29.297,-36.133,-147.949
1692210528.596,-28.320,-30.273,-33.203,-23.926,-131.836
1692210528.600,-20.508,-22.461,-30.762,-25.391,-125.000
1692210528.604,-28.320,-28.320,-33.203,-50.781,-122.070
1692210528.607,-28.320,-32.715,-36.133,-59.082,155.273
1692210528.611,-21.973,-32.715,-27.832,-39.062,139.648
1692210528.615,-13.184,-25.391,-23.438,-18.555,-199.707
1692210528.619,-20.996,-29.785,-33.691,-21.484,-58.594
1692210528.623,-30.762,-40.039,-32.715,-39.551,49.316
1692210528.625,-33.203,-29.785,-26.855,-44.922,-137.695
1692210528.629,-36.133,-25.879,-27.344,-35.645,-218.262
1692210528.633,-23.926,-35.645,-28.809,-18.066,-72.754
1692210528.637,-21.484,-37.598,-34.180,-15.137,-62.500
1692210528.641,-19.531,-34.668,-33.691,-19.531,-141.602
1692210528.645,-12.207,-34.180,-26.367,-25.391,-28.809
1692210528.649,-28.320,-30.273,-32.715,-28.809,208.984
1692210528.652,-33.691,-18.555,-39.062,-25.391,368.652
1692210528.656,-21.484,-15.137,-35.156,-25.879,94.238
1692210528.660,-26.367,-32.715,-30.273,-41.504,-174.805
1692210528.664,-39.062,-38.574,-33.691,-62.988,-83.008
1692210528.668,-39.551,-33.203,-37.598,-56.641,-56.641
1692210528.671,-26.367,-28.809,-30.273,-21.484,-125.000
1692210528.675,-14.648,-27.344,-29.785,-8.301,-107.422
1692210528.679,-17.578,-32.227,-34.180,-27.344,-45.898
1692210528.683,-21.973,-33.203,-36.133,-45.410,-65.430
1692210528.687,-27.344,-21.973,-37.598,-44.922,-149.902
1692210528.691,-23.438,-21.484,-34.668,-22.949,-25.391
1692210528.695,-26.367,-25.391,-31.250,-18.555,280.762
1692210528.698,-37.109,-24.902,-35.645,-36.133,187.500
1692210528.702,-42.480,-30.273,-37.109,-51.270,-159.180
1692210528.706,-41.504,-31.738,-33.691,-50.781,-132.324
1692210528.710,-41.992,-35.645,-31.738,-32.715,-5.859
1692210528.714,-34.668,-36.133,-30.273,-12.695,-48.828
1692210528.715,-34.668,-35.156,-25.879,-16.602,-86.426
1692210528.719,-41.016,-35.156,-24.414,-45.410,-105.469
1692210528.723,-31.738,-28.320,-26.855,-48.340,-58.105
1692210528.727,-26.367,-26.855,-23.438,-34.180,3.418
1692210528.731,-22.949,-24.902,-23.926,-20.996,-88.867
1692210528.735,-14.648,-18.066,-26.855,-21.484,60.059
1692210528.739,-15.625,-15.625,-22.461,-31.738,375.488
1692210528.742,-19.043,-18.555,-23.438,-37.598,140.625
1692210528.746,-18.555,-22.461,-29.297,-26.367,-166.992
1692210528.750,-6.836,-20.508,-24.902,4.395,40.039
1692210528.754,-7.812,-22.461,-22.949,-1.953,169.922
1692210528.758,-22.949,-26.367,-25.879,-36.133,-102.539
1692210528.775,-21.973,-24.414,-21.484,-40.039,-158.691
1692210528.779,-23.438,-21.484,-19.043,-26.367,-103.516
1692210528.783,-27.832,-21.484,-21.484,-19.531,-117.188
1692210528.787,-20.020,-24.902,-24.414,-16.113,-140.137
1692210528.791,-25.879,-22.461,-26.367,-32.715,-83.496
1692210528.795,-37.598,-21.484,-28.809,-44.434,36.133
1692210528.799,-33.691,-24.902,-33.691,-22.949,28.809
1692210528.802,-24.414,-20.996,-36.621,-8.789,12.207
1692210528.806,-20.996,-24.414,-29.785,-7.812,-69.824
1692210528.810,-32.227,-26.855,-20.508,-18.066,163.086
1692210528.814,-42.480,-27.344,-23.926,-43.457,257.324
1692210528.818,-42.480,-31.250,-29.297,-50.781,-126.465
1692210528.820,-39.551,-29.297,-27.344,-32.715,-100.098
1692210528.824,-36.133,-26.367,-24.902,-25.879,0.488
1692210528.828,-41.016,-22.949,-20.996,-44.922,-116.699
1692210528.832,-45.898,-22.461,-17.090,-54.199,-202.637
1692210528.836,-43.945,-28.809,-25.391,-47.363,-40.527
1692210528.840,-40.527,-32.715,-30.762,-23.438,127.441
1692210528.844,-35.645,-31.250,-25.391,-10.742,76.660
1692210528.847,-26.855,-27.344,-27.832,-28.320,-35.645
1692210528.851,-33.691,-29.297,-26.855,-41.992,187.500
1692210528.855,-36.621,-24.902,-24.414,-31.738,336.426
1692210528.859,-20.996,-21.484,-28.809,-15.137,-47.852
1692210528.863,-13.184,-28.320,-25.879,-9.766,-272.461
1692210528.865,-21.973,-32.715,-28.320,-20.020,-25.879
1692210528.869,-33.691,-33.203,-31.250,-36.621,152.344
1692210528.873,-44.922,-37.109,-30.273,-44.922,-157.227
1692210528.877,-44.922,-33.691,-36.621,-27.344,-216.309
1692210528.881,-35.645,-28.320,-38.086,-6.348,-121.582
1692210528.885,-33.691,-31.250,-27.832,-16.602,-61.523
1692210528.889,-38.086,-29.785,-24.414,-41.504,-11.230
1692210528.892,-36.621,-30.762,-27.832,-39.551,-114.258
1692210528.896,-11.719,-28.809,-31.738,-9.277,138.672
1692210528.900,8.789,-19.531,-31.250,18.066,180.176
1692210528.904,-20.508,-27.344,-18.555,-11.719,-174.316
1692210528.908,-65.430,-39.062,-11.719,-61.523,-140.625
1692210528.910,-75.684,-38.086,-20.020,-75.684,-70.801
1692210528.914,-74.707,-39.062,-26.367,-68.359,-191.406
1692210528.918,-62.012,-35.645,-29.297,-52.246,-205.078
1692210528.922,-64.453,-36.621,-28.809,-60.547,-103.027
1692210528.926,-87.891,-38.086,-18.066,-94.727,-56.152
1692210528.930,-85.449,-36.133,-12.695,-94.727,-81.543
1692210528.934,-77.637,-30.762,-19.531,-71.289,-98.145
1692210528.937,-67.871,-30.273,-22.949,-46.387,150.879
1692210528.941,-55.176,-33.203,-21.484,-36.133,552.734
1692210528.945,-49.805,-30.273,-28.809,-54.688,214.355
1692210528.949,-47.363,-30.762,-28.320,-56.641,-254.395
1692210528.953,-51.758,-30.762,-21.484,-40.039,-146.484
1692210528.956,-44.922,-33.691,-26.367,-29.785,-33.691
1692210528.960,-41.992,-36.133,-26.367,-31.250,-81.543
1692210528.964,-49.805,-31.738,-28.809,-45.898,-146.973
1692210528.968,-45.898,-29.297,-29.297,-48.828,-69.824
1692210528.972,-39.062,-23.926,-19.043,-29.297,-52.246
1692210528.976,-29.297,-20.508,-16.113,-13.672,-94.238
1692210528.980,-25.391,-28.320,-19.043,-22.461,-33.691
1692210528.983,-29.785,-30.273,-24.414,-41.504,173.828
1692210528.987,-36.133,-20.508,-25.879,-60.547,143.555
1692210528.991,-39.551,-20.020,-20.508,-49.805,-146.973
1692210528.995,-34.668,-33.691,-19.531,-29.297,-93.750
1692210528.999,-32.715,-34.180,-21.973,-24.414,39.551
1692210529.000,-24.902,-22.949,-20.508,-29.297,-106.934
1692210529.004,-24.414,-22.461,-12.695,-38.086,-208.008
1692210529.008,-26.855,-21.973,-16.113,-30.273,-112.793
1692210529.012,-19.531,-21.484,-22.461,-11.719,48.828
1692210529.016,-11.719,-21.484,-18.555,-3.418,15.625
1692210529.020,-13.184,-17.090,-19.043,-17.578,-74.707
1692210529.024,-29.297,-20.020,-26.367,-36.133,52.734
1692210529.027,-41.016,-25.391,-26.367,-34.668,419.922
1692210529.031,-32.227,-28.809,-24.414,-19.043,324.707
1692210529.035,-28.320,-30.273,-23.438,-10.254,-106.934
1692210529.039,-32.227,-22.949,-18.555,-31.738,-106.445
1692210529.043,-35.645,-24.902,-20.020,-57.617,-124.023
1692210529.045,-32.715,-29.785,-18.555,-55.176,-230.957
1692210529.049,-31.738,-30.762,-19.043,-29.297,-200.684
1692210529.053,-30.273,-30.273,-23.438,-6.836,-111.328
1692210529.057,-29.297,-28.320,-23.438,-18.066,-101.074
1692210529.061,-32.715,-26.367,-25.879,-47.852,-123.047
1692210529.065,-31.738,-30.273,-28.809,-53.711,-41.992
1692210529.069,-26.367,-37.598,-24.902,-32.715,205.078
1692210529.072,-29.785,-33.203,-20.020,-19.043,199.707
1692210529.076,-31.250,-24.902,-24.414,-31.738,-129.883
1692210529.080,-32.227,-26.367,-28.809,-49.805,-226.562
1692210529.084,-32.715,-28.320,-27.832,-47.363,-148.438
1692210529.088,-27.344,-24.902,-23.926,-24.414,-145.996
1692210529.090,-18.555,-20.508,-26.367,-0.488,-171.387
1692210529.094,-18.555,-24.902,-34.180,-5.371,-37.598
1692210529.098,-29.297,-31.250,-30.762,-30.273,131.348
1692210529.102,-38.086,-20.508,-25.391,-43.457,-55.664
1692210529.106,-37.598,-11.230,-28.320,-25.879,-148.926
1692210529.110,-24.902,-18.066,-30.762,3.418,104.004
1692210529.114,-23.926,-27.832,-28.809,-4.883,248.535
1692210529.117,-27.344,-32.227,-29.785,-34.668,25.391
1692210529.121,-31.250,-28.809,-28.320,-44.434,-99.609
1692210529.125,-29.785,-25.879,-23.926,-23.438,42.969
1692210529.129,-22.949,-28.809,-22.949,-0.488,316.406
1692210529.133,-13.184,-26.855,-27.344,-4.395,106.445
1692210529.150,-10.742,-26.367,-31.738,-27.832,-183.105
1692210529.154,-20.508,-27.832,-26.367,-44.922,-178.223
1692210529.158,-31.250,-30.273,-27.344,-40.527,-148.438
1692210529.162,-32.715,-32.715,-26.855,-24.414,-146.973
1692210529.166,-31.250,-31.250,-27.832,-17.090,-125.000
1692210529.170,-43.945,-30.762,-35.156,-41.016,30.273
1692210529.174,-50.293,-28.320,-37.109,-64.453,3.906
1692210529.177,-52.246,-29.297,-36.621,-63.965,-161.621
1692210529.181,-49.316,-32.715,-34.180,-42.480,-176.270
1692210529.185,-37.598,-34.668,-32.227,-30.762,100.098
1692210529.189,-31.738,-30.762,-27.832,-45.898,118.164
1692210529.193,-43.457,-30.273,-29.785,-64.941,-76.660
1692210529.194,-51.758,-38.086,-36.621,-64.941,-34.668
1692210529.198,-45.410,-33.691,-30.762,-40.039,28.809
1692210529.202,-41.992,-22.949,-22.461,-20.508,-98.145
1692210529.206,-38.086,-20.020,-22.461,-26.855,-166.992
1692210529.210,-38.574,-30.762,-25.391,-54.688,-109.375
1692210529.214,-47.363,-35.156,-30.273,-56.641,24.902
1692210529.218,-40.039,-32.227,-37.598,-27.344,14.648
1692210529.221,-31.250,-31.250,-35.156,-20.508,-68.359
1692210529.225,-30.273,-29.785,-29.297,-28.320,53.711
1692210529.229,-26.367,-28.809,-27.832,-44.434,357.910
1692210529.233,-23.926,-25.879,-27.832,-54.199,104.980
1692210529.237,-23.438,-32.227,-25.879,-34.668,-219.238
1692210529.240,-11.230,-31.738,-23.438,-11.230,-117.188
1692210529.244,-5.371,-28.320,-21.973,-20.996,-37.598
1692210529.248,-21.484,-32.715,-23.438,-49.316,-87.891
1692210529.252,-33.691,-35.156,-22.949,-50.781,-179.688
1692210529.256,-43.945,-40.039,-20.508,-33.203,-31.738
1692210529.260,-36.133,-36.621,-19.531,-10.742,85.449
1692210529.264,-24.902,-34.180,-19.043,-3.906,-24.902
1692210529.267,-37.598,-38.086,-23.438,-41.504,-117.676
1692210529.271,-46.387,-35.156,-27.832,-57.617,121.094
1692210529.275,-46.875,-31.250,-24.414,-41.992,136.719
1692210529.279,-37.109,-33.203,-24.414,-32.715,-166.016
1692210529.283,-25.879,-25.879,-25.391,-30.762,-98.633
1692210529.285,-31.738,-30.273,-18.066,-50.293,-83.984
1692210529.289,-48.340,-41.992,-17.578,-65.430,-183.105
1692210529.293,-47.852,-36.133,-19.531,-46.875,-209.473
1692210529.297,-40.527,-40.039,-29.785,-33.691,1.953
1692210529.301,-36.133,-41.504,-33.691,-33.203,124.512
1692210529.305,-36.621,-37.598,-28.809,-46.875,-16.602
1692210529.309,-41.504,-33.203,-31.250,-62.988,-28.320
1692210529.312,-34.180,-27.344,-35.156,-50.293,86.914
1692210529.316,-28.320,-26.367,-32.227,-26.367,477.051
1692210529.320,-31.738,-26.855,-32.715,-19.043,315.918
1692210529.324,-34.668,-20.508,-35.156,-36.133,-96.191
1692210529.328,-37.109,-22.949,-31.738,-57.129,-111.328
1692210529.330,-37.109,-29.785,-31.250,-47.363,-155.273
1692210529.334,-22.949,-20.020,-32.227,-8.789,-193.848
1692210529.338,-19.043,-23.438,-30.762,-5.371,-116.211
1692210529.342,-30.273,-33.691,-33.691,-28.809,-79.590
1692210529.346,-38.574,-32.715,-37.109,-41.504,-119.141
1692210529.350,-39.551,-33.203,-30.762,-34.668,-97.656
1692210529.354,-33.691,-33.203,-29.785,-14.160,-42.480
1692210529.357,-34.180,-34.668,-27.832,0.977,283.203
1692210529.361,-36.133,-22.461,-23.438,-10.254,298.340
1692210529.365,-33.203,-19.531,-25.879,-38.086,-152.344
1692210529.369,-37.598,-32.715,-30.273,-39.551,-177.246
1692210529.373,-41.016,-32.715,-37.109,-24.902,-102.051
1692210529.375,-38.574,-35.645,-34.180,-12.695,-137.207
1692210529.379,-38.086,-40.039,-30.762,-21.973,-181.152
1692210529.383,-42.969,-41.016,-26.367,-56.641,-138.672
1692210529.387,-54.199,-42.480,-28.320,-61.523,-131.348
1692210529.391,-51.270,-31.738,-32.715,-35.156,-178.711
1692210529.395,-41.992,-27.344,-25.391,-24.414,-89.844
1692210529.399,-39.551,-34.180,-20.508,-34.668,143.555
1692210529.402,-45.898,-34.180,-19.531,-62.988,365.723
1692210529.406,-47.363,-26.367,-24.902,-69.824,103.516
1692210529.410,-36.133,-27.344,-29.297,-51.270,-186.035
1692210529.414,-31.738,-38.086,-26.855,-29.297,-8.301
1692210529.418,-33.203,-38.574,-29.297,-24.902,68.359
1692210529.420,-36.621,-33.203,-30.273,-48.340,-159.180
1692210529.424,-40.527,-34.180,-26.367,-60.059,-183.594
1692210529.428,-38.086,-35.645,-25.391,-47.363,-96.680
1692210529.432,-27.344,-32.227,-20.508,-23.926,-73.242
1692210529.436,-20.508,-33.203,-21.484,-23.926,-100.586
1692210529.440,-27.832,-39.551,-26.855,-48.828,-57.617
1692210529.444,-34.668,-36.133,-26.855,-56.641,208.008
1692210529.447,-30.762,-32.227,-31.250,-39.551,178.711
1692210529.451,-24.902,-36.621,-35.156,-14.648,-98.145
1692210529.455,-22.949,-33.203,-27.832,-11.230,-68.848
1692210529.459,-23.438,-30.273,-20.020,-23.926,-23.926
1692210529.463,-35.645,-31.250,-18.555,-40.039,-72.266
1692210529.465,-36.621,-27.344,-21.973,-30.762,-142.578
1692210529.469,-25.879,-21.973,-25.879,0.488,-49.805
1692210529.473,-27.344,-23.438,-22.461,0.488,29.297
1692210529.477,-33.691,-31.738,-28.320,-31.738,-120.117
1692210529.481,-34.180,-35.156,-31.738,-49.805,-217.773
1692210529.485,-33.691,-32.715,-28.320,-41.992,69.336
1692210529.489,-28.809,-31.250,-31.250,-18.066,294.922
1692210529.492,-19.531,-26.367,-29.785,-5.371,48.828
1692210529.496,-20.508,-24.902,-26.855,-20.996,-104.980
1692210529.500,-34.180,-28.809,-26.367,-44.922,-81.543
1692210529.504,-49.805,-32.227,-28.320,-48.828,-56.641
1692210529.508,-43.457,-36.133,-28.809,-25.879,-114.746
1692210529.526,-28.809,-32.715,-24.414,-12.207,-166.992
1692210529.530,-22.949,-27.344,-23.438,-20.996,187.988
1692210529.534,-31.250,-24.414,-27.832,-43.457,438.477
1692210529.538,-35.156,-18.066,-33.203,-45.410,-41.504
1692210529.542,-32.227,-23.926,-35.156,-21.973,-161.133
1692210529.546,-30.273,-32.227,-33.691,-8.301,83.496
1692210529.550,-25.391,-28.320,-32.227,-19.531,62.500
1692210529.553,-36.133,-29.785,-29.785,-47.852,-190.430
1692210529.557,-43.457,-27.344,-22.949,-54.199,-239.258
1692210529.561,-48.340,-21.484,-18.555,-33.691,109.863
1692210529.565,-47.363,-22.949,-13.672,-20.996,102.539
1692210529.569,-42.480,-25.391,-19.531,-36.133,-172.852
1692210529.570,-50.293,-28.320,-27.832,-58.594,-125.488
1692210529.574,-50.293,-28.809,-29.297,-55.664,-107.422
1692210529.578,-33.691,-21.484,-32.227,-39.062,-109.863
1692210529.582,-26.367,-22.461,-32.715,-25.391,-118.652
1692210529.586,-29.297,-26.855,-36.133,-34.180,-30.273
1692210529.590,-34.668,-32.715,-37.598,-57.129,56.152
1692210529.594,-36.133,-30.762,-34.668,-64.941,-38.086
1692210529.597,-28.809,-25.879,-33.203,-44.434,-51.758
1692210529.601,-18.066,-20.020,-26.855,-5.859,90.332
1692210529.605,-16.602,-20.508,-21.973,0.977,379.395
1692210529.609,-19.043,-25.391,-26.855,-26.855,233.887
1692210529.613,-22.461,-28.809,-28.809,-38.574,-172.852
1692210529.615,-21.484,-31.738,-29.785,-22.949,-156.738
1692210529.619,-10.742,-22.461,-37.598,-3.906,-118.652
1692210529.623,-2.441,-14.648,-42.969,10.254,-134.277
1692210529.627,-8.789,-24.414,-26.367,0.488,-134.766
1692210529.631,-36.133,-38.086,-10.742,-20.996,-110.352
1692210529.635,-54.199,-40.527,-12.207,-26.855,17.090
1692210529.639,-50.781,-44.922,-14.160,-22.461,35.156
1692210529.642,-44.922,-52.734,-17.578,-18.066,-59.082
1692210529.646,-50.781,-50.781,-16.113,-24.902,173.828
1692210529.650,-62.988,-40.039,-11.719,-42.480,238.770
1692210529.654,-54.688,-35.156,-13.672,-42.969,-143.555
1692210529.658,-44.922,-43.457,-12.695,-22.949,-167.480
1692210529.660,-39.551,-45.898,-13.184,-21.973,-104.004
1692210529.664,-40.039,-42.969,-17.090,-38.574,-163.574
1692210529.668,-53.711,-42.969,-16.113,-62.012,-212.402
1692210529.672,-56.641,-41.992,-20.020,-64.941,-121.582
1692210529.676,-50.781,-37.598,-22.949,-36.621,26.855
1692210529.680,-44.922,-41.504,-20.996,-25.879,-31.738
1692210529.684,-45.898,-54.688,-18.555,-37.598,-92.773
1692210529.687,-59.082,-49.805,-13.184,-53.223,52.246
1692210529.691,-70.801,-45.898,-17.090,-52.734,433.105
1692210529.695,-63.477,-50.781,-21.973,-25.391,263.672
1692210529.699,-47.363,-51.758,-19.531,-2.930,-163.086
1692210529.703,-40.527,-50.293,-21.973,-12.695,-37.598
1692210529.704,-42.969,-48.828,-26.855,-40.039,-83.496
1692210529.708,-44.922,-38.574,-29.785,-42.969,-212.402
1692210529.712,-42.480,-39.062,-29.785,-13.672,-127.441
1692210529.716,-33.691,-44.434,-26.855,9.277,-115.723
1692210529.720,-27.344,-43.457,-24.414,4.883,-122.559
1692210529.724,-33.203,-47.363,-27.832,-13.672,-50.781
1692210529.728,-46.875,-43.945,-28.320,-25.879,28.809
1692210529.731,-41.016,-38.086,-27.344,-5.859,236.328
1692210529.735,-25.879,-37.598,-27.344,15.137,198.242
1692210529.739,-25.391,-37.598,-31.738,-1.465,-130.371
1692210529.743,-26.855,-33.203,-25.391,-22.949,-136.719
1692210529.747,-29.785,-32.715,-28.320,-25.391,-42.480
1692210529.750,-31.250,-35.156,-37.109,-6.348,-43.457
1692210529.754,-19.531,-33.691,-25.879,15.625,-129.395
1692210529.758,-11.719,-27.344,-20.020,9.277,-44.434
1692210529.762,-18.555,-26.855,-25.879,-18.066,41.992
1692210529.766,-26.367,-32.715,-27.344,-31.250,-98.145
1692210529.770,-19.531,-28.320,-28.320,-17.090,-112.793
1692210529.774,-13.184,-24.902,-31.738,0.000,117.188
1692210529.777,-14.160,-28.809,-30.273,-8.301,474.121
1692210529.781,-9.766,-25.879,-27.344,-28.809,229.004
1692210529.785,-18.555,-27.832,-29.297,-42.969,-199.707
1692210529.789,-25.391,-32.715,-31.250,-40.039,-132.324
1692210529.793,-15.137,-25.879,-28.320,-24.414,-118.164
1692210529.796,-19.043,-27.344,-30.273,-24.414,-108.398
1692210529.800,-29.297,-33.203,-34.180,-43.945,-87.891
1692210529.804,-35.156,-30.273,-34.180,-59.082,-41.992
1692210529.808,-36.621,-30.273,-31.738,-49.805,-25.391
1692210529.812,-29.785,-34.180,-32.227,-31.738,-104.492
1692210529.816,-27.344,-31.250,-35.156,-26.367,-106.445
1692210529.820,-31.250,-28.809,-27.832,-38.086,223.145
1692210529.823,-32.227,-26.855,-27.832,-50.293,240.234
1692210529.827,-31.250,-25.391,-29.785,-41.504,-176.758
1692210529.831,-31.738,-32.715,-27.344,-24.414,-174.316
1692210529.835,-26.367,-31.738,-28.809,-20.020,-78.125
1692210529.839,-22.461,-25.391,-29.785,-30.273,-130.859
1692210529.840,-27.832,-29.785,-26.367,-47.852,-148.438
1692210529.844,-20.020,-26.855,-24.902,-34.668,-69.336
1692210529.848,-16.602,-25.879,-26.855,-2.441,-37.109
1692210529.852,-21.484,-27.344,-22.461,0.488,-84.473
1692210529.856,-29.297,-28.809,-25.879,-25.879,-142.090
1692210529.860,-41.016,-36.133,-37.598,-47.852,64.941
1692210529.864,-52.734,-30.273,-29.297,-43.457,331.543
1692210529.867,-47.852,-21.484,-24.902,-27.832,92.773
1692210529.871,-38.574,-21.973,-29.785,-23.926,-54.688
1692210529.875,-40.039,-23.438,-35.156,-34.668,109.863
1692210529.879,-37.598,-26.367,-41.016,-49.316,189.453
1692210529.883,-36.621,-24.902,-31.250,-45.410,-123.535
1692210529.900,-27.344,-19.043,-30.273,-18.066,-210.938
1692210529.904,-15.137,-26.855,-33.203,-5.859,-91.309
1692210529.908,-22.461,-30.762,-31.738,-20.508,-88.379
1692210529.912,-40.039,-26.855,-30.273,-45.898,-200.195
1692210529.916,-41.504,-25.391,-24.414,-51.758,-173.340
1692210529.920,-37.109,-25.391,-23.438,-26.855,49.805
1692210529.924,-39.062,-31.738,-26.367,-15.625,124.512
1692210529.927,-40.527,-34.180,-28.320,-34.180,44.434
1692210529.931,-38.086,-26.367,-28.320,-53.711,-100.098
1692210529.935,-30.762,-19.043,-22.949,-47.852,123.535
1692210529.939,-38.574,-15.625,-21.973,-34.668,196.777
1692210529.943,-32.715,-20.508,-24.414,-26.855,-160.156
1692210529.945,-19.531,-27.344,-28.809,-26.855,-160.645
1692210529.949,-27.832,-27.344,-30.273,-54.688,-118.164
1692210529.953,-36.133,-26.855,-27.832,-66.895,-134.277
1692210529.957,-37.109,-31.250,-25.879,-42.969,-104.492
1692210529.961,-35.156,-25.879,-27.344,-23.926,-54.688
1692210529.965,-21.973,-23.438,-25.879,-21.484,35.156
1692210529.969,-23.438,-35.156,-29.297,-41.992,14.160
1692210529.972,-36.621,-36.133,-31.250,-49.805,-88.867
1692210529.976,-37.109,-33.203,-26.367,-28.809,14.648
1692210529.980,-35.156,-30.762,-28.809,-4.883,442.871
1692210529.984,-24.902,-33.203,-26.367,0.488,369.629
1692210529.988,-32.227,-35.156,-22.949,-32.715,-126.465
1692210529.990,-44.922,-33.691,-27.344,-58.594,-202.148
1692210529.994,-34.180,-30.762,-25.391,-39.551,-188.965
1692210529.998,-27.832,-30.762,-22.949,-4.395,-105.957
1692210530.002,-26.367,-29.297,-21.973,4.883,-51.270
1692210530.006,-29.297,-18.555,-22.461,-22.949,-57.129
1692210530.010,-37.598,-23.926,-24.414,-50.293,-41.992
1692210530.014,-34.668,-31.250,-20.508,-45.898,-66.406
1692210530.017,-34.180,-35.156,-17.578,-23.438,-129.395
1692210530.021,-35.156,-36.133,-22.461,-15.137,126.465
1692210530.025,-41.992,-32.227,-28.320,-34.180,170.898
1692210530.029,-46.387,-25.879,-27.832,-52.246,-205.078
1692210530.033,-39.551,-23.926,-27.344,-46.875,-89.355
1692210530.035,-32.715,-34.180,-30.762,-31.250,68.848
1692210530.039,-26.855,-32.715,-28.320,-14.648,-77.637
1692210530.043,-33.203,-26.367,-28.809,-27.832,-190.918
1692210530.047,-41.504,-33.203,-32.227,-46.875,-63.965
1692210530.051,-47.852,-39.551,-28.320,-40.527,48.828
1692210530.055,-51.758,-34.668,-30.273,-29.297,-78.613
1692210530.059,-45.898,-34.180,-34.180,-22.949,-32.715
1692210530.062,-39.551,-33.691,-36.133,-30.273,187.012
1692210530.066,-40.527,-30.273,-35.645,-38.574,460.449
1692210530.070,-43.945,-28.809,-33.691,-50.781,146.973
1692210530.074,-38.574,-25.391,-33.203,-43.457,-250.000
1692210530.078,-39.062,-23.438,-32.715,-24.902,-185.547
1692210530.096,-41.016,-26.855,-28.809,-32.227,-127.930
1692210530.100,-41.504,-31.250,-30.273,-52.734,-196.289
1692210530.104,-47.363,-26.367,-33.691,-59.082,-158.203
1692210530.108,-47.363,-22.461,-34.180,-39.551,9.766
1692210530.112,-36.621,-27.832,-36.133,-24.414,1.465
1692210530.116,-34.180,-29.785,-40.527,-26.855,-33.203
1692210530.120,-34.668,-31.738,-41.992,-40.527,-92.285
1692210530.123,-36.133,-37.109,-39.551,-48.340,69.336
1692210530.127,-31.250,-26.367,-32.227,-23.926,132.812
1692210530.131,-21.973,-23.926,-27.344,-2.441,-146.973
1692210530.135,-26.367,-34.180,-31.250,-14.160,-114.746
1692210530.139,-38.574,-30.273,-31.250,-42.969,-45.410
1692210530.124,-47.363,-26.367,-25.391,-49.316,-131.836
1692210530.128,-42.969,-30.273,-24.902,-36.133,-161.133
1692210530.132,-35.645,-28.809,-27.832,-24.902,-27.832
1692210530.136,-34.668,-23.926,-29.785,-25.879,41.016
1692210530.140,-32.227,-20.996,-31.250,-46.387,-48.828
1692210530.144,-40.039,-24.902,-29.785,-54.199,-90.332
1692210530.148,-46.387,-31.250,-30.762,-43.457,62.988
1692210530.151,-42.480,-31.738,-33.691,-28.320,153.320
1692210530.155,-41.992,-29.297,-35.156,-23.438,12.695
1692210530.159,-41.992,-29.785,-35.156,-42.969,-105.957
1692210530.163,-43.457,-30.273,-34.180,-62.988,-16.602
1692210530.167,-46.387,-26.855,-36.621,-62.988,372.559
1692210530.169,-29.297,-22.461,-34.180,-40.039,248.047
1692210530.173,-19.043,-20.508,-34.180,-26.367,-133.301
1692210530.177,-27.344,-19.043,-35.645,-50.781,-127.441
1692210530.181,-25.879,-37.109,-29.785,-51.270,-149.414
1692210530.185,-10.254,-42.969,-21.973,-25.391,-195.801
1692210530.189,-29.785,-25.879,-27.344,-39.062,-87.891
1692210530.193,-54.199,-21.973,-39.551,-55.664,324.707
1692210530.196,-52.734,-23.438,-31.738,-59.570,325.684
1692210530.200,-57.129,-23.926,-26.855,-73.242,-121.094
1692210530.204,-50.781,-26.855,-29.785,-63.965,-189.453
1692210530.208,-41.016,-25.391,-26.855,-35.156,-103.516
1692210530.212,-32.227,-24.902,-27.344,-13.184,-123.047
1692210530.215,-25.879,-27.344,-27.344,-20.508,-203.125
1692210530.219,-35.156,-30.273,-25.391,-40.527,-206.055
1692210530.223,-35.156,-30.273,-21.973,-38.086,-155.273
1692210530.227,-31.738,-24.414,-21.973,-29.785,-119.141
1692210530.231,-27.344,-23.438,-23.926,-19.531,-128.418
1692210530.235,-25.391,-25.391,-22.949,-24.414,49.805
1692210530.239,-37.598,-24.414,-27.832,-48.828,189.941
1692210530.242,-37.598,-18.066,-25.879,-61.035,17.578
1692210530.246,-21.484,-7.812,-21.973,-41.016,-143.066
1692210530.250,-26.855,-14.648,-21.484,-20.996,17.578
1692210530.254,-48.828,-28.320,-22.949,-33.203,420.898
1692210530.258,-50.293,-33.203,-26.855,-61.523,119.141
1692210530.274,-51.270,-32.227,-25.879,-60.059,-253.906
1692210530.278,-43.457,-28.809,-22.949,-39.062,-148.926
1692210530.282,-29.297,-28.809,-26.367,-25.879,-95.703
1692210530.286,-33.203,-26.855,-35.645,-35.156,-117.188
1692210530.290,-46.387,-28.809,-31.738,-56.152,-154.785
1692210530.294,-46.875,-30.762,-29.297,-60.059,-35.156
1692210530.298,-34.668,-24.414,-29.297,-46.875,24.414
1692210530.301,-35.645,-26.367,-30.273,-31.738,-133.301
1692210530.305,-31.738,-33.203,-35.156,-26.367,-176.270
1692210530.309,-29.297,-32.715,-32.715,-41.016,48.828
1692210530.313,-37.109,-34.180,-29.297,-61.523,18.555
1692210530.317,-39.062,-34.180,-23.438,-47.363,-217.285
1692210530.320,-36.133,-31.250,-28.320,-23.926,-100.586
1692210530.324,-26.367,-29.297,-34.180,-26.367,-10.742
1692210530.328,-25.391,-20.508,-31.250,-39.551,-111.816
1692210530.332,-32.227,-20.020,-29.785,-44.922,-168.457
1692210530.336,-36.133,-29.297,-26.367,-38.574,-75.684
1692210530.340,-36.621,-30.762,-28.809,-20.508,47.852
1692210530.344,-27.832,-27.832,-26.855,-6.836,13.184
1692210530.347,-27.344,-24.902,-23.926,-22.949,4.395
1692210530.351,-31.738,-20.996,-22.949,-42.480,81.055
1692210530.355,-39.551,-28.809,-21.973,-35.645,323.730
1692210530.359,-39.062,-35.645,-23.926,-13.184,178.223
1692210530.363,-27.344,-35.156,-21.973,-4.883,-102.539
1692210530.365,-24.902,-31.250,-21.484,-21.484,-121.094
1692210530.369,-36.621,-29.785,-20.020,-35.645,-182.129
1692210530.373,-41.504,-42.969,-16.113,-20.508,-191.406
1692210530.377,-21.484,-32.227,-20.020,10.254,-104.980
1692210530.381,-24.414,-3.906,-31.738,-3.418,-8.789
1692210530.385,-55.176,-5.371,-36.133,-59.570,-31.738
1692210530.389,-57.617,-7.812,-30.762,-81.055,-76.660
1692210530.392,-41.992,0.977,-33.203,-70.801,-150.879
1692210530.396,-49.316,2.930,-40.039,-54.688,96.191
1692210530.400,-56.152,5.859,-37.109,-46.875,207.031
1692210530.404,-50.781,11.719,-43.945,-63.965,-109.863
1692210530.408,-66.406,4.883,-53.711,-96.191,-82.031
1692210530.410,-85.938,-4.395,-51.758,-116.211,-31.738
1692210530.414,-80.566,0.977,-50.781,-100.098,-102.539
1692210530.418,-73.730,2.930,-47.852,-92.285,-92.773
1692210530.422,-70.801,-0.488,-45.410,-112.305,-1.465
1692210530.426,-71.289,-1.953,-52.246,-117.676,-25.391
1692210530.430,-83.984,-4.395,-46.875,-115.234,-54.688
1692210530.434,-82.031,-3.906,-45.898,-108.398,-49.316
1692210530.437,-63.965,0.000,-46.387,-85.938,69.336
1692210530.441,-54.199,-3.418,-40.527,-77.148,452.148
1692210530.445,-55.176,-12.207,-41.992,-88.379,351.074
1692210530.449,-59.082,-20.020,-43.457,-87.891,-92.773
1692210530.453,-50.293,-29.785,-44.922,-72.266,-159.668
1692210530.455,-30.273,-29.297,-42.480,-42.480,-123.535
1692210530.459,-25.879,-26.367,-34.180,-35.645,-152.344
1692210530.463,-27.344,-26.855,-37.109,-56.152,-180.664
1692210530.467,-23.438,-23.926,-41.016,-62.012,-141.113
1692210530.471,-22.461,-20.996,-34.180,-46.875,-131.348
1692210530.475,-8.789,-19.531,-26.367,-20.996,-78.613
1692210530.479,-4.883,-22.949,-22.461,-10.254,62.988
1692210530.482,-8.789,-31.250,-24.902,-24.902,352.051
1692210530.486,-12.207,-30.273,-30.762,-36.621,332.031
1692210530.490,-17.578,-30.762,-33.691,-28.320,-113.770
1692210530.494,-15.625,-33.691,-34.180,-6.348,-158.203
1692210530.498,-6.836,-29.785,-31.738,-4.395,-62.500
1692210530.500,-3.906,-22.461,-32.227,-22.949,-111.816
1692210530.504,-11.719,-20.508,-35.156,-27.344,-185.059
1692210530.508,-15.625,-25.879,-26.855,-11.719,-93.262
1692210530.512,-6.348,-24.414,-29.297,7.812,-11.230
1692210530.516,1.953,-23.438,-32.715,13.184,-59.570
1692210530.520,2.441,-24.902,-24.414,3.418,-42.480
1692210530.524,-0.977,-23.438,-31.250,-9.277,111.816
1692210530.527,-11.230,-25.879,-33.203,-14.648,377.441
1692210530.531,-8.301,-30.273,-28.320,-5.371,126.465
1692210530.535,5.371,-30.273,-24.902,7.324,-202.148
1692210530.539,1.465,-30.762,-28.809,-3.418,69.336
1692210530.543,-9.277,-26.367,-36.621,-23.438,196.777
1692210530.544,-6.836,-22.461,-29.297,-27.344,-171.875
1692210530.548,-14.160,-33.691,-26.367,-14.160,-291.504
1692210530.552,-21.484,-40.527,-24.414,-2.930,-172.363
1692210530.556,-13.672,-35.156,-27.832,-8.301,-83.496
1692210530.560,-12.695,-34.668,-36.133,-31.738,-104.980
1692210530.564,-24.414,-35.645,-32.227,-41.992,-96.680
1692210530.568,-23.926,-32.227,-37.109,-22.461,259.277
1692210530.571,-11.719,-29.785,-41.992,-9.766,247.559
1692210530.575,-19.531,-32.227,-33.691,-22.949,-183.105
1692210530.579,-27.344,-35.645,-28.809,-38.086,-196.777
1692210530.583,-22.949,-32.715,-29.785,-39.551,-147.949
1692210530.587,-17.578,-34.180,-38.086,-19.531,-184.570
1692210530.591,-13.672,-38.574,-35.156,0.000,-142.090
1692210530.595,-13.672,-33.691,-29.297,-2.930,12.207
1692210530.599,-13.184,-27.832,-30.762,-20.020,-4.395
1692210530.603,-15.625,-34.668,-33.203,-36.133,-154.785
1692210530.607,-16.113,-42.969,-32.715,-26.855,-183.594
1692210530.611,-14.648,-38.574,-23.926,-0.488,72.754
1692210530.615,-17.090,-32.715,-21.484,1.465,218.262
1692210530.618,-23.438,-31.250,-26.855,-13.184,-23.926
1692210530.622,-43.945,-24.414,-27.344,-42.480,-75.684
1692210530.626,-51.270,-17.578,-24.902,-47.363,80.566
1692210530.630,-27.832,-12.207,-26.367,-18.066,248.535
1692210530.634,-14.160,-9.277,-33.203,-15.625,52.246
1692210530.649,-29.297,-16.113,-30.762,-40.527,-109.375
1692210530.653,-44.922,-20.508,-24.902,-58.594,-133.301
1692210530.657,-48.340,-24.414,-29.297,-44.922,-150.879
1692210530.661,-47.852,-31.738,-32.715,-29.297,-76.172
1692210530.665,-44.434,-32.715,-36.621,-26.367,-91.309
1692210530.669,-48.340,-31.250,-37.109,-40.527,200.195
1692210530.673,-57.617,-28.320,-31.250,-61.035,365.234
1692210530.676,-50.293,-32.227,-28.809,-53.223,-96.191
1692210530.680,-41.992,-39.062,-27.832,-34.668,-185.059
1692210530.684,-40.039,-36.133,-20.996,-18.066,-21.973
1692210530.688,-34.180,-25.391,-19.531,-23.926,-88.867
1692210530.692,-40.039,-27.832,-25.879,-45.410,-224.121
1692210530.695,-41.504,-30.762,-25.391,-40.527,-124.512
1692210530.699,-34.180,-30.762,-24.902,-25.391,-21.973
1692210530.703,-23.926,-27.832,-24.414,-19.043,-69.336
1692210530.707,-17.578,-21.973,-26.855,-25.879,-103.027
1692210530.711,-27.344,-19.043,-28.320,-42.480,-35.645
1692210530.715,-37.598,-19.043,-24.414,-49.316,72.266
1692210530.719,-23.926,-20.508,-22.461,-22.949,76.172
1692210530.722,-14.160,-20.020,-19.043,-12.207,30.273
1692210530.726,-16.602,-21.973,-26.855,-36.133,73.730
1692210530.730,-18.066,-20.996,-38.086,-56.152,377.441
1692210530.734,-26.855,-21.484,-35.156,-51.758,250.488
1692210530.738,-30.273,-24.902,-24.414,-33.691,-142.578
1692210530.740,-22.461,-22.461,-24.414,-18.066,-126.465
1692210530.744,-16.113,-21.484,-32.715,-18.555,-135.742
1692210530.748,-30.273,-29.785,-30.762,-41.016,-195.801
1692210530.752,-47.363,-24.902,-24.414,-48.828,-188.965
1692210530.756,-39.551,-18.066,-22.949,-27.344,-93.262
1692210530.760,-27.344,-23.438,-30.273,-7.812,19.043
1692210530.764,-25.879,-21.484,-35.645,-16.113,37.109
1692210530.767,-22.949,-17.090,-24.902,-33.203,-84.473
1692210530.771,-28.320,-20.508,-21.484,-39.062,137.695
1692210530.775,-14.648,-11.230,-16.602,-8.301,222.656
1692210530.779,19.531,11.719,0.488,33.691,-184.082
1692210530.783,27.832,19.043,4.883,34.668,-175.293
1692210530.786,14.648,16.602,1.953,12.695,-117.188
1692210530.790,5.859,13.184,-2.930,-6.348,-219.727
1692210530.794,4.395,11.719,-6.348,-3.906,-236.816
1692210530.798,9.766,15.137,-8.789,20.508,-130.371
1692210530.802,6.836,1.953,-11.230,14.648,-78.613
1692210530.806,-9.277,-9.277,-11.230,-12.695,-107.422
1692210530.810,-19.531,-9.277,-14.160,-25.879,-33.203
1692210530.813,-23.438,-6.348,-12.695,-11.719,92.285
1692210530.817,-21.973,-6.348,-15.625,7.324,375.977
1692210530.821,-20.020,-4.883,-22.461,-2.441,229.980
1692210530.825,-19.043,-1.953,-26.855,-27.832,-152.832
1692210530.829,-24.902,-5.859,-20.996,-39.062,-10.254
1692210530.829,-35.156,-2.441,-15.137,-28.320,-43.457
1692210530.833,-35.156,-10.742,-23.926,-10.254,-194.824
1692210530.837,-33.691,-24.902,-28.809,-3.906,-91.309
1692210530.841,-38.086,-25.391,-31.738,-28.320,-61.035
1692210530.845,-32.227,-22.949,-32.715,-44.434,-166.016
1692210530.849,-30.273,-18.066,-25.391,-37.109,-152.344
1692210530.853,-34.668,-10.742,-16.602,-22.461,-36.133
1692210530.856,-24.414,-9.766,-14.160,-5.371,65.430
1692210530.860,-33.691,-23.438,-22.949,-21.484,5.371
1692210530.864,-50.781,-32.715,-29.785,-44.922,-143.555
1692210530.868,-43.945,-27.344,-26.855,-35.156,-107.910
1692210530.872,-31.250,-21.484,-20.996,-13.184,80.566
1692210530.876,-23.926,-25.391,-24.414,-6.836,32.715
1692210530.880,-20.996,-22.949,-26.855,-20.996,-71.289
1692210530.884,-24.902,-17.090,-26.367,-45.410,-9.766
1692210530.888,-32.715,-26.855,-31.738,-51.758,28.809
1692210530.892,-24.414,-27.832,-33.691,-25.391,-60.547
1692210530.896,-14.648,-17.578,-28.809,-5.371,4.883
1692210530.900,-17.090,-21.484,-29.297,-18.066,191.406
1692210530.903,-18.555,-25.391,-28.320,-36.133,396.973
1692210530.907,-22.461,-23.438,-26.855,-44.922,87.891
1692210530.911,-20.508,-23.926,-29.785,-28.809,-230.957
1692210530.915,-14.648,-28.809,-31.738,-6.836,0.000
1692210530.919,-17.578,-25.391,-29.297,-16.602,64.453
1692210530.919,-32.715,-23.926,-27.344,-44.434,-115.234
1692210530.923,-44.922,-25.391,-32.227,-48.828,-165.039
1692210530.927,-40.527,-19.043,-32.715,-27.344,-124.023
1692210530.931,-32.715,-20.020,-26.855,-9.277,-1.953
1692210530.935,-29.297,-25.391,-24.414,-12.207,34.180
1692210530.939,-39.551,-32.227,-24.902,-41.016,-72.754
1692210530.943,-43.457,-35.156,-23.926,-45.898,130.859
1692210530.946,-34.180,-32.715,-19.531,-22.461,281.250
1692210530.950,-23.438,-31.250,-21.484,-14.648,-90.820
1692210530.954,-21.484,-28.320,-28.809,-22.461,-190.918
1692210530.958,-35.645,-28.320,-22.949,-54.199,-123.535
1692210530.962,-48.828,-29.297,-20.508,-66.406,-148.926
1692210530.965,-37.109,-23.438,-26.855,-43.457,-177.734
1692210530.969,-24.414,-19.531,-20.020,-14.648,-74.219
1692210530.973,-29.297,-17.578,-19.043,-15.625,-0.488
1692210530.977,-37.598,-22.949,-22.949,-39.551,-104.980
1692210530.981,-37.598,-35.156,-18.066,-54.199,-179.688
1692210530.985,-34.180,-30.762,-17.578,-39.062,-11.719
1692210530.989,-34.180,-22.461,-21.484,-12.695,133.789
1692210530.992,-29.785,-26.855,-24.414,-20.020,6.348
1692210530.996,-36.133,-30.762,-26.367,-47.852,-13.672
1692210531.000,-36.621,-23.926,-24.902,-52.734,54.688
1692210531.004,-38.086,-21.973,-19.043,-36.133,299.805
1692210531.008,-41.016,-32.715,-26.367,-28.809,116.699
1692210531.024,-26.855,-32.227,-26.855,-16.113,-177.734
1692210531.028,-25.879,-27.344,-19.531,-23.926,-111.328
1692210531.032,-32.715,-28.320,-21.973,-36.621,-156.250
1692210531.036,-34.180,-31.738,-23.438,-29.785,-233.887
1692210531.040,-30.273,-35.156,-24.414,-14.648,-137.695
1692210531.044,-29.297,-38.574,-25.391,-11.230,33.691
1692210531.048,-36.133,-39.062,-32.227,-27.832,75.195
1692210531.051,-44.922,-37.598,-42.480,-49.316,-82.031
1692210531.055,-49.805,-40.039,-40.527,-52.734,-95.215
1692210531.059,-36.133,-36.133,-42.480,-32.227,102.539
1692210531.063,-12.207,-24.414,-45.898,-2.441,-0.977
1692210531.067,-3.418,-21.973,-38.086,-2.930,-133.301
1692210531.070,-16.113,-29.785,-25.879,-33.691,-99.121
1692210531.074,-24.414,-28.320,-24.902,-35.645,173.340
1692210531.078,-15.137,-25.391,-22.949,-9.766,72.266
1692210531.082,-6.836,-30.273,-17.090,10.742,-208.496
1692210531.086,-6.836,-35.645,-23.438,5.859,-59.570
1692210531.090,-7.812,-35.645,-31.738,-14.160,36.621
1692210531.094,-8.301,-36.133,-32.715,-20.020,25.879
1692210531.097,-9.277,-39.551,-36.133,-8.789,0.000
1692210531.101,-3.418,-32.715,-38.574,9.766,31.250
1692210531.105,-4.883,-26.367,-36.133,5.859,349.609
1692210531.109,-13.184,-29.785,-39.551,-24.902,177.246
1692210531.113,-21.973,-29.785,-39.551,-40.039,-163.086
1692210531.114,-26.855,-30.273,-37.598,-18.555,-48.828
1692210531.118,-18.555,-35.156,-38.574,-2.930,-25.391
1692210531.122,-20.508,-35.645,-35.645,-19.531,-168.457
1692210531.126,-28.809,-28.320,-35.156,-42.969,-216.797
1692210531.130,-35.645,-32.715,-32.227,-52.246,-182.129
1692210531.134,-41.016,-40.039,-28.320,-42.969,-47.852
1692210531.138,-31.250,-36.621,-26.367,-12.695,45.410
1692210531.141,-31.738,-32.227,-30.273,-9.766,-80.566
1692210531.145,-40.039,-31.738,-37.109,-32.715,128.906
1692210531.149,-42.969,-32.227,-33.691,-45.898,144.043
1692210531.153,-41.992,-26.367,-32.715,-33.203,-183.594
1692210531.157,-34.180,-20.996,-29.785,-8.789,-105.469
1692210531.161,-31.250,-23.438,-33.203,-7.324,-48.340
1692210531.165,-35.156,-29.297,-32.715,-31.738,-60.059
1692210531.169,-34.668,-29.297,-21.484,-51.270,-117.188
1692210531.173,-33.203,-33.691,-22.949,-36.621,-125.000
1692210531.177,-28.809,-33.691,-24.902,-11.719,0.488
1692210531.181,-22.461,-24.414,-29.297,-2.930,-29.297
1692210531.185,-21.484,-27.832,-34.180,-21.973,-65.430
1692210531.188,-26.855,-28.320,-32.227,-38.574,60.547
1692210531.192,-29.297,-20.508,-26.367,-28.320,414.062
1692210531.196,-20.508,-18.555,-25.879,-16.113,229.004
1692210531.200,-9.277,-19.043,-26.367,-6.348,-162.598
1692210531.204,-22.949,-25.391,-25.879,-25.879,-138.672
1692210531.204,-32.227,-28.809,-31.250,-54.199,-130.371
1692210531.208,-33.691,-27.832,-31.250,-52.246,-182.617
1692210531.212,-32.715,-23.926,-29.785,-21.973,-128.418
1692210531.216,-22.949,-18.555,-29.785,-5.859,-42.480
1692210531.220,-32.715,-23.926,-32.715,-31.250,-5.371
1692210531.224,-39.062,-21.484,-26.855,-53.223,39.551
1692210531.228,-42.480,-21.973,-19.531,-61.035,-46.875
1692210531.231,-41.992,-29.297,-20.996,-41.992,101.074
1692210531.235,-27.832,-23.438,-20.996,-17.090,263.672
1692210531.239,-21.484,-18.066,-27.344,-30.273,-97.656
1692210531.243,-23.438,-17.578,-22.949,-50.293,-236.328
1692210531.247,-31.250,-19.043,-23.926,-47.363,-164.062
1692210531.249,-30.762,-22.461,-32.227,-21.973,-142.578
1692210531.253,-21.484,-22.461,-29.297,-7.324,-144.531
1692210531.257,-29.297,-21.973,-24.414,-19.043,-95.703
1692210531.261,-42.969,-30.273,-28.320,-43.945,-84.961
1692210531.265,-42.480,-31.250,-29.785,-45.898,-145.508
1692210531.269,-49.805,-24.902,-29.785,-32.227,-34.668
1692210531.273,-53.223,-31.250,-37.109,-20.508,152.832
1692210531.276,-46.875,-41.504,-39.062,-18.066,332.520
1692210531.280,-45.898,-34.180,-34.668,-40.527,170.410
1692210531.284,-43.457,-27.344,-31.250,-50.781,-158.691
1692210531.288,-45.410,-29.297,-32.227,-41.016,-32.715
1692210531.292,-35.645,-23.438,-25.391,-20.020,145.508
1692210531.294,-30.273,-28.320,-23.438,-10.254,-96.191
1692210531.298,-34.180,-30.762,-27.344,-35.156,-195.312
1692210531.302,-37.109,-23.438,-28.320,-50.781,-155.762
1692210531.306,-32.715,-21.973,-28.320,-26.367,-118.652
1692210531.310,-20.996,-20.020,-24.902,-2.930,-127.441
1692210531.314,-15.137,-19.531,-23.438,-7.812,-64.453
1692210531.318,-13.672,-17.578,-23.926,-26.367,239.746
1692210531.321,-24.414,-16.602,-25.391,-41.016,245.605
1692210531.325,-28.809,-18.066,-23.926,-35.645,-86.426
1692210531.329,-23.438,-14.648,-23.926,-12.695,-50.781
1692210531.333,-20.020,-23.438,-30.273,-6.836,63.965
1692210531.337,-25.879,-25.879,-32.227,-31.250,-62.500
1692210531.340,-35.156,-21.973,-24.902,-53.711,-208.496
1692210531.344,-34.668,-30.762,-25.879,-49.805,-163.574
1692210531.348,-27.832,-28.320,-28.320,-29.785,-91.797
1692210531.352,-28.320,-24.902,-25.879,-23.926,-80.078
1692210531.356,-31.250,-23.926,-23.926,-41.504,-136.719
1692210531.360,-43.945,-21.484,-18.066,-60.059,22.461
1692210531.364,-47.363,-18.066,-18.066,-47.852,232.910
1692210531.367,-38.086,-20.508,-25.879,-26.855,27.344
1692210531.371,-25.879,-20.508,-30.273,-27.344,-112.793
1692210531.375,-21.973,-22.949,-28.320,-38.086,55.664
1692210531.379,-31.738,-25.879,-30.273,-47.852,193.359
1692210531.383,-30.762,-20.508,-32.227,-43.945,-69.824
1692210531.400,-33.203,-18.555,-29.297,-24.902,-151.367
1692210531.404,-33.203,-25.879,-28.809,-9.277,7.812
1692210531.408,-36.621,-27.832,-30.762,-17.578,15.137
1692210531.412,-43.945,-24.902,-32.227,-45.410,-129.883
1692210531.416,-41.016,-25.391,-29.785,-50.293,-179.688
1692210531.420,-36.621,-31.250,-26.367,-30.273,-19.043
1692210531.424,-30.762,-32.227,-24.902,-14.160,94.727
1692210531.427,-27.344,-31.738,-25.391,-23.438,-50.781
1692210531.431,-29.297,-32.715,-26.855,-42.480,-119.629
1692210531.435,-31.738,-31.250,-22.949,-42.480,109.863
1692210531.439,-22.949,-20.996,-15.625,-19.043,67.871
1692210531.443,-12.695,-17.578,-19.043,-3.418,-191.406
1692210531.446,-18.555,-21.484,-20.996,-14.160,-86.426
1692210531.450,-31.250,-24.902,-20.508,-31.738,-44.922
1692210531.454,-34.668,-35.156,-28.320,-40.527,-83.008
1692210531.458,-21.973,-31.250,-36.621,-21.484,-130.859
1692210531.462,-11.719,-28.809,-28.320,4.395,-20.508
1692210531.466,-29.785,-41.016,-12.695,-11.230,184.082
1692210531.470,-36.133,-37.109,-18.555,-39.551,-25.391
1692210531.473,-36.621,-41.504,-24.902,-48.828,-107.422
1692210531.477,-39.062,-50.293,-20.020,-38.086,82.031
1692210531.481,-22.461,-39.062,-25.879,-12.695,392.578
1692210531.485,-17.578,-30.273,-31.250,-14.648,187.988
1692210531.489,-15.625,-32.227,-27.832,-29.785,-190.918
1692210531.490,-22.461,-37.598,-28.809,-44.922,-165.039
1692210531.494,-29.785,-35.156,-29.297,-32.227,-145.508
1692210531.498,-29.297,-30.273,-25.391,-8.789,-166.504
1692210531.502,-34.180,-26.367,-25.879,-8.301,-159.668
1692210531.506,-39.551,-27.832,-29.785,-34.180,-108.887
1692210531.510,-38.574,-33.691,-33.691,-52.246,-10.254
1692210531.514,-33.691,-29.297,-31.250,-33.691,-19.043
1692210531.517,-22.461,-23.438,-23.926,-6.836,-98.145
1692210531.521,-20.996,-30.762,-21.973,3.906,186.523
1692210531.525,-36.621,-37.598,-22.949,-12.695,299.316
1692210531.529,-37.109,-34.180,-24.902,-41.016,-109.375
1692210531.533,-25.879,-34.180,-33.691,-38.086,-183.105
1692210531.535,-27.344,-32.227,-33.691,-13.672,-93.262
1692210531.539,-28.809,-32.715,-31.738,-4.395,-108.398
1692210531.543,-25.391,-39.551,-33.203,-10.254,-184.082
1692210531.547,-41.016,-41.016,-33.203,-35.156,-136.719
1692210531.551,-49.805,-37.109,-38.086,-45.410,-58.105
1692210531.555,-44.922,-38.574,-36.621,-31.738,-31.738
1692210531.559,-37.598,-41.016,-35.645,-16.113,41.992
1692210531.562,-37.109,-40.527,-38.086,-18.555,125.000
1692210531.566,-44.922,-39.062,-36.621,-47.852,475.586
1692210531.570,-51.758,-35.156,-37.598,-63.965,300.781
1692210531.574,-43.457,-26.367,-37.109,-43.945,-224.121
1692210531.578,-37.109,-22.461,-32.715,-15.625,-34.668
1692210531.579,-37.598,-28.809,-37.598,-27.832,88.379
1692210531.583,-34.668,-31.250,-37.109,-54.688,-170.410
1692210531.587,-38.574,-30.762,-34.668,-53.711,-241.699
1692210531.591,-36.621,-33.203,-35.645,-31.738,-146.973
1692210531.595,-18.555,-31.250,-39.551,-10.742,-99.121
1692210531.599,-10.742,-32.715,-40.527,-16.602,-47.363
1692210531.603,-21.973,-34.668,-39.551,-37.598,-13.672
1692210531.606,-25.879,-36.621,-38.574,-44.434,211.426
1692210531.610,-20.996,-33.691,-29.297,-24.414,168.945
1692210531.614,-17.090,-31.250,-29.785,-10.742,-142.090
1692210531.618,-18.555,-34.668,-33.691,-21.973,-55.664
1692210531.622,-35.156,-36.133,-29.785,-50.293,-4.395
1692210531.625,-48.828,-33.203,-30.762,-60.547,-108.887
1692210531.629,-44.434,-33.203,-35.156,-44.434,-189.941
1692210531.633,-37.109,-34.668,-28.320,-31.250,-75.195
1692210531.637,-35.645,-32.227,-25.391,-28.320,-25.879
1692210531.641,-33.691,-23.926,-33.203,-41.992,-100.098
1692210531.645,-31.250,-23.438,-34.668,-58.105,-25.391
1692210531.649,-28.809,-35.645,-37.109,-49.805,117.188
1692210531.652,-16.602,-38.086,-41.504,-17.090,397.461
1692210531.656,-5.371,-32.715,-36.621,-4.883,190.918
1692210531.660,-15.137,-29.785,-30.273,-26.367,-203.125
1692210531.664,-20.508,-24.414,-31.738,-40.527,-72.266
1692210531.668,-12.695,-20.996,-23.438,-28.809,9.766
1692210531.671,-6.348,-20.508,-23.438,0.000,-75.684
1692210531.675,-6.836,-20.020,-36.133,6.348,-162.598
1692210531.679,-12.207,-20.508,-32.715,-16.113,-68.848
1692210531.683,-20.020,-22.949,-24.414,-34.180,-53.711
1692210531.687,-33.203,-32.715,-26.367,-37.598,-209.473
1692210531.691,-34.180,-32.227,-20.996,-16.113,-94.238
1692210531.695,-31.738,-31.738,-16.113,-9.277,23.438
1692210531.698,-38.086,-40.039,-21.973,-37.598,-61.035
1692210531.702,-47.363,-39.551,-23.438,-61.523,-200.195
1692210531.706,-42.480,-30.762,-26.855,-52.734,-205.566
1692210531.710,-38.086,-32.227,-30.273,-32.715,96.680
1692210531.714,-43.457,-37.109,-30.273,-37.598,125.000
1692210531.744,-44.434,-36.133,-32.715,-54.199,-107.422
1692210531.748,-40.527,-38.574,-30.273,-68.359,-90.820
1692210531.752,-39.062,-38.574,-30.762,-61.523,-5.371
1692210531.756,-32.715,-33.691,-36.621,-29.785,-27.832
1692210531.760,-20.508,-31.738,-35.645,-14.648,-115.234
1692210531.764,-20.996,-34.668,-32.227,-34.180,84.961
1692210531.768,-32.227,-37.109,-30.762,-56.152,401.855
1692210531.771,-33.203,-33.203,-30.762,-53.223,220.215
1692210531.775,-32.715,-26.855,-30.273,-34.180,-132.324
1692210531.779,-27.832,-31.250,-25.391,-14.648,-47.852
1692210531.783,-25.879,-30.762,-23.926,-22.461,94.727
1692210531.787,-38.574,-27.832,-30.762,-56.152,-182.617
1692210531.762,-45.898,-28.809,-29.297,-58.105,-304.199
1692210531.766,-42.969,-23.926,-24.414,-37.109,-167.969
1692210531.770,-42.969,-29.297,-29.785,-27.344,-102.051
1692210531.774,-41.992,-33.203,-34.180,-29.785,-150.391
1692210531.778,-47.363,-30.762,-33.203,-49.805,-169.922
1692210531.782,-53.711,-31.250,-31.250,-62.012,-55.664
1692210531.786,-44.922,-33.203,-33.203,-45.898,67.871
1692210531.789,-24.414,-18.555,-42.480,-12.695,13.672
1692210531.793,-7.812,-14.648,-37.109,-1.953,-79.590
1692210531.797,-22.949,-33.203,-22.949,-30.273,-54.199
1692210531.801,-51.758,-37.109,-20.996,-72.266,-118.164
1692210531.805,-55.176,-35.645,-23.438,-66.895,-200.684
1692210531.820,-34.180,-35.156,-24.414,-21.973,-127.930
1692210531.824,-28.809,-30.762,-23.438,-11.230,69.824
1692210531.828,-37.598,-28.809,-17.090,-35.156,31.738
1692210531.832,-36.133,-31.250,-10.254,-50.781,-164.062
1692210531.836,-36.621,-36.621,-15.137,-42.969,-95.703
1692210531.840,-35.156,-37.598,-17.090,-15.625,344.727
1692210531.844,-38.086,-35.645,-16.602,-12.207,312.988
1692210531.847,-53.711,-37.598,-20.996,-39.062,-20.996
1692210531.851,-64.941,-44.922,-20.996,-55.664,62.500
1692210531.855,-67.871,-52.734,-20.996,-39.551,351.562
1692210531.859,-44.434,-42.480,-22.461,-7.324,174.316
1692210531.863,-30.762,-37.109,-15.625,9.277,-172.363
1692210531.864,-42.480,-38.086,-15.137,-5.859,-161.621
1692210531.868,-50.293,-33.203,-21.973,-30.273,-173.340
1692210531.872,-47.363,-30.762,-16.602,-26.855,-210.449
1692210531.876,-41.504,-29.785,-16.113,-4.395,-155.273
1692210531.880,-34.668,-32.227,-27.832,4.395,-66.406
1692210531.884,-30.762,-36.133,-20.508,-13.184,-72.266
1692210531.888,-41.504,-30.273,-20.508,-32.715,-57.617
1692210531.891,-45.410,-26.367,-29.785,-31.250,-86.426
1692210531.895,-35.156,-31.250,-20.996,-6.836,114.746
1692210531.899,-17.090,-25.879,-17.090,3.906,189.941
1692210531.903,-18.066,-24.414,-20.508,-15.137,-120.605
1692210531.907,-30.273,-32.715,-20.020,-33.203,-149.902
1692210531.909,-29.297,-31.738,-20.996,-35.156,-91.797
1692210531.913,-30.762,-29.785,-28.320,-13.672,-125.488
1692210531.917,-31.738,-30.273,-22.461,-1.953,-194.336
1692210531.921,-30.273,-25.879,-26.855,-18.555,-124.023
1692210531.925,-33.691,-25.391,-36.133,-37.109,-21.484
1692210531.929,-36.621,-19.531,-26.367,-38.086,-33.691
1692210531.933,-23.926,-17.090,-22.949,-20.996,18.555
1692210531.936,-17.578,-22.949,-29.785,-5.371,185.547
1692210531.940,-27.832,-20.996,-32.227,-14.648,500.000
1692210531.944,-32.227,-24.414,-33.203,-42.480,243.164
1692210531.948,-32.227,-27.344,-31.250,-46.387,-180.176
1692210531.952,-29.297,-26.367,-30.273,-34.180,-138.672
1692210531.984,-20.020,-29.785,-38.086,-18.066,-92.773
1692210531.988,-14.160,-29.785,-38.574,-12.695,-98.633
1692210531.992,-23.438,-29.297,-32.227,-29.785,-132.812
1692210531.996,-34.668,-31.250,-31.250,-46.387,-60.059
1692210532.000,-35.156,-29.785,-32.227,-33.203,-65.430
1692210532.004,-31.738,-29.785,-32.227,-5.371,-107.422
1692210532.008,-25.879,-31.738,-31.738,-8.789,-92.285
1692210532.011,-25.879,-31.250,-31.738,-33.203,133.789
1692210532.015,-33.691,-29.297,-32.715,-50.293,166.504
1692210532.019,-36.133,-31.250,-30.762,-40.527,-167.969
1692210532.023,-39.062,-37.109,-28.320,-22.461,-132.812
1692210532.027,-39.551,-29.785,-28.809,-29.785,-16.602
1692210532.014,-38.574,-27.344,-30.762,-49.316,-71.289
1692210532.018,-49.316,-29.785,-29.297,-58.594,-228.516
1692210532.022,-49.316,-30.273,-31.250,-44.922,5.371
1692210532.026,-46.387,-36.621,-32.227,-46.387,250.977
1692210532.030,-52.246,-35.156,-26.855,-55.176,172.363
1692210532.034,-49.316,-33.691,-31.738,-40.039,131.348
1692210532.038,-46.387,-34.668,-36.133,-26.855,-27.344
1692210532.041,-47.363,-35.156,-33.691,-31.738,-115.234
1692210532.045,-48.340,-32.227,-26.855,-47.852,-97.168
1692210532.049,-48.828,-25.391,-24.414,-55.176,-186.035
1692210532.053,-42.969,-26.367,-25.879,-37.598,-242.188
1692210532.057,-40.039,-31.250,-19.531,-22.461,-129.883
1692210532.061,-40.039,-37.598,-22.461,-20.996,248.047
1692210532.065,-33.691,-36.133,-25.879,-40.039,113.281
1692210532.069,-41.504,-35.156,-21.973,-56.152,-214.355
1692210532.073,-39.551,-32.715,-20.508,-33.691,-144.043
1692210532.077,-28.320,-29.785,-21.973,-12.695,-67.383
1692210532.081,-20.996,-31.250,-27.344,-11.230,-92.285
1692210532.085,-22.949,-36.133,-30.762,-26.855,-183.594
1692210532.088,-32.227,-34.668,-31.250,-48.340,-104.980
1692210532.092,-31.250,-37.598,-37.598,-48.828,145.020
1692210532.096,-28.809,-42.969,-39.551,-35.645,-73.730
1692210532.100,-24.902,-36.133,-36.133,-23.438,-179.688
1692210532.104,-24.414,-34.180,-32.227,-34.668,-89.355
1692210532.105,-30.273,-41.504,-31.738,-51.758,-122.559
1692210532.109,-38.574,-41.016,-30.762,-52.246,-166.992
1692210532.113,-25.879,-26.855,-34.668,-20.996,-63.477
1692210532.117,-3.906,-19.043,-35.156,18.066,114.746
1692210532.121,-23.926,-25.879,-27.344,-16.602,11.230
1692210532.125,-57.129,-33.691,-23.926,-69.336,-46.387
1692210532.129,-65.430,-36.621,-22.949,-76.172,-43.945
1692210532.132,-62.988,-38.574,-28.320,-55.176,258.301
1692210532.136,-57.617,-38.086,-29.297,-40.039,433.105
1692210532.140,-55.176,-32.715,-25.879,-59.570,-28.809
1692210532.144,-73.242,-37.109,-23.926,-91.797,-211.914
1692210532.148,-93.750,-41.016,-28.320,-99.121,-188.965
1692210532.180,-82.031,-37.598,-24.902,-66.406,-242.676
1692210532.184,-75.684,-31.738,-19.043,-51.270,-215.332
1692210532.188,-76.660,-36.621,-28.809,-68.848,-161.621
1692210532.192,-77.148,-44.434,-31.250,-86.426,-122.559
1692210532.196,-78.613,-36.621,-24.902,-81.055,-129.883
1692210532.200,-68.848,-37.598,-24.902,-67.871,-102.051
1692210532.204,-53.223,-41.016,-27.832,-43.945,103.027
1692210532.207,-49.805,-39.551,-31.738,-40.039,359.863
1692210532.211,-46.875,-36.621,-28.809,-57.617,71.777
1692210532.215,-44.922,-36.133,-22.949,-59.570,-222.656
1692210532.219,-53.223,-38.574,-25.391,-42.969,-61.523
1692210532.223,-45.410,-38.574,-29.297,-24.902,37.109
1692210532.194,-33.203,-35.645,-29.785,-21.973,-103.027
1692210532.198,-38.086,-30.273,-28.809,-44.434,-153.809
1692210532.202,-48.340,-26.855,-24.902,-53.711,-50.293
1692210532.206,-52.246,-27.344,-28.320,-33.203,-22.461
1692210532.210,-36.133,-27.344,-34.180,-13.184,-112.305
1692210532.214,-17.090,-26.367,-28.320,-18.066,13.672
1692210532.218,-17.578,-27.344,-33.203,-37.598,233.887
1692210532.221,-26.367,-26.367,-39.062,-49.805,20.996
1692210532.225,-15.625,-26.367,-34.180,-29.785,-214.355
1692210532.229,-6.836,-26.855,-23.926,0.488,-109.863
1692210532.233,-38.086,-30.762,-23.438,-20.508,289.551
1692210532.237,-63.965,-31.738,-24.414,-53.223,117.188
1692210532.241,-69.824,-25.391,-20.508,-72.754,-221.191
1692210532.245,-65.918,-25.879,-24.414,-61.035,-180.664
1692210532.249,-57.129,-36.133,-24.414,-35.156,229.980
1692210532.253,-53.223,-32.227,-21.484,-43.945,255.371
1692210532.257,-59.570,-25.879,-23.926,-69.336,-153.320
1692210532.261,-65.918,-29.785,-28.320,-83.984,-9.277
1692210532.265,-62.012,-28.809,-29.785,-72.266,180.664
1692210532.268,-53.711,-27.832,-29.785,-46.387,-95.215
1692210532.272,-41.992,-29.297,-28.320,-35.156,-179.199
1692210532.276,-44.434,-34.180,-30.762,-41.992,-78.613
1692210532.280,-46.387,-33.203,-32.227,-52.734,-72.754
1692210532.284,-41.016,-33.691,-27.344,-45.898,-187.012
1692210532.299,-30.762,-28.809,-26.855,-16.113,-160.645
1692210532.303,-21.973,-25.391,-30.273,-0.488,27.832
1692210532.307,-19.531,-24.414,-22.949,-15.625,11.719
1692210532.311,-29.785,-25.391,-20.508,-43.945,-51.270
1692210532.315,-37.598,-29.785,-27.832,-51.758,-130.859
1692210532.319,-36.621,-29.297,-30.762,-28.320,167.969
1692210532.323,-35.156,-27.344,-31.250,-13.672,340.820
1692210532.326,-30.762,-26.367,-23.438,-28.320,-31.250
1692210532.330,-39.062,-31.250,-26.367,-52.734,-100.098
1692210532.334,-41.016,-30.273,-29.785,-49.316,137.695
1692210532.338,-22.461,-21.973,-27.344,-24.902,-41.992
1692210532.342,-9.277,-21.973,-27.344,-7.812,-214.355
1692210532.344,-9.766,-26.367,-30.762,-11.719,-128.418
1692210532.348,-22.461,-30.273,-33.691,-41.504,-135.742
1692210532.352,-34.180,-31.738,-32.227,-47.363,-190.918
1692210532.356,-27.832,-35.156,-34.180,-32.227,-112.305
1692210532.360,-22.949,-34.180,-30.762,-18.066,-14.648
1692210532.364,-26.367,-31.250,-29.297,-19.043,116.699
1692210532.368,-27.832,-28.320,-28.320,-47.852,101.074
1692210532.371,-32.227,-25.879,-25.879,-59.570,-111.816
1692210532.375,-34.180,-32.227,-29.297,-34.180,-6.348
1692210532.379,-30.762,-31.738,-28.809,-12.207,271.484
1692210532.383,-23.926,-29.785,-28.809,-22.949,-29.785
1692210532.387,-31.250,-33.203,-35.156,-41.992,-210.938
1692210532.390,-38.574,-35.156,-38.086,-58.105,-73.242
1692210532.394,-32.715,-31.250,-39.551,-48.340,-103.027
1692210532.398,-23.438,-24.902,-37.598,-19.531,-98.633
1692210532.402,-27.344,-29.297,-36.133,-18.555,38.574
1692210532.406,-38.574,-33.691,-42.969,-37.109,142.578
1692210532.410,-41.992,-24.902,-43.457,-50.293,47.852
1692210532.414,-38.086,-20.996,-30.273,-40.039,-125.488
1692210532.417,-33.203,-23.438,-24.414,-12.207,-103.027
1692210532.421,-31.250,-25.391,-32.715,-7.812,242.188
1692210532.425,-36.133,-22.949,-29.297,-27.832,255.859
1692210532.429,-41.016,-23.438,-21.973,-47.363,-193.848
1692210532.433,-48.340,-28.809,-26.855,-44.434,-211.914
1692210532.435,-46.387,-27.344,-30.273,-20.508,-95.703
1692210532.439,-40.527,-32.715,-29.297,-13.184,-134.277
1692210532.443,-47.363,-40.039,-32.227,-38.086,-142.578
1692210532.447,-47.852,-35.645,-29.785,-55.176,-138.672
1692210532.451,-45.410,-32.227,-29.297,-39.551,-131.348
1692210532.455,-38.574,-29.785,-25.391,-22.461,19.531
1692210532.459,-29.785,-32.715,-28.809,-26.855,44.922
1692210532.462,-32.715,-39.062,-34.180,-38.086,20.020
1692210532.466,-46.387,-44.434,-34.180,-56.152,376.465
1692210532.470,-73.730,-65.430,-61.523,-83.984,102.539
1692210532.474,-79.590,-76.660,-81.543,-74.707,-215.332
1692210532.478,-75.684,-74.707,-76.172,-53.711,-89.844
1692210532.480,-83.984,-80.078,-71.777,-74.219,-90.332
1692210532.484,-83.984,-78.613,-72.754,-103.516,-204.102
1692210532.488,-79.590,-74.219,-67.871,-100.098,-183.105
1692210532.492,-74.219,-67.871,-58.105,-73.242,114.746
1692210532.496,-61.035,-61.523,-56.641,-50.293,61.035
1692210532.500,-52.734,-63.477,-59.082,-48.340,-83.008
1692210532.504,-43.457,-73.242,-57.617,-60.059,-12.695
1692210532.507,-46.875,-71.289,-63.965,-71.289,247.070
1692210532.511,-57.129,-60.547,-69.824,-65.430,196.777
1692210532.515,-55.176,-65.430,-62.988,-46.875,-190.430
1692210532.519,-43.457,-63.477,-55.664,-32.227,-173.340
1692210532.523,-40.039,-60.547,-53.223,-44.434,-35.645
1692210532.526,-43.457,-62.012,-59.082,-58.594,-187.012
1692210532.530,-26.855,-55.664,-56.152,-33.203,-224.609
1692210532.534,-12.695,-50.293,-55.664,-8.789,-66.406
1692210532.538,-15.625,-46.875,-55.664,-13.672,31.250
1692210532.542,-21.973,-41.992,-41.504,-39.551,-40.527
1692210532.546,-28.320,-41.992,-30.762,-39.551,-43.945
1692210532.550,-31.250,-44.922,-31.738,-20.996,92.285
1692210532.553,-25.879,-45.410,-33.691,-10.742,385.254
1692210532.557,-23.438,-40.039,-35.156,-8.301,76.660
1692210532.561,-31.250,-37.598,-36.621,-31.250,-252.930
1692210532.565,-31.250,-41.016,-34.668,-45.898,-168.457
1692210532.569,-30.273,-42.480,-30.762,-27.832,-125.000
1692210532.571,-35.156,-43.457,-33.691,-10.254,-142.090
1692210532.575,-30.762,-39.551,-37.109,-19.043,-33.203
1692210532.579,-25.879,-33.691,-31.738,-35.645,105.469
1692210532.583,-29.785,-35.645,-33.691,-45.898,-17.090
1692210532.587,-23.438,-33.691,-38.086,-41.504,-148.438
1692210532.591,-12.207,-30.762,-24.902,-10.254,-11.719
1692210532.595,-14.160,-30.762,-20.508,8.789,380.859
1692210532.598,-21.973,-30.762,-24.902,-11.719,485.352
1692210532.602,-26.367,-31.250,-23.438,-39.062,-6.348
1692210532.606,-27.832,-33.691,-25.879,-35.645,-212.402
1692210532.610,-23.438,-32.715,-32.715,-12.207,-120.605
1692210532.614,-10.254,-32.227,-32.715,-4.395,-146.973
1692210532.616,-15.137,-34.668,-28.809,-28.320,-193.359
1692210532.620,-25.391,-36.133,-30.762,-52.734,-146.973
1692210532.624,-35.645,-39.062,-36.133,-41.504,-99.609
1692210532.628,-40.039,-37.109,-32.715,-24.902,-89.355
1692210532.632,-24.902,-32.715,-33.203,-18.066,-113.770
1692210532.636,-32.715,-39.062,-28.809,-28.320,62.988
1692210532.640,-46.875,-39.551,-25.391,-41.992,385.742
1692210532.643,-41.016,-27.344,-25.391,-35.156,52.246
1692210532.647,-34.180,-24.414,-23.926,-19.531,-265.137
1692210532.651,-32.715,-23.438,-24.414,-19.043,-129.395
1692210532.655,-33.691,-21.973,-21.484,-32.227,-99.121
1692210532.659,-39.551,-23.438,-23.438,-50.781,-181.641
1692210532.674,-42.969,-25.879,-29.785,-52.734,-182.129
1692210532.678,-41.504,-25.391,-31.738,-38.086,-64.941
1692210532.682,-33.203,-28.320,-35.156,-21.973,-39.551
1692210532.686,-24.902,-32.227,-35.645,-17.578,-17.578
1692210532.690,-29.297,-32.227,-35.156,-41.016,-67.871
1692210532.694,-30.762,-29.785,-32.715,-42.480,215.332
1692210532.698,-29.785,-25.879,-30.762,-16.113,406.738
1692210532.701,-18.555,-21.973,-24.414,4.395,93.750
1692210532.705,-14.648,-23.438,-21.484,9.277,-37.109
1692210532.709,-26.855,-28.809,-25.391,-17.090,179.688
1692210532.713,-30.762,-27.344,-32.227,-45.898,54.199
1692210532.717,-30.762,-26.367,-31.738,-29.785,-194.824
1692210532.720,-25.879,-24.414,-25.391,-5.371,-114.258
1692210532.724,-23.926,-25.879,-24.902,-12.207,-66.406
1692210532.728,-24.414,-40.039,-22.949,-20.996,-161.133
1692210532.732,-15.137,-39.062,-20.020,-28.320,-245.605
1692210532.736,-30.762,-14.160,-33.203,-45.410,-134.766
1692210532.740,-41.992,-9.277,-46.875,-39.062,35.156
1692210532.744,-24.414,-21.973,-38.574,-23.438,49.805
1692210532.747,-26.367,-25.879,-37.598,-38.574,-77.637
1692210532.751,-32.715,-27.344,-36.621,-50.293,-8.301
1692210532.755,-35.156,-28.809,-33.691,-38.574,79.590
1692210532.759,-38.574,-28.320,-40.527,-27.832,-128.906
1692210532.763,-33.691,-26.855,-41.016,-23.926,-195.801
1692210532.764,-32.715,-21.973,-38.574,-29.785,64.941
1692210532.768,-48.340,-22.949,-36.621,-54.688,189.453
1692210532.772,-51.270,-27.832,-33.203,-51.758,-85.938
1692210532.776,-38.086,-24.902,-32.227,-30.762,-15.625
1692210532.780,-34.668,-26.855,-35.645,-21.973,150.879
1692210532.784,-32.227,-31.250,-38.086,-29.785,58.594
1692210532.788,-25.391,-24.902,-32.715,-47.852,-78.613
1692210532.791,-27.344,-19.043,-25.879,-44.434,-124.512
1692210532.795,-27.344,-22.949,-28.320,-17.578,119.141
1692210532.799,-23.926,-25.391,-31.250,-7.812,86.426
1692210532.803,-28.809,-23.438,-26.367,-24.902,-179.688
1692210532.807,-35.645,-21.973,-23.926,-45.410,-98.145
1692210532.813,-41.504,-23.926,-23.926,-44.434,-41.016
1692210532.817,-36.133,-22.461,-26.367,-20.996,-150.879
1692210532.821,-24.902,-25.879,-30.273,-8.789,-205.078
1692210532.825,-26.367,-35.645,-27.344,-24.414,-154.297
1692210532.829,-32.227,-34.180,-28.320,-54.688,-123.535
1692210532.833,-31.738,-28.320,-32.227,-54.688,-49.316
1692210532.837,-30.273,-33.691,-31.738,-25.879,25.391
1692210532.840,-24.902,-27.344,-33.203,-6.836,56.152
1692210532.844,-17.090,-19.531,-39.062,-20.508,202.148
1692210532.848,-12.207,-23.438,-38.574,-44.922,-72.754
1692210532.852,-19.531,-24.414,-32.227,-43.457,-237.793
1692210532.856,-23.438,-21.973,-28.809,-32.715,-79.102
1692210532.856,-11.230,-25.879,-31.250,-18.066,-86.426
1692210532.860,-15.137,-32.715,-29.785,-20.020,-123.047
1692210532.864,-21.484,-31.250,-25.391,-42.480,-11.230
1692210532.868,-24.414,-22.949,-25.391,-49.805,130.859
1692210532.872,-29.297,-22.461,-29.297,-26.855,-31.250
1692210532.876,-21.484,-29.297,-29.297,-10.742,-14.648
1692210532.880,-20.996,-30.762,-28.320,-23.926,69.824
1692210532.883,-25.879,-24.414,-29.785,-31.250,201.660
1692210532.887,-36.621,-23.438,-23.438,-40.527,380.859
1692210532.891,-39.551,-27.344,-28.320,-37.598,31.250
1692210532.895,-33.203,-26.367,-34.668,-11.230,-157.227
1692210532.899,-30.762,-23.438,-27.832,-1.465,-61.523
1692210532.901,-34.668,-29.297,-23.438,-21.973,-129.395
1692210532.905,-48.828,-29.297,-28.320,-47.852,-187.988
1692210532.909,-54.688,-21.484,-34.180,-44.922,-146.484
1692210532.913,-46.875,-31.250,-34.668,-27.344,-96.680
1692210532.917,-33.691,-29.297,-30.273,-30.762,-74.707
1692210532.921,-33.203,-17.578,-26.367,-45.410,-43.457
1692210532.925,-47.852,-21.973,-29.785,-62.988,3.906
1692210532.928,-41.992,-20.020,-32.715,-47.363,277.832
1692210532.932,-4.395,-14.648,-37.598,1.465,100.098
1692210532.936,-20.508,-29.785,-35.645,-10.254,-177.246
1692210532.940,-61.523,-36.133,-27.832,-63.965,-52.246
1692210532.944,-79.102,-33.691,-28.809,-95.703,-58.594
1692210532.944,-84.961,-40.039,-32.227,-84.473,-176.758
1692210532.948,-82.031,-45.898,-31.738,-65.918,-169.434
1692210532.952,-94.727,-41.992,-28.809,-75.195,5.371
1692210532.956,-103.027,-36.621,-36.621,-92.773,60.547
1692210532.960,-111.816,-42.969,-36.621,-119.629,-75.195
1692210532.964,-122.559,-47.363,-29.297,-130.859,-84.961
1692210532.968,-117.188,-40.527,-28.320,-99.609,235.352
1692210532.971,-101.074,-41.016,-31.250,-70.312,458.496
1692210532.975,-88.867,-42.969,-29.785,-82.031,105.469
1692210532.979,-88.379,-36.621,-26.367,-105.469,-174.316
1692210532.983,-89.355,-32.715,-31.738,-107.910,-131.348
1692210532.987,-69.824,-34.180,-33.691,-83.984,-134.766
1692210533.007,-49.316,-31.738,-33.203,-48.828,-144.531
1692210533.011,-54.199,-37.598,-34.180,-48.340,-164.551
1692210533.015,-63.965,-38.086,-31.738,-66.406,-148.438
1692210533.019,-62.988,-35.156,-34.180,-59.570,-118.652
1692210533.023,-54.688,-33.203,-40.039,-41.504,-139.648
1692210533.027,-47.852,-29.785,-38.086,-25.391,18.555
1692210533.031,-43.457,-30.762,-38.086,-29.297,194.824
1692210533.034,-43.457,-31.250,-31.738,-56.152,-3.418
1692210533.038,-45.898,-27.832,-28.809,-64.941,-202.637
1692210533.042,-44.434,-28.320,-31.738,-46.387,33.691
1692210533.046,-41.504,-29.297,-33.203,-26.855,281.250
1692210533.050,-35.156,-33.691,-35.645,-37.109,-50.781
1692210533.049,-36.621,-34.668,-35.156,-57.617,-189.453
1692210533.053,-31.738,-32.227,-32.227,-50.293,-56.152
1692210533.057,-26.367,-33.203,-29.785,-24.902,-72.754
1692210533.061,-26.367,-28.809,-32.715,-17.578,-79.590
1692210533.065,-22.461,-30.762,-30.273,-30.273,-32.715
1692210533.069,-28.809,-33.691,-29.785,-55.664,143.066
1692210533.073,-40.039,-26.367,-32.715,-62.012,55.664
1692210533.076,-39.062,-20.508,-27.344,-39.551,-139.160
1692210533.080,-34.668,-23.438,-27.832,-22.461,-114.746
1692210533.084,-36.621,-25.391,-38.574,-20.020,223.145
1692210533.088,-44.434,-26.855,-34.180,-43.457,309.082
1692210533.092,-51.270,-27.344,-27.344,-67.871,-28.320
1692210533.111,-44.922,-26.855,-32.715,-47.852,-37.598
1692210533.115,-29.785,-28.320,-30.273,-17.578,12.695
1692210533.119,-22.949,-28.809,-26.855,-14.648,-114.258
1692210533.123,-16.602,-25.879,-23.926,-27.832,-182.617
1692210533.127,-12.207,-21.973,-19.531,-40.039,-155.273
1692210533.131,-20.996,-23.926,-23.926,-38.086,-61.523
1692210533.135,-20.020,-26.367,-25.391,-13.184,-18.555
1692210533.138,-12.207,-25.879,-23.926,-1.465,-152.344
1692210533.142,-14.160,-21.973,-29.785,-12.207,-63.965
1692210533.146,-28.320,-20.508,-31.738,-26.855,204.590
1692210533.150,-33.203,-24.414,-27.832,-34.180,-54.688
1692210533.154,-22.461,-25.879,-30.273,-17.578,-179.199
1692210533.141,-17.090,-26.367,-30.762,-6.836,-82.520
1692210533.145,-31.250,-25.879,-38.574,-24.414,-111.328
1692210533.149,-38.574,-29.297,-37.109,-41.504,-100.098
1692210533.153,-29.785,-30.273,-31.250,-33.203,-18.555
1692210533.157,-28.320,-35.645,-35.645,-17.578,132.324
1692210533.161,-23.438,-35.645,-31.250,-0.488,52.734
1692210533.165,-17.578,-35.156,-35.645,-14.648,-45.410
1692210533.168,-28.320,-27.344,-38.086,-48.828,-28.809
1692210533.172,-42.480,-20.020,-32.715,-48.340,135.254
1692210533.176,-43.457,-27.344,-32.715,-41.016,11.719
1692210533.180,-40.527,-31.250,-34.180,-21.973,-201.172
1692210533.184,-38.086,-30.762,-37.598,-15.625,-140.137
1692210533.185,-39.551,-24.414,-33.203,-38.086,228.027
1692210533.189,-39.062,-21.973,-32.715,-44.434,203.613
1692210533.193,-33.691,-27.832,-37.109,-31.738,-128.418
1692210533.197,-31.250,-25.391,-34.180,-16.113,-86.914
1692210533.201,-23.926,-26.855,-30.273,-16.602,-2.930
1692210533.205,-26.855,-28.809,-30.762,-34.180,-13.184
1692210533.209,-36.133,-27.832,-25.879,-43.457,-78.125
1692210533.212,-35.645,-23.438,-23.926,-37.109,0.977
1692210533.216,-31.250,-24.902,-25.391,-15.625,293.945
1692210533.220,-24.902,-29.785,-26.855,-9.766,48.828
1692210533.224,-23.926,-28.320,-32.227,-35.645,-227.539
1692210533.228,-28.320,-20.508,-33.691,-47.363,-155.273
1692210533.229,-26.855,-17.090,-36.133,-25.391,-163.574
1692210533.233,-25.879,-20.996,-34.180,-1.953,-219.727
1692210533.237,-19.043,-22.461,-28.320,-8.789,-166.016
1692210533.241,-22.461,-23.438,-25.391,-33.203,70.312
1692210533.245,-31.250,-27.832,-26.367,-48.340,5.859
1692210533.249,-36.621,-23.926,-37.109,-38.574,-84.961
1692210533.253,-30.273,-17.090,-38.574,-14.648,-48.340
1692210533.256,-27.344,-27.832,-34.180,-8.301,291.504
1692210533.260,-31.250,-28.320,-32.715,-19.043,416.992
1692210533.264,-28.809,-26.367,-33.203,-41.504,-83.496
1692210533.268,-31.738,-29.297,-33.203,-43.945,-195.312
1692210533.272,-29.297,-21.484,-31.738,-21.484,-118.164
1692210533.277,-21.484,-20.020,-35.645,-12.695,-175.781
1692210533.281,-23.438,-22.949,-34.668,-30.273,-171.387
1692210533.285,-25.391,-17.578,-27.832,-44.434,-129.883
1692210533.289,-35.156,-16.602,-28.320,-42.969,-76.660
1692210533.293,-37.598,-19.531,-26.855,-23.438,-62.500
1692210533.297,-32.715,-20.020,-22.949,-11.230,-23.438
1692210533.301,-36.133,-20.508,-30.273,-34.668,125.977
1692210533.304,-38.574,-19.043,-35.645,-60.547,306.152
1692210533.308,-41.504,-17.090,-32.715,-56.641,-16.602
1692210533.312,-41.992,-27.832,-31.250,-37.598,-170.410
1692210533.316,-38.086,-33.203,-26.855,-27.832,36.133
1692210533.320,-37.598,-20.996,-30.273,-31.250,10.742
1692210533.320,-41.504,-20.020,-35.645,-47.852,-141.113
1692210533.324,-49.805,-31.738,-35.156,-55.176,-208.984
1692210533.328,-46.875,-32.715,-35.645,-39.062,-59.082
1692210533.332,-35.156,-31.738,-33.691,-22.949,41.504
1692210533.336,-36.621,-25.879,-31.250,-30.273,-109.375
1692210533.340,-42.969,-20.020,-32.715,-51.758,-141.113
1692210533.344,-46.387,-23.926,-31.250,-52.734,210.449
1692210533.347,-46.387,-26.367,-26.367,-19.531,437.988
1692210533.351,-40.527,-20.996,-30.273,-1.953,88.379
1692210533.355,-35.156,-22.461,-28.320,-14.160,-118.164
1692210533.359,-29.785,-20.996,-21.973,-28.809,-102.539
1692210533.363,-32.227,-17.578,-22.461,-36.133,-179.688
1692210533.368,-32.227,-18.555,-26.855,-24.902,-148.438
1692210533.372,-28.320,-20.996,-30.762,-8.301,-92.285
1692210533.376,-24.414,-22.461,-26.855,-5.371,43.457
1692210533.380,-29.297,-23.438,-21.973,-24.902,-74.219
1692210533.384,-27.344,-23.926,-23.438,-29.785,-247.070
1692210533.388,-19.531,-21.973,-23.438,-20.020,-98.145
1692210533.392,-17.090,-20.020,-19.043,-0.977,257.324
1692210533.395,-11.230,-20.996,-18.066,-3.418,52.246
1692210533.399,-16.602,-22.949,-24.414,-32.227,-218.262
1692210533.403,-29.785,-23.438,-29.785,-42.480,-113.281
1692210533.407,-33.691,-27.832,-29.785,-32.715,-45.898
1692210533.411,-24.414,-28.320,-29.785,-9.766,-101.074
1692210533.426,-23.926,-28.809,-33.203,-8.789,-46.387
1692210533.430,-35.645,-31.250,-30.762,-39.062,19.043
1692210533.434,-43.457,-33.691,-25.879,-52.734,10.254
1692210533.438,-46.387,-31.250,-27.344,-37.598,-34.180
1692210533.442,-30.762,-25.391,-24.414,-16.602,-107.910
1692210533.446,-24.414,-30.273,-26.367,-11.230,270.020
1692210533.450,-29.785,-35.156,-27.832,-26.855,530.762
1692210533.453,-30.273,-29.785,-27.344,-52.734,-4.883
1692210533.457,-30.762,-21.973,-28.809,-52.734,-250.000
1692210533.461,-30.762,-28.809,-32.227,-28.320,81.543
1692210533.465,-27.344,-32.715,-32.715,-22.461,43.457
1692210533.469,-29.785,-32.715,-30.762,-40.527,-176.758
1692210533.469,-35.645,-36.133,-29.785,-59.570,-125.977
1692210533.473,-36.621,-35.645,-27.344,-53.223,-66.895
1692210533.477,-38.574,-35.645,-29.297,-21.484,-114.258
1692210533.481,-34.668,-36.621,-30.762,-11.719,-126.465
1692210533.485,-22.949,-36.621,-25.879,-24.902,-71.289
1692210533.489,-21.973,-31.738,-24.902,-44.434,-12.207
1692210533.493,-30.762,-26.855,-26.855,-42.969,20.508
1692210533.496,-29.785,-23.926,-34.668,-26.367,-85.449
1692210533.500,-14.160,-23.438,-39.062,-13.672,-64.453
1692210533.504,-15.625,-20.508,-38.086,-19.531,278.320
1692210533.508,-25.879,-23.438,-37.109,-42.480,-11.719
1692210533.512,-27.344,-26.855,-36.133,-56.641,-292.969
1692210533.514,-23.926,-23.438,-37.109,-42.969,-108.398
1692210533.518,-21.484,-20.996,-37.598,-20.996,-96.680
1692210533.522,-22.949,-26.855,-34.668,-30.762,-159.668
1692210533.526,-26.855,-28.320,-28.320,-61.523,-104.004
1692210533.530,-28.809,-27.344,-31.250,-62.500,91.797
1692210533.534,-28.320,-27.344,-33.203,-40.527,46.875
1692210533.538,-20.508,-27.344,-31.738,-22.949,-61.035
1692210533.541,-15.137,-24.414,-32.715,-30.762,-34.668
1692210533.545,-25.879,-16.113,-28.809,-51.270,204.102
1692210533.549,-33.691,-12.207,-26.855,-58.594,214.844
1692210533.553,-36.133,-22.949,-31.250,-49.805,-188.965
1692210533.557,-32.715,-31.738,-34.668,-33.691,-244.629
1692210533.559,-32.227,-29.785,-35.156,-36.133,-152.344
1692210533.563,-47.852,-28.809,-38.574,-62.500,-159.180
1692210533.567,-61.523,-32.715,-41.992,-78.125,-161.621
1692210533.571,-63.965,-29.297,-40.039,-62.012,-75.684
1692210533.575,-54.199,-26.367,-38.574,-36.621,-32.715
1692210533.579,-45.410,-27.344,-40.039,-28.320,24.414
1692210533.583,-47.363,-30.762,-35.156,-46.875,55.664
1692210533.586,-50.293,-28.320,-28.320,-53.223,30.762
1692210533.590,-53.711,-27.344,-29.785,-29.297,149.902
1692210533.594,-41.016,-45.898,-28.320,0.000,0.977
1692210533.598,-12.207,-53.711,-24.414,12.695,-80.078
1692210533.602,-20.996,-31.738,-33.691,-18.555,58.594
1692210533.604,-44.922,-17.090,-40.527,-48.340,62.012
1692210533.608,-27.832,-23.926,-39.062,-37.109,-118.164
1692210533.612,-15.625,-24.902,-32.715,-16.602,-176.270
1692210533.616,-21.973,-18.555,-30.762,-9.277,132.324
1692210533.620,-27.832,-17.090,-41.504,-19.531,309.570
1692210533.624,-31.738,-18.555,-39.551,-43.457,-3.418
1692210533.628,-28.809,-24.414,-29.297,-42.480,-28.320
1692210533.631,-33.203,-30.273,-29.297,-20.020,171.875
1692210533.635,-24.902,-24.414,-33.691,-0.977,89.355
1692210533.639,-16.602,-22.461,-36.133,-10.742,-170.410
1692210533.643,-23.438,-25.391,-36.621,-29.297,-200.195
1692210533.647,-29.297,-20.996,-34.180,-30.273,-83.008
1692210533.653,-28.320,-21.973,-35.645,-11.719,-28.809
1692210533.657,-19.531,-19.531,-40.527,-5.859,-133.301
1692210533.661,-20.996,-16.113,-40.039,-21.973,-118.164
1692210533.665,-32.715,-20.508,-40.039,-40.527,28.320
1692210533.669,-34.668,-20.996,-40.039,-50.293,-89.844
1692210533.673,-32.715,-18.066,-37.109,-32.715,-136.719
1692210533.677,-28.320,-20.508,-34.180,-9.766,139.648
1692210533.680,-28.320,-26.855,-33.691,-21.484,361.328
1692210533.684,-36.133,-25.391,-34.180,-46.875,-15.625
1692210533.688,-40.039,-23.438,-34.668,-52.734,-247.070
1692210533.692,-34.668,-23.926,-37.598,-37.109,-134.766
1692210533.696,-28.320,-27.344,-36.133,-19.531,-91.797
1692210533.694,-23.926,-29.297,-30.273,-12.207,-137.207
1692210533.698,-22.461,-24.902,-27.832,-21.484,-146.484
1692210533.702,-27.344,-21.973,-29.297,-29.785,-62.012
1692210533.706,-21.973,-16.113,-31.738,-18.066,-33.203
1692210533.710,-22.461,-12.207,-38.086,0.488,-60.547
1692210533.714,-20.996,-13.672,-33.203,-3.418,-77.637
1692210533.718,-17.578,-19.043,-27.344,-25.391,165.527
1692210533.721,-25.391,-26.855,-32.227,-38.086,405.762
1692210533.725,-25.391,-26.367,-29.785,-32.715,77.148
1692210533.729,-9.766,-21.484,-25.391,-14.648,-109.375
1692210533.733,-3.906,-21.484,-26.367,-23.438,61.035
1692210533.737,-9.766,-22.461,-28.809,-39.062,-105.469
1692210533.756,-22.461,-25.879,-30.762,-45.898,-268.066
1692210533.760,-27.832,-36.621,-27.344,-29.297,-202.148
1692210533.764,0.488,-42.480,-22.461,15.625,-109.863
1692210533.768,12.695,-17.578,-32.227,10.742,-141.602
1692210533.772,-13.184,-7.324,-35.645,-37.109,-197.754
1692210533.776,-23.438,-14.648,-32.715,-47.363,-49.316
1692210533.780,-21.973,-17.090,-37.598,-29.785,98.145
1692210533.783,-14.648,-25.879,-40.039,-12.207,95.215
1692210533.787,1.953,-24.902,-36.133,2.441,-21.484
1692210533.791,3.418,-19.531,-35.156,-6.836,-80.078
1692210533.795,-5.859,-21.973,-31.250,-24.902,-64.453
1692210533.799,-18.066,-23.438,-31.738,-24.414,-149.902
1692210533.799,-16.602,-21.973,-38.574,-9.766,-187.988
1692210533.803,-10.742,-16.602,-33.691,5.371,55.176
1692210533.807,-15.625,-17.578,-31.250,-13.184,272.949
1692210533.811,-17.090,-23.926,-33.691,-39.062,42.480
1692210533.815,-19.043,-24.414,-28.320,-35.156,-93.262
1692210533.819,-25.391,-15.625,-27.344,-12.695,123.047
1692210533.823,-17.578,-15.137,-36.621,-2.441,82.031
1692210533.826,-9.766,-14.160,-35.645,-9.277,-128.906
1692210533.830,-23.438,-16.602,-28.320,-35.645,-160.156
1692210533.834,-36.133,-23.926,-30.762,-43.457,104.492
1692210533.838,-30.762,-22.949,-32.227,-16.602,355.469
1692210533.842,-23.926,-22.949,-32.715,0.000,8.301
1692210533.844,-28.809,-26.367,-35.156,-19.531,-217.285
1692210533.848,-35.645,-29.785,-35.156,-55.176,-172.852
1692210533.852,-39.551,-33.691,-35.645,-57.129,-270.020
1692210533.856,-33.203,-33.203,-36.621,-33.691,-247.070
1692210533.860,-21.484,-30.273,-31.250,-4.883,-88.379
1692210533.864,-20.996,-31.250,-35.156,-7.812,42.480
1692210533.868,-26.367,-31.738,-41.016,-35.156,100.586
1692210533.871,-28.320,-31.250,-31.250,-33.691,-65.430
1692210533.875,-18.555,-28.809,-28.320,-15.137,-63.965
1692210533.879,-18.555,-24.414,-41.504,-3.906,247.070
1692210533.883,-21.973,-25.879,-44.434,-12.207,83.496
1692210533.887,-17.578,-22.949,-38.086,-31.738,-148.438
1692210533.889,-18.066,-23.926,-42.480,-49.316,-41.016
1692210533.893,-15.625,-31.738,-41.504,-36.621,-46.387
1692210533.897,-8.301,-33.691,-28.809,-4.883,-85.938
1692210533.901,-4.883,-31.250,-24.414,2.930,-38.086
1692210533.905,-1.465,-19.531,-27.832,-13.672,100.098
1692210533.909,-8.301,-19.043,-30.273,-35.645,151.367
1692210533.913,-14.160,-22.461,-31.250,-33.691,-85.938
1692210533.916,-12.207,-21.484,-29.297,-15.137,-140.137
1692210533.920,-9.766,-22.949,-32.715,-13.672,161.133
1692210533.924,-20.996,-28.320,-37.109,-31.250,128.906
1692210533.928,-34.180,-26.855,-34.180,-43.945,-172.852
1692210533.932,-26.367,-19.531,-36.621,-35.645,-196.777
1692210533.938,-15.137,-21.973,-36.133,-10.742,-112.793
1692210533.942,-19.531,-25.879,-33.691,-6.348,-21.973
1692210533.946,-26.367,-21.973,-33.203,-20.996,-102.539
1692210533.950,-18.555,-27.344,-18.066,-15.137,-152.832
1692210533.954,0.977,-20.020,-19.531,0.488,5.859
1692210533.958,-6.836,-0.488,-31.738,-7.324,87.402
1692210533.962,-42.480,-9.277,-31.250,-37.598,-0.977
1692210533.965,-47.363,-23.926,-32.715,-52.734,39.062
1692210533.969,-46.875,-20.508,-34.668,-63.965,212.402
1692210533.973,-52.734,-14.160,-29.785,-63.477,-79.102
1692210533.977,-47.852,-11.230,-30.273,-42.480,-171.875
1692210533.981,-44.922,-13.672,-33.691,-34.668,-19.531
1692210533.979,-44.434,-13.184,-33.691,-50.293,-85.449
1692210533.983,-33.691,-9.766,-38.086,-69.824,-179.688
1692210533.987,-30.762,-17.090,-43.945,-68.359,-170.410
1692210533.991,-35.156,-23.926,-40.527,-50.293,88.379
1692210533.995,-32.715,-24.414,-37.109,-32.227,176.758
1692210533.999,-23.438,-27.344,-33.203,-40.039,76.660
1692210534.003,-23.438,-25.879,-30.762,-55.664,-78.125
1692210534.006,-37.109,-21.484,-32.227,-53.711,86.914
1692210534.010,-35.645,-25.391,-32.715,-42.480,445.801
1692210534.014,-23.926,-24.902,-29.785,-18.066,100.586
1692210534.018,-22.949,-19.043,-25.391,-13.672,-178.223
1692210534.022,-28.809,-13.672,-27.344,-42.969,-129.883
1692210534.041,-40.527,-18.555,-29.785,-55.664,-215.820
1692210534.045,-44.922,-29.297,-34.668,-32.227,-262.695
1692210534.049,-38.086,-27.344,-42.969,-15.625,-152.832
1692210534.053,-31.738,-21.484,-41.016,-22.949,-60.059
1692210534.057,-27.832,-17.578,-37.109,-49.316,-136.230
1692210534.061,-28.809,-20.996,-31.738,-57.129,-213.867
1692210534.065,-33.691,-31.738,-35.645,-33.203,-16.113
1692210534.068,-35.156,-31.738,-42.480,-17.090,298.340
1692210534.072,-31.250,-24.902,-34.668,-24.414,39.551
1692210534.076,-34.668,-21.973,-33.203,-37.109,-161.133
1692210534.080,-43.945,-24.414,-37.598,-43.457,-5.371
1692210534.084,-37.109,-28.320,-33.691,-32.227,18.555
1692210534.069,-23.926,-28.320,-32.227,-16.113,-117.676
1692210534.073,-19.531,-28.809,-36.133,-16.113,-130.371
1692210534.077,-26.367,-30.273,-37.109,-39.062,-21.484
1692210534.081,-40.039,-28.320,-36.133,-56.641,-17.578
1692210534.085,-40.039,-29.785,-34.668,-49.805,-121.582
1692210534.089,-29.297,-31.250,-35.156,-22.949,19.531
1692210534.093,-30.273,-35.156,-34.180,-10.254,235.352
1692210534.096,-37.598,-36.621,-32.227,-38.086,35.645
1692210534.100,-42.969,-28.809,-34.180,-59.570,-142.578
1692210534.104,-44.434,-25.879,-39.062,-50.781,-118.652
1692210534.108,-36.621,-31.738,-35.645,-30.273,213.867
1692210534.112,-29.785,-26.367,-31.738,-22.461,217.773
1692210534.116,-29.297,-15.625,-32.227,-30.273,-184.082
1692210534.120,-38.574,-19.043,-33.203,-43.945,-166.016
1692210534.124,-42.480,-24.902,-34.180,-42.969,205.078
1692210534.128,-32.715,-21.484,-35.156,-20.508,54.199
1692210534.132,-29.785,-21.973,-37.109,-16.113,-218.750
1692210534.136,-39.551,-24.902,-33.691,-35.645,-37.109
1692210534.140,-47.363,-23.438,-30.762,-53.223,95.703
1692210534.143,-48.828,-23.926,-32.227,-48.340,-102.539
1692210534.147,-38.574,-28.320,-37.109,-24.902,-212.891
1692210534.151,-31.250,-27.344,-33.203,-15.625,-22.949
1692210534.155,-33.691,-22.949,-28.809,-26.367,107.910
1692210534.159,-31.250,-21.973,-34.668,-45.898,-90.820
1692210534.175,-41.016,-24.902,-32.715,-48.828,-165.039
1692210534.179,-41.992,-25.879,-28.320,-23.926,21.484
1692210534.183,-26.855,-28.320,-23.438,-3.418,47.852
1692210534.187,-25.879,-35.156,-31.738,-15.625,-49.805
1692210534.191,-28.320,-28.320,-42.969,-38.086,-184.082
1692210534.195,-32.715,-22.949,-34.180,-44.434,153.320
1692210534.199,-36.133,-26.367,-27.832,-26.855,413.086
1692210534.202,-23.438,-27.344,-23.926,-18.555,-21.484
1692210534.206,-20.508,-27.344,-15.625,-20.508,-162.598
1692210534.210,-31.738,-23.926,-23.926,-37.598,-107.910
1692210534.214,-39.062,-24.414,-29.785,-46.875,-187.500
1692210534.218,-37.109,-27.344,-31.738,-37.109,-183.105
1692210534.208,-30.273,-21.973,-31.738,-16.602,-101.074
1692210534.212,-29.785,-18.066,-24.414,-10.254,-28.320
1692210534.216,-37.109,-23.438,-18.555,-26.855,-38.086
1692210534.220,-34.668,-22.949,-17.578,-44.434,-142.090
1692210534.224,-32.715,-20.508,-14.648,-36.621,-96.680
1692210534.228,-33.691,-27.832,-16.113,-10.742,134.766
1692210534.232,-27.344,-20.996,-27.344,-9.766,46.387
1692210534.235,-29.785,-14.648,-31.738,-29.297,-162.109
1692210534.239,-40.527,-24.414,-30.273,-47.852,-85.449
1692210534.243,-40.527,-23.926,-31.738,-42.480,201.172
1692210534.247,-28.320,-25.879,-35.156,-15.625,-19.043
1692210534.251,-25.391,-22.461,-39.551,-10.254,-197.754
1692210534.265,-38.574,-22.461,-39.062,-37.109,-32.715
1692210534.269,-44.922,-29.785,-37.598,-62.012,-61.035
1692210534.273,-39.551,-24.414,-38.086,-56.152,-114.746
1692210534.277,-28.809,-23.438,-31.738,-31.738,-73.242
1692210534.281,-24.902,-33.203,-28.809,-17.090,249.023
1692210534.285,-29.785,-34.668,-34.180,-32.715,424.316
1692210534.289,-34.668,-28.320,-34.668,-46.387,-48.828
1692210534.292,-37.598,-21.484,-29.297,-34.668,-255.859
1692210534.296,-34.668,-24.902,-28.320,-16.113,75.684
1692210534.300,-23.926,-28.320,-35.156,-3.418,32.715
1692210534.304,-23.926,-30.762,-31.738,-20.020,-191.895
1692210534.308,-39.062,-37.598,-25.391,-45.410,-107.422
1692210534.310,-46.875,-36.621,-30.273,-40.527,-44.922
1692210534.314,-38.086,-33.691,-32.715,-20.020,-89.844
1692210534.318,-32.227,-33.203,-42.969,-17.090,-151.367
1692210534.322,-32.715,-30.273,-38.086,-31.738,-138.672
1692210534.326,-28.320,-21.484,-28.320,-44.434,-63.965
1692210534.330,-37.598,-18.066,-32.715,-45.410,-1.465
1692210534.334,-39.062,-19.531,-34.668,-37.598,0.488
1692210534.337,-30.762,-20.020,-35.156,-22.461,78.125
1692210534.341,-26.855,-27.832,-35.645,-22.949,376.465
1692210534.345,-29.297,-32.227,-33.203,-48.828,155.762
1692210534.349,-40.527,-35.645,-32.715,-60.059,-248.535
1692210534.353,-34.668,-33.203,-30.273,-45.410,-160.645
1692210534.369,-25.391,-32.715,-26.855,-32.227,-101.074
1692210534.373,-25.879,-38.086,-25.879,-27.832,-199.219
1692210534.377,-33.203,-36.621,-30.762,-49.805,-166.992
1692210534.381,-40.039,-32.227,-33.691,-63.477,105.957
1692210534.385,-35.156,-31.738,-29.297,-39.551,70.801
1692210534.389,-22.461,-38.086,-30.273,-14.648,-18.555
1692210534.393,-22.949,-39.062,-33.203,-15.625,15.625
1692210534.396,-32.715,-40.039,-36.621,-30.273,163.574
1692210534.400,-43.457,-44.922,-38.086,-42.480,210.449
1692210534.404,-39.551,-37.598,-37.109,-30.762,-122.070
1692210534.408,-28.320,-29.785,-33.691,-4.883,-194.824
1692210534.412,-34.180,-28.809,-28.809,-1.953,46.387
1692210534.402,-31.738,-28.809,-30.273,-31.738,-87.891
1692210534.406,-35.156,-30.273,-34.668,-56.641,-260.254
1692210534.410,-40.039,-27.832,-35.645,-49.805,-119.629
1692210534.414,-36.621,-24.414,-31.738,-30.273,-25.391
1692210534.418,-33.691,-28.320,-30.762,-25.879,-104.004
1692210534.422,-38.086,-30.273,-36.621,-43.945,-104.004
1692210534.426,-36.621,-16.602,-48.828,-58.105,33.691
1692210534.429,-8.789,-7.324,-56.641,-30.273,30.273
1692210534.433,-20.508,-26.367,-39.062,-6.836,-75.195
1692210534.437,-73.242,-42.969,-23.438,-46.387,-171.875
1692210534.441,-77.637,-45.898,-26.855,-82.031,-86.914
1692210534.445,-72.754,-44.434,-34.180,-85.938,243.652
1692210534.445,-95.215,-45.898,-33.203,-94.727,-57.617
1692210534.449,-90.332,-48.828,-31.250,-72.754,-258.301
1692210534.453,-82.031,-45.410,-28.320,-57.129,18.066
1692210534.457,-91.309,-38.086,-21.484,-74.707,81.055
1692210534.461,-96.191,-36.621,-21.484,-91.309,-59.570
1692210534.465,-102.051,-44.434,-24.902,-91.797,-50.781
1692210534.469,-92.285,-44.922,-29.297,-71.777,324.219
1692210534.472,-87.402,-42.480,-27.344,-63.477,496.582
1692210534.476,-82.031,-41.504,-24.902,-68.848,4.883
1692210534.480,-74.219,-36.133,-27.832,-75.195,-239.258
1692210534.484,-79.590,-37.598,-28.320,-68.848,-150.391
1692210534.488,-73.242,-39.551,-32.227,-38.574,-177.734
1692210534.493,-60.059,-34.180,-29.785,-19.043,-193.359
1692210534.497,-55.176,-31.738,-25.391,-33.203,-104.004
1692210534.501,-52.246,-32.227,-27.344,-49.316,-4.395
1692210534.505,-57.617,-39.062,-27.344,-53.223,-115.234
1692210534.509,-46.387,-38.086,-24.902,-36.621,-165.527
1692210534.513,-22.949,-31.250,-25.879,-10.742,106.934
1692210534.517,-24.902,-24.414,-25.879,-10.742,393.066
1692210534.520,-37.598,-27.832,-27.832,-27.344,65.918
1692210534.524,-33.691,-35.156,-28.320,-28.809,-199.219
1692210534.528,-31.250,-31.738,-24.902,-13.184,-64.453
1692210534.532,-22.949,-29.785,-25.879,-2.930,-15.137
1692210534.536,-13.672,-29.297,-20.996,-8.301,-139.648
1692210534.549,-21.973,-29.785,-20.508,-29.297,-122.559
1692210534.553,-32.227,-34.668,-24.902,-34.668,-49.316
1692210534.557,-26.855,-41.504,-22.949,-16.113,-75.684
1692210534.561,-24.414,-41.992,-26.367,-7.812,-7.324
1692210534.565,-23.438,-36.621,-27.344,-21.973,-32.227
1692210534.569,-4.883,-31.738,-27.344,-23.438,265.137
1692210534.573,-21.973,-34.668,-18.555,-27.344,521.484
1692210534.576,-55.664,-36.133,-9.277,-47.852,5.859
1692210534.580,-56.152,-39.062,-14.648,-37.598,-195.801
1692210534.584,-45.898,-42.969,-23.926,-27.344,7.812
1692210534.588,-41.016,-33.691,-30.762,-42.969,-76.172
1692210534.592,-49.805,-33.203,-28.320,-52.734,-205.566
1692210534.594,-55.664,-43.457,-26.855,-49.316,-176.758
1692210534.598,-42.480,-45.898,-25.879,-34.668,-74.707
1692210534.602,-33.691,-39.062,-27.344,-21.484,-99.609
1692210534.606,-37.109,-41.016,-28.809,-29.785,-115.723
1692210534.610,-43.945,-40.527,-27.344,-44.434,-80.566
1692210534.614,-44.922,-32.715,-33.203,-39.551,-60.547
1692210534.618,-38.086,-29.785,-28.809,-8.301,-12.695
1692210534.621,-32.227,-31.250,-24.414,3.906,-29.785
1692210534.625,-33.203,-37.598,-32.715,-19.043,0.000
1692210534.629,-35.645,-42.480,-33.203,-34.668,276.367
1692210534.633,-36.133,-35.156,-31.738,-32.227,67.383
1692210534.637,-34.180,-30.273,-34.668,-16.113,-161.621
1692210534.639,-30.762,-37.109,-32.227,-9.766,-50.781
1692210534.643,-26.367,-39.551,-26.367,-23.438,-97.168
1692210534.647,-21.973,-33.691,-28.320,-42.480,-138.184
1692210534.651,-25.391,-32.227,-31.250,-34.180,-78.125
1692210534.655,-23.438,-26.367,-32.715,-5.371,207.031
1692210534.659,-26.367,-18.066,-28.809,-0.977,238.281
1692210534.663,-14.160,-22.949,-25.391,-10.742,12.207
1692210534.666,-19.531,-26.855,-37.598,-34.668,-86.426
1692210534.670,-32.227,-21.484,-39.551,-38.574,110.352
1692210534.674,-28.809,-25.391,-34.668,-27.344,177.246
1692210534.678,-31.738,-28.320,-30.762,-29.297,-186.523
1692210534.682,-22.461,-23.926,-30.273,-26.367,-204.590
1692210534.699,-18.555,-19.043,-27.344,-34.180,-8.789
1692210534.703,-28.320,-16.113,-26.855,-38.574,-166.016
1692210534.707,-28.320,-26.855,-30.762,-18.555,-238.770
1692210534.711,-21.973,-32.227,-31.250,-7.324,-103.027
1692210534.715,-12.207,-26.367,-34.180,-12.207,-69.336
1692210534.719,-16.113,-21.484,-33.203,-33.203,-24.902
1692210534.723,-31.738,-11.230,-28.320,-43.457,19.531
1692210534.726,-35.156,-15.137,-32.227,-33.203,47.852
1692210534.730,-33.691,-27.832,-37.109,-17.090,262.695
1692210534.734,-33.691,-32.227,-39.062,-9.277,38.086
1692210534.738,-44.922,-36.621,-36.133,-33.691,-182.129
1692210534.742,-44.922,-36.621,-30.762,-46.387,-75.684
1692210534.729,-38.086,-34.668,-29.297,-32.227,-76.660
1692210534.733,-37.109,-31.738,-25.879,-15.137,-137.207
1692210534.737,-39.062,-32.227,-27.832,-19.043,-91.797
1692210534.741,-42.480,-28.320,-29.785,-48.340,194.336
1692210534.745,-56.641,-27.832,-28.809,-77.148,171.875
1692210534.749,-57.129,-36.133,-26.855,-52.246,-22.461
1692210534.753,-42.480,-32.715,-22.949,-11.719,88.379
1692210534.756,-28.320,-26.367,-21.973,-3.906,113.281
1692210534.760,-22.461,-24.414,-29.297,-23.438,-119.629
1692210534.764,-40.527,-24.902,-35.156,-44.922,-265.625
1692210534.768,-61.523,-28.809,-30.762,-38.574,-145.996
1692210534.772,-58.105,-32.227,-25.879,-28.320,210.938
1692210534.778,-45.898,-29.297,-25.391,-20.996,105.469
1692210534.782,-35.645,-27.344,-27.344,-25.879,-187.500
1692210534.786,-45.410,-29.297,-21.973,-45.898,-50.781
1692210534.790,-47.363,-28.809,-22.949,-46.875,37.598
1692210534.794,-33.691,-25.879,-32.227,-21.484,-124.512
1692210534.798,-26.855,-27.832,-23.926,-22.461,-132.812
1692210534.802,-28.320,-28.809,-13.672,-49.316,41.504
1692210534.805,-53.223,-31.738,-20.508,-75.684,229.980
1692210534.809,-50.781,-33.691,-24.902,-62.988,-29.785
1692210534.813,-31.250,-27.344,-22.461,-28.809,-195.312
1692210534.817,-33.691,-24.902,-25.391,-18.066,-81.055
1692210534.821,-38.574,-29.297,-28.809,-41.992,-79.102
1692210534.820,-39.062,-31.738,-32.227,-78.613,-183.594
1692210534.824,-42.480,-32.715,-42.480,-72.754,-180.176
1692210534.828,-44.922,-36.133,-44.434,-22.949,-29.297
1692210534.832,-37.109,-32.715,-39.062,-5.859,42.480
1692210534.836,-39.551,-25.879,-35.645,-35.156,1.465
1692210534.840,-49.316,-25.391,-34.668,-47.852,-67.871
1692210534.844,-43.457,-20.508,-34.180,-41.504,192.383
1692210534.847,-30.762,-14.648,-35.156,-26.367,417.480
1692210534.851,-11.719,-17.578,-41.504,-4.395,137.207
1692210534.855,-1.953,-27.832,-37.109,-10.742,-83.496
1692210534.859,-26.367,-35.156,-29.297,-40.527,-113.281
1692210534.863,-48.828,-38.086,-28.809,-64.453,-186.523
1692210534.866,-52.734,-46.875,-24.414,-50.781,-198.242
1692210534.870,-35.645,-46.875,-26.367,-27.344,-95.703
1692210534.874,-23.926,-35.645,-29.297,-28.809,26.367
1692210534.878,-35.645,-35.645,-33.203,-44.922,-80.566
1692210534.882,-36.621,-33.691,-33.691,-56.641,-234.863
1692210534.886,-34.668,-36.133,-29.297,-54.688,-25.879
1692210534.890,-39.062,-41.016,-29.785,-39.551,196.777
1692210534.893,-30.762,-36.621,-31.250,-32.227,14.160
1692210534.897,-24.414,-32.227,-29.297,-55.176,-144.043
1692210534.901,-35.156,-38.574,-26.855,-71.289,-66.406
1692210534.905,-44.434,-41.992,-30.273,-51.270,97.656
1692210534.909,-38.574,-39.062,-28.809,-23.926,-110.840
1692210534.924,-31.250,-38.086,-29.297,-24.902,-176.758
1692210534.928,-31.738,-36.621,-29.785,-43.457,-85.938
1692210534.932,-39.551,-33.203,-26.367,-52.246,-75.195
1692210534.936,-45.898,-30.762,-24.902,-44.922,2.930
1692210534.940,-40.039,-31.250,-18.555,-38.086,-9.766
1692210534.944,-25.879,-28.320,-26.367,-18.555,296.387
1692210534.948,-30.273,-28.320,-31.738,-22.949,519.531
1692210534.951,-38.574,-28.809,-29.785,-56.152,25.879
1692210534.955,-32.715,-33.691,-29.785,-45.410,-216.309
1692210534.959,-23.926,-37.109,-23.438,-4.395,-50.293
1692210534.963,-21.484,-34.180,-13.672,-11.230,-55.664
1692210534.967,-15.625,-25.879,-16.113,-32.227,-182.129
1692210534.969,-20.020,-23.926,-25.879,-43.457,-172.852
1692210534.973,-26.855,-23.438,-24.414,-28.809,-24.414
1692210534.977,-18.555,-16.602,-16.113,-5.371,-97.168
1692210534.981,-14.160,-19.531,-20.996,-1.953,-207.031
1692210534.985,-13.672,-19.043,-37.598,-13.184,-155.762
1692210534.989,-25.879,-18.555,-32.715,-33.203,-41.016
1692210534.993,-31.250,-26.855,-32.227,-36.133,7.324
1692210534.996,-32.715,-25.879,-36.133,-30.762,-130.371
1692210535.000,-34.668,-21.973,-27.832,-17.578,-15.137
1692210535.004,-26.367,-33.203,-31.250,-8.301,294.434
1692210535.008,-22.461,-36.621,-28.320,-50.781,-33.203
1692210535.012,-33.203,-37.109,-25.879,-70.801,-257.812
1692210535.014,-24.902,-30.762,-30.762,-30.762,20.020
1692210535.018,-10.254,-21.484,-32.715,1.465,91.309
1692210535.022,-25.879,-31.250,-31.250,-18.555,-98.633
1692210535.026,-43.457,-29.785,-30.762,-62.500,-69.336
1692210535.030,-39.551,-21.973,-32.715,-66.406,110.840
1692210535.034,-30.273,-22.461,-37.598,-38.086,165.527
1692210535.038,-27.344,-24.902,-42.969,-32.715,-21.484
1692210535.041,-30.762,-38.086,-42.969,-44.922,-107.422
1692210535.045,-41.504,-48.340,-37.598,-66.406,98.633
1692210535.049,-47.363,-38.574,-35.156,-59.082,64.941
1692210535.053,-46.875,-33.203,-25.391,-47.363,-153.320
1692210535.057,-43.945,-35.156,-29.297,-43.457,-108.887
1692210535.061,-41.992,-34.668,-35.645,-46.875,-3.906
1692210535.065,-42.969,-29.785,-33.691,-66.406,-94.727
1692210535.069,-41.504,-27.832,-33.691,-74.219,-145.508
1692210535.073,-52.246,-25.879,-31.250,-75.684,-42.969
1692210535.077,-54.199,-24.414,-39.551,-45.410,38.574
1692210535.081,-40.527,-28.320,-33.691,-30.762,41.504
1692210535.085,-35.156,-33.203,-32.227,-53.223,-52.246
1692210535.088,-48.340,-36.621,-39.062,-69.824,-23.438
1692210535.092,-65.430,-39.551,-33.691,-76.172,174.316
1692210535.096,-47.363,-43.457,-31.738,-39.551,-24.414
1692210535.100,-20.508,-33.203,-28.320,-5.859,-185.547
1692210535.104,-26.855,-18.555,-23.438,-35.645,-67.383
1692210535.104,-40.039,-14.160,-39.062,-71.289,-93.750
1692210535.108,-51.758,-19.043,-53.223,-64.941,-201.172
1692210535.112,-52.246,-18.555,-42.480,-41.504,-117.676
1692210535.116,-40.527,-13.184,-38.574,-27.832,175.293
1692210535.120,-28.809,-14.160,-37.598,-37.109,104.492
1692210535.124,-39.062,-18.066,-34.668,-60.547,-73.242
