timestamps,TP9,AF7,AF8,TP10,Right AUX
1688665374.773,-32.715,-31.738,-31.250,-12.695,-162.109
1688665374.777,-31.250,-31.250,-31.250,-23.926,-137.695
1688665374.781,-28.809,-29.297,-33.691,-36.133,-100.098
1688665374.785,-32.715,-27.832,-34.180,-23.926,-123.047
1688665374.789,-39.551,-33.203,-40.527,-26.855,-187.012
1688665374.793,-21.973,-33.203,-41.504,-33.203,-16.113
1688665374.797,-7.812,-31.250,-37.109,-17.090,402.832
1688665374.800,-21.973,-28.809,-35.645,-17.090,102.539
1688665374.804,-31.738,-25.879,-32.715,-19.043,-256.348
1688665374.808,-38.574,-27.832,-32.227,-12.207,-88.379
1688665374.812,-28.320,-26.855,-34.668,-11.230,-60.059
1688665374.816,-20.020,-22.949,-37.598,-11.719,-96.680
1688665374.832,-19.043,-20.996,-33.691,-15.137,-93.262
1688665374.836,-22.461,-20.996,-37.109,-21.973,-80.078
1688665374.840,-14.160,-20.020,-35.156,-15.625,-5.371
1688665374.844,-7.812,-20.020,-32.227,-18.066,2.441
1688665374.848,-10.254,-19.531,-35.156,-17.090,-108.398
1688665374.852,-15.625,-21.484,-35.156,-9.277,216.309
1688665374.856,-32.715,-20.508,-38.086,-7.812,406.738
1688665374.859,-27.832,-19.531,-38.086,-17.578,-17.578
1688665374.863,-22.949,-25.391,-40.527,-30.762,-164.062
1688665374.867,-26.367,-24.902,-37.598,-28.809,30.762
1688665374.871,-14.648,-20.508,-40.527,-29.785,28.809
1688665374.875,-29.785,-21.973,-43.945,-42.969,-240.723
1688665374.877,-33.691,-18.555,-32.227,-30.762,-184.570
1688665374.881,-29.297,-23.438,-31.250,-34.668,-63.965
1688665374.885,-41.504,-27.832,-35.645,-44.434,-54.199
1688665374.889,-36.133,-21.484,-34.180,-30.762,-134.766
1688665374.893,-30.762,-20.996,-35.645,-28.320,-122.559
1688665374.897,-28.809,-25.391,-38.574,-29.297,42.480
1688665374.901,-29.297,-27.344,-39.062,-20.020,84.473
1688665374.904,-23.926,-23.926,-38.574,-14.648,-48.828
1688665374.908,-10.742,-23.438,-39.551,-21.484,-9.277
1688665374.912,-18.066,-25.879,-41.016,-24.902,293.945
1688665374.916,-31.250,-27.832,-43.457,-27.832,89.844
1688665374.920,-30.762,-31.250,-41.504,-32.227,-177.734
1688665374.922,-22.949,-35.156,-37.109,-23.438,-116.699
1688665374.926,-16.602,-37.598,-34.668,-16.113,-105.469
1688665374.930,-16.113,-33.691,-31.250,-9.277,-55.664
1688665374.934,-34.668,-25.391,-30.273,-21.484,-119.141
1688665374.938,-55.664,-20.508,-41.992,-45.410,-12.695
1688665374.942,-65.918,-20.020,-45.410,-50.293,161.621
1688665374.946,-81.055,-23.438,-41.504,-67.871,29.785
1688665374.949,-97.656,-29.785,-46.875,-90.332,-170.410
1688665374.953,-109.375,-25.391,-49.316,-97.168,21.484
1688665374.957,-110.840,-20.508,-58.594,-114.258,159.180
1688665374.961,-102.051,-17.578,-68.848,-138.672,-107.910
1688665374.965,-116.699,-12.695,-64.941,-152.832,-124.023
1688665374.967,-146.973,-11.719,-64.453,-159.180,-47.852
1688665374.971,-165.527,-12.207,-68.359,-165.039,-134.766
1688665374.975,-171.387,-10.254,-76.172,-179.688,-145.996
1688665374.979,-167.969,-12.695,-89.355,-196.777,-32.715
1688665374.983,-169.922,-12.207,-92.285,-207.031,-36.133
1688665374.987,-177.246,-5.859,-88.379,-205.566,22.461
1688665374.991,-182.129,-4.395,-85.449,-197.754,-25.879
1688665374.994,-182.129,-8.301,-88.867,-187.012,37.598
1688665374.998,-160.645,-4.395,-84.473,-163.086,271.484
1688665375.002,-127.930,0.000,-76.172,-163.086,-25.391
1688665375.006,-120.117,-6.348,-80.078,-168.457,-193.848
1688665375.010,-125.488,-16.113,-75.195,-160.645,-188.965
1688665375.013,-118.652,-22.949,-68.359,-130.371,-159.668
1688665375.017,-92.285,-24.902,-63.965,-108.887,-88.379
1688665375.021,-61.523,-25.879,-59.570,-101.562,-114.258
1688665375.025,-32.715,-25.391,-55.664,-72.754,156.738
1688665375.029,-27.832,-22.949,-55.664,-63.965,209.961
1688665375.033,-28.320,-20.508,-49.316,-55.664,-95.703
1688665375.037,-19.531,-23.926,-41.992,-45.410,-49.316
1688665375.040,-23.926,-28.809,-43.457,-45.410,261.230
1688665375.044,-18.555,-26.855,-43.457,-34.180,218.262
1688665375.048,-19.531,-30.273,-48.340,-23.926,-171.875
1688665375.052,-17.090,-30.273,-44.434,-22.949,-162.109
1688665375.056,-5.859,-25.879,-36.621,-22.949,-70.801
1688665375.058,-5.859,-21.973,-30.273,-22.461,-127.441
1688665375.062,0.488,-17.090,-28.320,-19.043,-219.238
1688665375.066,-5.371,-25.879,-30.273,-5.859,-145.996
1688665375.070,-9.277,-30.273,-32.715,-5.371,-8.301
1688665375.074,1.465,-26.367,-32.227,-15.137,-71.289
1688665375.078,-6.348,-31.250,-30.273,-19.531,-19.531
1688665375.082,-10.254,-32.227,-30.762,-15.137,140.625
1688665375.085,-14.648,-32.227,-30.273,-8.789,321.289
1688665375.089,-19.531,-25.879,-25.391,-12.695,90.820
1688665375.093,-14.648,-24.902,-27.344,-2.930,-177.246
1688665375.097,-14.648,-30.762,-33.203,-4.883,-94.727
1688665375.101,0.488,-25.391,-31.738,-20.508,-83.984
1688665375.101,9.766,-20.508,-28.320,-14.648,-143.066
1688665375.105,-1.465,-22.949,-30.762,-10.742,-141.602
1688665375.109,0.977,-21.973,-35.156,-8.789,-25.879
1688665375.113,16.602,-16.602,-36.621,0.977,-6.348
1688665375.117,28.809,-15.625,-28.809,2.930,-154.785
1688665375.121,12.695,-18.555,-26.855,-2.441,-164.062
1688665375.125,-9.766,-23.438,-25.879,2.441,191.406
1688665375.128,-18.555,-20.020,-29.297,0.000,458.496
1688665375.132,-14.648,-21.484,-27.344,-2.441,99.121
1688665375.136,-9.277,-27.344,-27.832,-2.930,-109.863
1688665375.140,-9.766,-24.414,-36.621,-10.254,-81.543
1688665375.144,-1.465,-26.367,-35.156,-16.602,-185.059
1688665375.148,-4.395,-28.320,-33.691,-11.230,-229.492
1688665375.152,-10.254,-28.320,-32.227,-10.742,-99.609
1688665375.156,-8.789,-26.367,-26.855,-11.719,-37.109
1688665375.160,-10.254,-21.973,-31.738,-8.301,-133.789
1688665375.164,-15.625,-21.484,-38.574,-5.371,-147.461
1688665375.168,-27.832,-20.996,-36.133,-12.207,82.031
1688665375.172,-10.254,-19.531,-39.062,-17.578,258.301
1688665375.175,0.977,-23.926,-38.086,-16.602,-0.977
1688665375.179,-23.438,-22.461,-26.367,-22.461,-140.137
1688665375.183,-40.527,-20.508,-20.020,-23.926,-28.320
1688665375.187,-39.551,-23.438,-25.391,-3.906,-9.766
1688665375.191,-29.297,-18.555,-25.879,4.395,-101.562
1688665375.206,-26.855,-16.113,-22.461,-7.324,-179.199
1688665375.210,-29.297,-19.043,-27.344,-3.418,11.719
1688665375.214,-31.738,-23.438,-31.250,-0.488,146.973
1688665375.218,-36.133,-27.832,-32.227,-6.836,-74.219
1688665375.222,-33.203,-30.273,-31.738,-8.789,-127.930
1688665375.226,-29.297,-24.414,-31.738,-1.953,228.516
1688665375.230,-26.855,-24.414,-36.621,-6.836,352.539
1688665375.233,-28.320,-35.645,-34.668,-24.414,-108.398
1688665375.237,-21.973,-27.832,-34.668,-12.207,-147.461
1688665375.241,-12.207,-19.043,-40.527,5.859,0.977
1688665375.245,-8.301,-23.438,-38.086,2.441,-0.488
1688665375.249,-6.836,-25.879,-31.738,-11.230,-91.797
1688665375.240,-23.926,-25.391,-26.367,-15.137,-162.598
1688665375.244,-48.828,-25.391,-27.832,-17.090,-72.754
1688665375.248,-45.410,-21.484,-29.785,-24.414,-145.020
1688665375.252,-39.551,-15.625,-30.762,-33.203,-195.312
1688665375.256,-52.734,-16.113,-38.574,-53.223,-21.973
1688665375.260,-49.316,-17.578,-41.992,-51.758,110.352
1688665375.264,-46.875,-14.648,-39.062,-44.434,8.789
1688665375.267,-57.617,-12.207,-44.434,-43.457,-140.137
1688665375.271,-43.457,-15.137,-48.828,-28.320,-31.738
1688665375.275,-43.945,-18.066,-39.551,-25.879,192.871
1688665375.279,-55.176,-21.484,-36.133,-31.250,-11.230
1688665375.283,-48.340,-22.461,-39.062,-34.180,-162.109
1688665375.297,-39.062,-23.438,-33.691,-31.250,-72.266
1688665375.301,-20.508,-27.344,-35.645,-25.391,-27.344
1688665375.305,-12.207,-30.273,-43.457,-36.133,-29.785
1688665375.309,-23.438,-27.344,-41.504,-34.668,-90.820
1688665375.313,-10.742,-20.996,-32.227,-21.973,81.055
1688665375.317,-5.371,-24.414,-28.809,-22.949,312.988
1688665375.321,-21.973,-27.832,-26.367,-20.996,4.395
1688665375.324,-22.949,-24.414,-25.391,-28.320,-182.617
1688665375.328,-22.949,-18.555,-33.691,-28.320,37.598
1688665375.332,-26.855,-17.578,-40.527,-18.066,54.688
1688665375.336,-25.391,-19.043,-38.574,-18.555,-178.711
1688665375.340,-22.461,-20.508,-33.203,-15.625,-109.375
1688665375.341,-13.672,-20.996,-28.809,-9.277,-22.949
1688665375.345,-13.672,-21.973,-35.156,-11.230,-158.691
1688665375.349,-22.461,-23.438,-40.039,-33.691,-286.621
1688665375.353,-27.832,-20.508,-31.738,-29.297,-93.750
1688665375.357,-27.344,-19.531,-25.879,-24.902,71.289
1688665375.361,-12.207,-19.531,-27.832,-13.184,-73.242
1688665375.365,-19.043,-23.926,-35.645,-5.859,-136.719
1688665375.368,-26.367,-20.996,-37.109,-9.766,-30.762
1688665375.372,-18.066,-18.066,-30.273,-11.230,204.590
1688665375.376,-20.020,-20.020,-27.832,-13.672,2.930
1688665375.380,-18.555,-17.578,-35.156,-13.184,-201.660
1688665375.384,-15.625,-17.578,-36.133,-23.438,-105.957
1688665375.387,-13.672,-17.578,-33.691,-24.414,-85.938
1688665375.391,-17.090,-13.672,-35.156,-11.230,-134.766
1688665375.395,-13.184,-14.648,-38.574,-10.742,-71.289
1688665375.399,-19.531,-16.113,-36.621,-20.996,127.441
1688665375.403,-30.273,-18.555,-30.762,-20.508,82.520
1688665375.407,-28.320,-24.414,-30.762,-16.602,-78.613
1688665375.411,-38.086,-20.508,-31.250,-22.461,-50.293
1688665375.414,-27.344,-19.043,-28.809,-19.531,300.781
1688665375.418,-20.020,-21.973,-29.297,-15.625,370.605
1688665375.422,-25.879,-24.414,-35.645,-33.203,-109.375
1688665375.426,-24.902,-22.461,-34.180,-19.043,-217.285
1688665375.430,-30.762,-18.555,-30.273,-9.277,-69.824
1688665375.447,-39.062,-18.555,-36.621,-33.203,-79.102
1688665375.451,-20.020,-14.648,-36.133,-34.180,-150.879
1688665375.455,-10.742,-16.602,-33.203,-27.344,-104.004
1688665375.459,-16.602,-18.066,-30.762,-24.902,-51.758
1688665375.463,-9.766,-15.137,-33.203,-21.484,-108.398
1688665375.467,-5.859,-14.160,-34.668,-14.648,-92.773
1688665375.471,-2.441,-18.555,-34.180,-16.113,127.441
1688665375.474,-20.508,-25.391,-33.691,-16.602,261.719
1688665375.478,-38.086,-26.367,-33.203,-9.277,19.043
1688665375.482,-31.250,-24.902,-32.715,-20.996,-172.852
1688665375.486,-30.762,-23.926,-34.668,-19.043,-31.250
1688665375.490,-27.344,-22.949,-35.156,-9.277,28.320
1688665375.476,-22.949,-21.973,-31.738,-22.461,-145.996
1688665375.480,-8.301,-21.973,-31.738,-26.367,-159.180
1688665375.484,-3.906,-16.602,-26.367,-15.625,-49.805
1688665375.488,-19.531,-21.484,-24.414,-10.742,-52.734
1688665375.492,-7.812,-25.879,-27.344,-11.719,-49.805
1688665375.496,-14.648,-23.438,-29.297,-11.230,-11.719
1688665375.500,-29.297,-19.531,-26.855,-7.324,167.969
1688665375.503,-28.809,-20.020,-22.949,-7.812,223.145
1688665375.507,-9.277,-22.461,-27.832,-6.348,-53.223
1688665375.511,9.766,-20.996,-38.574,4.395,-132.812
1688665375.515,-5.859,-26.367,-36.133,10.254,164.551
1688665375.519,-34.180,-29.785,-25.879,-15.137,287.109
1688665375.524,-29.785,-29.297,-25.391,-17.090,-126.953
1688665375.528,-7.324,-35.645,-25.391,2.441,-121.582
1688665375.532,-5.859,-33.691,-22.461,20.508,-32.715
1688665375.536,15.625,-33.203,-20.996,26.855,-93.750
1688665375.540,33.691,-40.039,-15.137,40.039,-145.508
1688665375.544,29.785,-33.203,-7.324,63.477,29.785
1688665375.548,32.715,-26.367,-7.812,54.199,201.172
1688665375.551,44.922,-25.879,-9.277,43.945,-58.105
1688665375.555,54.199,-21.484,-9.277,55.176,-187.012
1688665375.559,36.133,-22.461,-14.648,54.688,10.742
1688665375.563,23.438,-24.902,-19.043,53.223,62.988
1688665375.567,24.902,-21.484,-10.742,51.270,-112.305
1688665375.581,33.691,-16.113,-7.812,56.152,-128.418
1688665375.585,32.715,-17.090,-13.184,58.594,-32.715
1688665375.589,20.996,-24.414,-18.066,40.527,13.184
1688665375.593,23.438,-24.414,-19.531,27.832,-103.027
1688665375.597,17.090,-24.902,-20.508,19.531,-212.402
1688665375.601,11.230,-27.344,-24.902,13.184,190.430
1688665375.605,8.301,-27.832,-24.414,23.438,481.445
1688665375.608,-7.324,-31.250,-23.438,30.273,2.441
1688665375.612,-0.488,-27.344,-18.066,14.160,-196.777
1688665375.616,8.789,-21.973,-14.160,24.414,-142.578
1688665375.620,8.789,-22.949,-19.531,26.855,-172.363
1688665375.624,20.020,-14.160,-20.020,9.277,-205.566
1688665375.626,14.160,-13.184,-23.926,4.883,-147.949
1688665375.630,11.719,-19.531,-24.414,5.371,-59.570
1688665375.634,25.391,-20.020,-24.414,11.230,-107.910
1688665375.638,11.719,-19.043,-29.297,5.859,-155.273
1688665375.642,6.836,-16.113,-26.367,0.977,19.531
1688665375.646,1.953,-17.090,-20.996,3.418,185.547
1688665375.650,-6.836,-21.484,-20.508,0.488,52.246
1688665375.653,-6.836,-24.902,-17.578,1.465,-151.367
1688665375.657,-12.207,-23.438,-17.578,2.441,-26.855
1688665375.661,-9.766,-21.973,-18.066,4.883,203.613
1688665375.665,-13.672,-24.414,-20.020,20.020,-21.484
1688665375.669,-31.738,-24.902,-24.902,-7.324,-176.758
1688665375.672,-30.762,-22.949,-22.949,-23.438,-96.680
1688665375.676,-22.461,-20.996,-22.949,2.441,-60.547
1688665375.680,-27.344,-21.973,-27.344,-9.766,-5.859
1688665375.684,-23.438,-23.438,-25.879,-13.672,-16.602
1688665375.688,-12.207,-25.879,-30.762,-4.395,83.008
1688665375.692,-13.672,-25.391,-34.180,-9.277,207.031
1688665375.696,-4.395,-21.973,-29.297,-18.555,17.578
1688665375.699,-17.578,-19.531,-30.273,-18.555,-100.098
1688665375.703,-28.809,-21.973,-36.133,-10.254,104.492
1688665375.707,-29.297,-20.020,-33.203,-7.812,165.039
1688665375.711,-30.762,-20.508,-29.297,-26.367,-186.523
1688665375.715,-25.391,-24.414,-31.738,-21.973,-213.379
1688665375.716,-17.578,-20.508,-35.156,-3.906,-98.145
1688665375.720,-7.812,-17.090,-35.156,-5.859,-120.117
1688665375.724,-12.695,-18.555,-26.855,-14.160,-169.922
1688665375.728,-4.395,-18.066,-28.320,-9.277,-107.910
1688665375.732,5.371,-19.043,-31.250,-11.719,-42.480
1688665375.736,-28.320,-24.902,-31.738,-18.555,-12.695
1688665375.740,-36.621,-25.879,-28.320,-4.395,-33.691
1688665375.743,-26.367,-25.879,-25.879,-1.953,35.156
1688665375.747,-26.367,-28.809,-31.738,-16.113,184.570
1688665375.751,-16.602,-29.785,-30.273,-18.555,-25.391
1688665375.755,-12.207,-27.344,-26.855,-13.184,-205.566
1688665375.759,-22.461,-23.438,-26.855,-13.672,-18.555
1688665375.761,-34.180,-20.996,-27.832,-13.184,11.719
1688665375.765,-25.391,-21.973,-27.832,-5.859,-162.598
1688665375.769,-18.066,-20.508,-26.855,-1.465,-130.371
1688665375.773,-26.367,-16.602,-28.320,-3.418,140.625
1688665375.777,-35.156,-18.555,-30.273,-16.602,183.105
1688665375.781,-25.879,-21.484,-31.738,-32.227,28.320
1688665375.785,-13.184,-19.531,-30.762,-38.086,-69.336
1688665375.788,-33.203,-18.066,-26.855,-27.832,123.047
1688665375.792,-33.691,-20.020,-25.391,-19.531,252.930
1688665375.796,-26.855,-21.973,-28.320,-26.855,-68.848
1688665375.800,-12.207,-19.531,-30.273,-20.020,-121.094
1688665375.804,-4.883,-15.625,-28.320,-15.625,-54.688
1688665375.808,-31.250,-20.508,-22.949,-21.973,-108.887
1688665375.812,-51.270,-27.344,-22.949,-23.926,-171.875
1688665375.816,-45.410,-23.926,-23.438,-30.273,-68.359
1688665375.820,-43.945,-32.227,-24.902,-37.109,69.336
1688665375.824,-43.945,-34.668,-20.020,-41.992,-62.500
1688665375.828,-42.969,-26.855,-18.066,-33.203,-160.645
1688665375.832,-43.945,-26.855,-15.625,-21.484,18.555
1688665375.835,-43.457,-28.320,-9.766,-27.344,254.395
1688665375.839,-35.645,-24.414,-14.160,-21.973,1.465
1688665375.843,-33.203,-22.949,-19.531,-20.996,-194.336
1688665375.847,-40.039,-28.809,-20.020,-20.996,-126.465
1688665375.851,-42.480,-26.855,-18.066,-20.996,-152.832
1688665375.853,-37.598,-20.020,-16.113,-29.297,-127.930
1688665375.857,-36.621,-20.020,-17.090,-28.320,-133.301
1688665375.861,-35.645,-23.926,-20.508,-28.320,121.582
1688665375.865,-44.922,-23.438,-20.996,-31.738,184.082
1688665375.869,-41.504,-22.949,-19.531,-20.508,-130.859
1688665375.873,-25.879,-22.949,-17.090,-6.836,-30.762
1688665375.877,-29.785,-27.344,-16.113,-4.883,311.035
1688665375.880,-34.180,-28.320,-22.949,-8.789,301.270
1688665375.884,-29.297,-28.320,-27.344,-24.414,-110.840
1688665375.888,-28.320,-25.879,-20.020,-27.344,-174.316
1688665375.892,-18.066,-24.902,-22.949,-21.973,-187.500
1688665375.896,0.000,-26.855,-25.879,-20.020,-230.957
1688665375.898,-9.766,-26.855,-22.949,-30.273,-281.738
1688665375.902,-20.996,-26.367,-29.785,-24.902,-290.527
1688665375.906,-32.227,-24.902,-26.367,-11.230,-201.660
1688665375.910,-33.203,-23.438,-23.438,-13.672,-209.961
1688665375.914,-14.160,-23.926,-24.902,-10.254,-179.688
1688665375.918,-28.809,-28.809,-25.391,-15.137,21.484
1688665375.922,-39.551,-29.785,-25.391,-8.789,460.449
1688665375.925,-37.109,-28.320,-27.832,-18.555,240.723
1688665375.929,-38.574,-29.297,-27.344,-28.320,-230.957
1688665375.933,-26.367,-24.414,-22.949,-12.695,-150.879
1688665375.937,-23.926,-21.973,-24.902,-20.020,-102.051
1688665375.941,-35.156,-25.391,-25.879,-36.133,-147.949
1688665375.956,-39.062,-23.438,-26.855,-33.203,-104.492
1688665375.960,-29.297,-21.484,-29.785,-21.484,27.344
1688665375.964,-19.531,-18.066,-30.273,-24.414,116.211
1688665375.968,-8.301,-17.578,-27.832,-22.949,65.430
1688665375.972,1.465,-19.043,-28.809,-17.578,-141.113
1688665375.976,-3.418,-20.020,-35.156,-11.230,109.375
1688665375.980,-17.090,-23.438,-29.297,-1.953,369.629
1688665375.983,-32.715,-25.391,-19.043,-10.254,46.387
1688665375.987,-40.039,-28.320,-13.184,-23.438,-149.902
1688665375.991,-38.086,-31.250,-9.766,-22.461,35.645
1688665375.995,-51.270,-37.598,-4.395,-20.508,30.762
1688665375.999,-62.012,-41.992,8.301,-21.973,-202.637
1688665376.001,-54.199,-37.598,24.414,-14.160,-104.492
1688665376.005,-58.594,-41.016,26.367,-19.043,-51.270
1688665376.009,-73.242,-41.504,29.785,-30.273,-170.898
1688665376.013,-70.312,-41.992,36.133,-20.508,-196.289
1688665376.017,-70.801,-51.270,33.203,-18.555,-48.828
1688665376.021,-83.496,-53.711,31.250,-20.020,112.305
1688665376.025,-76.660,-57.129,33.203,-7.324,86.426
1688665376.028,-61.035,-58.105,41.992,-1.953,-76.660
1688665376.032,-54.688,-50.781,44.434,-0.977,-62.012
1688665376.036,-52.734,-45.898,38.086,-0.977,314.453
1688665376.040,-42.480,-43.945,27.344,-4.883,168.457
1688665376.044,-28.320,-39.062,21.973,-1.953,-173.828
1688665376.046,-24.902,-35.156,22.949,4.883,-155.273
1688665376.050,-30.762,-34.668,19.043,-1.953,-153.320
1688665376.054,-41.992,-40.039,10.742,2.441,-98.633
1688665376.058,-37.598,-37.598,7.324,15.625,-33.203
1688665376.062,-26.855,-30.762,4.883,10.254,110.840
1688665376.066,-25.879,-33.203,6.348,9.277,136.230
1688665376.070,-17.578,-31.250,5.859,3.418,-58.594
1688665376.073,-11.719,-21.973,3.906,10.254,-157.715
1688665376.077,-7.812,-23.438,1.953,20.996,71.289
1688665376.081,10.254,-21.484,3.418,20.996,185.547
1688665376.085,-7.812,-17.090,-1.953,18.555,-145.996
1688665376.089,-27.344,-22.461,-7.812,4.883,-157.227
1688665376.091,-13.184,-22.949,-7.812,1.465,-50.293
1688665376.095,-20.020,-22.461,-13.672,-3.906,-74.707
1688665376.099,-31.250,-21.484,-16.602,-12.207,-88.379
1688665376.103,-30.762,-26.855,-16.113,-8.789,-16.113
1688665376.107,-30.273,-35.156,-20.996,-12.207,-12.207
1688665376.111,-10.742,-27.832,-20.996,-2.930,-74.219
1688665376.115,-5.371,-22.949,-19.043,-0.488,-112.305
1688665376.118,-19.531,-27.344,-24.414,-3.418,11.719
1688665376.122,-27.344,-27.344,-25.879,0.000,262.207
1688665376.126,-34.668,-28.809,-22.461,-3.906,-4.395
1688665376.130,-29.785,-31.738,-22.949,-10.254,-209.473
1688665376.134,-15.625,-30.273,-24.902,-7.324,-111.816
1688665376.138,-24.902,-35.156,-29.785,-9.277,-94.238
1688665376.142,-21.973,-34.668,-31.738,-4.395,-106.934
1688665376.146,-15.137,-32.715,-25.879,-1.953,-69.336
1688665376.150,-26.367,-33.691,-23.926,-18.555,155.762
1688665376.154,-16.113,-31.738,-28.809,-21.484,227.539
1688665376.158,-22.461,-31.738,-26.367,-6.348,39.062
1688665376.162,-47.363,-34.668,-22.461,-14.160,8.301
1688665376.165,-44.922,-31.738,-23.438,-13.184,154.297
1688665376.169,-32.715,-28.809,-26.367,-3.906,126.465
1688665376.173,-22.461,-27.832,-27.832,-13.184,-175.293
1688665376.177,-23.926,-26.855,-27.344,-14.648,-183.105
1688665376.181,-27.832,-30.762,-28.809,-19.043,-100.586
1688665376.198,-20.020,-25.879,-24.414,-21.973,-136.719
1688665376.202,-23.926,-22.949,-22.461,-5.371,-242.676
1688665376.206,-16.113,-28.809,-25.879,-7.324,-197.754
1688665376.210,-11.719,-26.367,-22.949,-15.625,-71.289
1688665376.214,-27.832,-30.273,-23.926,-15.625,-75.195
1688665376.218,-27.344,-33.203,-30.273,-20.508,-58.594
1688665376.222,-33.203,-32.715,-33.203,-20.996,144.531
1688665376.225,-33.203,-33.203,-30.762,-11.230,369.141
1688665376.229,-37.598,-32.227,-30.273,-20.508,110.352
1688665376.233,-33.691,-28.320,-31.250,-20.508,-217.285
1688665376.237,-32.715,-30.273,-29.785,-22.949,-158.203
1688665376.241,-35.156,-32.227,-30.273,-35.645,-160.156
1688665376.226,-26.367,-32.715,-26.367,-28.809,-210.449
1688665376.230,-22.949,-32.715,-24.414,-25.879,-208.984
1688665376.234,-19.531,-27.344,-28.809,-21.973,-24.414
1688665376.238,-15.137,-24.902,-30.273,-22.461,71.289
1688665376.242,-23.926,-22.949,-29.297,-20.508,-62.500
1688665376.246,-38.086,-20.020,-32.715,-12.207,-12.695
1688665376.250,-36.621,-23.438,-35.645,-19.531,82.520
1688665376.253,-24.414,-26.855,-34.180,-17.578,62.500
1688665376.257,-17.578,-29.297,-35.156,-7.324,-45.898
1688665376.261,-17.578,-27.832,-38.086,-12.207,-186.523
1688665376.265,-21.973,-25.391,-31.738,-9.766,116.211
1688665376.269,-34.668,-28.320,-27.832,-2.441,262.207
1688665376.273,-27.344,-31.250,-28.809,-2.930,-88.379
1688665376.277,-9.766,-31.738,-34.668,-3.418,-120.117
1688665376.281,-19.043,-29.297,-37.598,-15.137,58.594
1688665376.285,-13.672,-26.367,-30.273,-28.809,-14.648
1688665376.289,-9.277,-23.438,-23.926,-31.738,-191.895
1688665376.293,-25.391,-20.996,-30.762,-27.344,107.910
1688665376.297,-24.902,-20.508,-30.273,-22.461,288.086
1688665376.300,-21.484,-23.438,-25.391,-23.438,-20.996
1688665376.304,-30.762,-33.691,-30.762,-31.250,-207.520
1688665376.308,-22.949,-33.203,-31.250,-29.785,15.625
1688665376.312,-17.090,-28.320,-28.320,-13.184,210.449
1688665376.316,-22.949,-31.738,-30.273,-6.836,-58.105
1688665376.332,-22.461,-34.668,-32.227,-8.301,-170.898
1688665376.336,-30.762,-32.227,-31.250,-10.742,-104.004
1688665376.340,-36.133,-31.738,-28.809,-11.719,-68.359
1688665376.344,-30.273,-30.273,-27.344,-15.625,-97.656
1688665376.348,-28.320,-29.785,-30.762,-18.555,-176.758
1688665376.352,-36.133,-33.691,-29.785,-11.230,124.512
1688665376.356,-40.527,-33.691,-27.832,-13.184,416.504
1688665376.359,-41.016,-31.738,-28.809,-16.113,14.160
1688665376.363,-34.180,-29.297,-26.367,-18.555,-167.480
1688665376.367,-32.227,-28.320,-22.949,-18.555,-22.461
1688665376.371,-48.340,-32.715,-23.926,-37.109,-104.980
1688665376.375,-53.711,-35.156,-25.391,-57.617,-196.777
1688665376.376,-40.527,-28.809,-24.414,-46.875,-122.070
1688665376.380,-31.738,-28.320,-23.438,-29.297,-16.602
1688665376.384,-31.250,-27.832,-24.902,-21.484,-33.691
1688665376.388,-40.039,-31.738,-28.320,-29.297,-136.719
1688665376.392,-45.898,-31.738,-25.391,-28.809,-121.582
1688665376.396,-31.738,-26.855,-21.973,-28.809,10.254
1688665376.400,-19.531,-30.273,-29.785,-35.645,30.273
1688665376.403,-22.461,-35.156,-31.738,-34.180,-59.570
1688665376.407,-30.273,-32.715,-29.785,-33.691,20.508
1688665376.411,-41.016,-28.809,-31.738,-38.086,189.453
1688665376.415,-45.898,-31.738,-31.738,-36.621,-41.504
1688665376.419,-43.457,-35.156,-36.133,-37.598,-181.152
1688665376.423,-33.203,-34.180,-34.180,-39.062,-114.746
1688665376.427,-35.156,-33.203,-22.949,-36.133,-111.328
1688665376.431,-24.414,-30.762,-17.578,-30.762,-62.012
1688665376.435,-21.973,-32.227,-17.090,-39.062,-74.707
1688665376.439,-38.086,-34.180,-23.926,-35.156,89.355
1688665376.443,-36.621,-29.785,-23.438,-21.484,284.180
1688665376.447,-41.504,-31.738,-20.020,-41.016,55.664
1688665376.450,-39.062,-34.668,-24.414,-58.105,-138.672
1688665376.454,-33.203,-27.832,-24.414,-47.363,35.645
1688665376.458,-33.691,-26.855,-26.367,-40.039,116.699
1688665376.462,-37.109,-30.762,-27.832,-41.504,-125.488
1688665376.466,-37.598,-33.203,-27.344,-39.062,-113.770
1688665376.466,-29.297,-23.438,-25.879,-41.016,-121.094
1688665376.470,-25.391,-23.438,-23.926,-32.715,-166.016
1688665376.474,-35.156,-32.715,-20.996,-36.621,-119.141
1688665376.478,-30.762,-28.320,-17.578,-37.598,-73.730
1688665376.482,-18.555,-33.691,-18.555,-36.133,-102.051
1688665376.486,-22.949,-40.039,-19.531,-40.527,-16.602
1688665376.490,-61.035,-18.555,-21.973,-50.781,-12.695
1688665376.493,-83.984,-4.883,-33.691,-79.590,37.598
1688665376.497,-83.008,-12.695,-36.133,-81.055,341.797
1688665376.501,-90.332,-12.695,-41.016,-95.215,140.625
1688665376.505,-100.586,-5.371,-63.965,-143.555,-186.523
1688665376.509,-123.535,-6.348,-73.242,-171.387,-84.473
1688665376.511,-157.227,-4.883,-82.520,-192.871,-54.199
1688665376.515,-175.781,1.465,-92.773,-226.562,-148.926
1688665376.519,-174.316,11.230,-91.309,-238.770,-99.121
1688665376.523,-182.617,17.578,-102.051,-245.605,130.371
1688665376.527,-210.938,13.672,-116.699,-261.230,64.453
1688665376.531,-211.914,16.602,-121.582,-270.996,-103.516
1688665376.535,-211.914,22.461,-126.465,-287.598,-93.262
1688665376.538,-213.867,23.438,-126.953,-283.691,188.965
1688665376.542,-203.125,26.855,-130.859,-274.414,290.527
1688665376.546,-188.965,24.414,-137.207,-272.461,-136.719
1688665376.550,-178.711,20.996,-137.695,-240.723,-218.262
1688665376.554,-151.855,22.461,-131.836,-227.051,-119.141
1688665376.558,-124.512,18.555,-133.789,-218.262,-145.020
1688665376.562,-114.746,16.602,-127.930,-187.012,-164.551
1688665376.566,-87.891,16.113,-119.629,-155.762,-109.863
1688665376.570,-70.801,9.766,-117.188,-135.254,-86.426
1688665376.574,-58.105,4.883,-115.723,-125.000,-68.359
1688665376.578,-29.785,4.883,-100.586,-98.633,-42.480
1688665376.582,-13.184,2.930,-91.309,-84.473,129.395
1688665376.585,-16.113,3.906,-90.332,-72.266,292.969
1688665376.589,-11.230,-6.348,-74.707,-62.012,-2.441
1688665376.593,11.230,-14.160,-68.359,-48.828,-213.379
1688665376.597,24.414,-19.043,-68.359,-29.297,80.078
1688665376.601,12.695,-27.832,-62.012,-20.020,130.859
1688665376.616,16.113,-28.809,-61.035,-12.695,-138.184
1688665376.620,30.273,-33.203,-55.176,-5.859,-157.227
1688665376.624,29.785,-35.156,-48.828,-0.977,-36.621
1688665376.628,40.527,-38.574,-43.457,4.883,-11.230
1688665376.632,45.410,-40.039,-35.156,11.719,-93.262
1688665376.636,48.340,-39.062,-34.180,11.719,-53.711
1688665376.640,37.109,-41.016,-42.969,4.883,219.727
1688665376.643,27.344,-39.062,-40.039,8.301,309.570
1688665376.647,27.344,-36.621,-32.227,22.461,-84.961
1688665376.651,19.043,-41.016,-31.738,13.184,-187.500
1688665376.655,36.621,-44.922,-28.809,14.648,-111.328
1688665376.659,25.879,-45.898,-22.949,33.203,-153.320
1688665376.650,9.277,-41.016,-22.461,22.461,-148.438
1688665376.654,31.250,-36.621,-22.461,24.414,-64.941
1688665376.658,21.484,-39.062,-22.949,17.090,34.180
1688665376.662,-2.441,-46.387,-31.250,5.371,-43.945
1688665376.666,1.953,-49.316,-33.691,3.418,-200.195
1688665376.670,-3.906,-55.664,-32.227,-2.930,9.277
1688665376.674,1.465,-57.129,-27.344,5.859,146.484
1688665376.677,23.926,-48.340,-26.367,2.930,-29.785
1688665376.681,21.973,-46.387,-26.855,2.930,-144.531
1688665376.685,2.930,-49.805,-27.832,15.137,-64.453
1688665376.689,-3.906,-48.340,-29.785,7.812,190.918
1688665376.693,-2.930,-41.016,-24.902,5.371,14.648
1688665376.706,4.395,-38.574,-23.438,6.836,-197.266
1688665376.710,1.953,-41.504,-27.832,-2.441,-41.016
1688665376.714,-6.348,-40.527,-27.832,-10.254,28.320
1688665376.718,-6.348,-37.109,-28.320,-14.648,-81.543
1688665376.722,-4.883,-42.480,-31.250,-10.254,-108.887
1688665376.726,-1.953,-41.016,-30.762,0.000,116.699
1688665376.730,-23.438,-40.527,-32.715,1.465,479.492
1688665376.733,-28.320,-41.992,-29.297,0.000,166.016
1688665376.737,0.488,-37.598,-22.949,1.465,-209.473
1688665376.741,1.953,-38.086,-20.020,0.488,-95.215
1688665376.745,-3.906,-35.645,-24.414,-4.395,-93.262
1688665376.749,-16.602,-31.250,-30.762,-7.812,-168.945
1688665376.751,-37.109,-37.598,-30.762,-5.371,-165.039
1688665376.755,-28.809,-41.504,-28.809,-16.113,-121.582
1688665376.759,-18.555,-40.527,-33.203,-15.137,-101.562
1688665376.763,-18.555,-40.527,-37.109,-8.789,-132.812
1688665376.767,-18.555,-34.668,-32.227,-13.184,-77.148
1688665376.771,-25.879,-34.180,-29.297,-17.578,-21.484
1688665376.775,-27.344,-36.621,-31.250,-21.973,-132.812
1688665376.778,-23.926,-42.480,-29.297,-22.461,-139.160
1688665376.782,-24.902,-48.340,-26.855,-32.227,6.836
1688665376.786,-27.832,-38.086,-26.367,-32.715,298.828
1688665376.790,-35.156,-28.809,-29.297,-39.062,95.215
1688665376.794,-46.387,-31.250,-35.156,-38.086,-238.770
1688665376.797,-62.988,-33.203,-39.062,-31.250,-143.066
1688665376.801,-47.852,-30.273,-41.504,-33.203,-92.285
1688665376.805,-37.109,-27.344,-44.434,-40.039,-47.363
1688665376.809,-41.016,-20.508,-46.875,-47.852,-93.262
1688665376.813,-19.531,-16.113,-48.828,-38.574,-16.113
1688665376.817,-17.090,-21.484,-53.711,-44.922,93.750
1688665376.821,-23.926,-24.902,-52.246,-44.922,-37.109
1688665376.824,-20.508,-26.367,-46.875,-44.922,-134.766
1688665376.828,-22.949,-27.832,-47.363,-61.035,151.367
1688665376.832,-35.645,-26.855,-43.457,-46.387,265.625
1688665376.836,-39.062,-28.320,-41.016,-29.785,-144.043
1688665376.840,-23.926,-29.785,-41.016,-20.020,-212.891
1688665376.842,-9.277,-30.762,-39.551,-24.902,-124.512
1688665376.846,-20.508,-30.273,-38.574,-42.480,-146.973
1688665376.850,-29.785,-29.297,-39.551,-45.898,-151.855
1688665376.854,-41.016,-30.762,-37.598,-31.250,-103.027
1688665376.858,-43.945,-29.297,-30.273,-24.902,-58.594
1688665376.862,-21.484,-26.367,-33.203,-30.762,-8.789
1688665376.866,-24.414,-32.715,-40.039,-37.598,21.973
1688665376.869,-27.832,-34.180,-39.551,-34.668,55.176
1688665376.873,-33.203,-30.273,-40.527,-34.180,163.086
1688665376.877,-39.551,-29.297,-37.109,-35.156,18.066
1688665376.881,-13.672,-27.832,-30.273,-29.785,-125.488
1688665376.885,-3.418,-28.320,-31.738,-31.250,41.016
1688665376.886,-30.273,-25.879,-36.621,-27.832,40.527
1688665376.890,-41.016,-30.762,-32.227,-30.762,-166.504
1688665376.894,-39.062,-38.086,-28.809,-39.551,-70.312
1688665376.898,-35.156,-34.180,-32.715,-29.785,212.891
1688665376.902,-34.668,-36.133,-31.250,-24.414,92.773
1688665376.906,-22.949,-35.156,-28.320,-31.738,-77.637
1688665376.910,-17.578,-28.320,-29.785,-26.855,-74.707
1688665376.913,-38.574,-29.785,-29.297,-20.020,101.562
1688665376.917,-46.875,-31.738,-29.785,-13.184,190.430
1688665376.921,-22.461,-32.227,-29.785,-14.648,-106.445
1688665376.925,-19.531,-33.691,-32.227,-28.809,-145.508
1688665376.929,-34.180,-36.621,-33.691,-31.738,-145.508
1688665376.934,-38.086,-37.109,-28.320,-27.344,-135.254
1688665376.938,-26.855,-36.133,-26.367,-32.715,-50.293
1688665376.942,-29.785,-38.086,-31.250,-34.180,-6.348
1688665376.946,-29.785,-37.109,-32.227,-33.691,-0.977
1688665376.950,-32.715,-41.504,-31.738,-41.504,-105.957
1688665376.954,-27.832,-40.527,-29.297,-32.715,-105.957
1688665376.958,-24.902,-36.621,-33.691,-20.020,82.031
1688665376.961,-39.551,-35.156,-40.527,-24.902,217.285
1688665376.965,-37.109,-31.250,-31.738,-23.926,-27.344
1688665376.969,-40.039,-37.109,-24.902,-24.414,-205.566
1688665376.973,-30.762,-41.016,-22.461,-21.484,-43.457
1688665376.977,-35.156,-38.574,-30.273,-27.344,39.551
1688665376.976,-29.785,-40.039,-35.645,-41.504,-105.957
1688665376.980,-14.648,-37.598,-33.203,-28.809,-143.555
1688665376.984,-33.203,-36.133,-32.715,-28.320,-29.297
1688665376.988,-18.555,-34.180,-33.203,-26.367,-17.578
1688665376.992,-10.742,-33.203,-32.227,-17.090,-78.125
1688665376.996,-39.551,-36.133,-27.832,-23.926,-109.863
1688665377.000,-46.875,-34.668,-23.438,-23.438,165.527
1688665377.003,-65.918,-35.645,-17.578,-22.949,449.707
1688665377.007,-89.355,-44.434,-12.695,-31.738,61.523
1688665377.011,-75.684,-49.805,-11.230,-45.410,-198.242
1688665377.015,-67.871,-46.875,-10.254,-50.293,-139.648
1688665377.019,-71.777,-44.434,-7.812,-43.457,-116.699
1688665377.037,-72.754,-45.898,-10.742,-38.574,-137.207
1688665377.041,-76.660,-42.969,-12.207,-41.016,-129.395
1688665377.045,-71.289,-40.527,-10.742,-40.039,-41.992
1688665377.049,-66.406,-43.457,-15.625,-33.203,-65.918
1688665377.053,-55.176,-42.969,-20.508,-32.715,-147.949
1688665377.057,-46.387,-41.504,-24.902,-37.109,42.969
1688665377.061,-46.387,-39.551,-22.949,-23.926,308.105
1688665377.064,-43.945,-34.668,-17.578,-20.508,149.902
1688665377.068,-51.270,-40.527,-19.531,-37.109,-93.750
1688665377.072,-50.293,-44.922,-20.996,-34.668,8.301
1688665377.076,-32.715,-38.574,-16.113,-23.926,137.695
1688665377.080,-29.297,-34.668,-15.137,-20.020,-105.957
1688665377.081,-24.414,-35.156,-14.160,-17.090,-207.520
1688665377.085,-7.812,-34.180,-13.184,-11.719,-125.488
1688665377.089,-22.949,-33.203,-18.555,-23.926,-17.090
1688665377.093,-36.133,-34.180,-23.926,-48.340,-87.891
1688665377.097,-39.062,-33.691,-20.508,-43.945,-216.797
1688665377.101,-42.969,-35.156,-18.066,-38.574,138.672
1688665377.105,-50.293,-37.598,-25.879,-42.969,269.531
1688665377.108,-44.434,-33.691,-33.203,-40.527,-76.172
1688665377.112,-32.227,-34.180,-28.320,-39.551,-130.371
1688665377.116,-40.527,-32.227,-20.996,-37.109,141.602
1688665377.120,-42.969,-32.715,-26.367,-36.621,207.031
1688665377.124,-29.297,-35.645,-32.715,-35.645,-163.574
1688665377.126,-18.555,-29.785,-28.809,-31.738,-209.473
1688665377.130,-24.902,-30.273,-27.832,-33.691,-4.883
1688665377.134,-21.484,-30.273,-32.227,-29.297,-43.945
1688665377.138,-4.883,-25.879,-29.297,-25.879,-163.574
1688665377.142,-16.602,-29.297,-29.297,-33.203,-61.035
1688665377.146,-42.969,-32.227,-28.809,-29.297,58.105
1688665377.150,-49.316,-30.273,-30.273,-27.344,-22.949
1688665377.153,-37.109,-26.855,-27.344,-28.320,-138.184
1688665377.157,-28.320,-27.344,-24.414,-21.484,1.465
1688665377.161,-29.297,-34.180,-32.715,-27.344,231.445
1688665377.165,-21.973,-32.715,-33.203,-25.391,54.688
1688665377.169,-13.184,-26.367,-19.531,-26.855,-125.000
1688665377.171,-29.785,-30.762,-20.020,-41.504,-67.871
1688665377.175,-45.898,-33.691,-35.156,-47.852,-38.574
1688665377.179,-38.086,-30.273,-35.156,-39.062,-92.285
1688665377.183,-34.180,-31.250,-30.273,-24.414,-92.285
1688665377.187,-36.621,-30.762,-24.414,-19.043,73.242
1688665377.191,-30.273,-30.762,-24.902,-26.367,219.238
1688665377.195,-14.648,-32.227,-26.855,-41.016,28.809
1688665377.198,-18.066,-34.180,-29.785,-29.297,-166.016
1688665377.202,-35.156,-31.738,-35.645,-20.020,34.180
1688665377.206,-40.527,-33.203,-37.109,-32.227,108.887
1688665377.210,-37.109,-36.133,-32.227,-34.180,-192.871
1688665377.214,-18.555,-34.668,-28.809,-33.203,-161.133
1688665377.217,-2.441,-43.457,-31.738,-25.391,-90.820
1688665377.221,-12.207,-48.340,-27.344,-5.859,-47.363
1688665377.225,-36.133,-37.598,-24.902,-10.742,-64.941
1688665377.229,-52.734,-28.320,-30.762,-39.551,-41.992
1688665377.233,-60.547,-24.902,-40.039,-60.059,25.391
1688665377.237,-46.875,-26.367,-49.805,-57.617,10.742
1688665377.241,-30.273,-20.508,-53.223,-44.922,-26.855
1688665377.244,-19.531,-13.672,-57.617,-43.457,2.441
1688665377.248,-40.039,-11.230,-67.383,-58.105,184.570
1688665377.252,-52.734,-9.766,-74.707,-61.523,-23.438
1688665377.256,-35.645,-6.836,-76.172,-49.316,-199.219
1688665377.260,-45.410,-5.859,-75.195,-59.082,-48.340
1688665377.261,-44.922,-10.742,-70.312,-68.848,-16.113
1688665377.265,-40.527,-14.160,-69.824,-63.965,-149.414
1688665377.269,-40.039,-19.043,-72.754,-53.223,-202.148
1688665377.273,-24.414,-19.043,-62.988,-42.969,152.344
1688665377.277,-8.301,-20.020,-50.781,-35.156,318.848
1688665377.281,-8.789,-25.879,-46.875,-40.039,29.785
1688665377.285,-4.883,-21.973,-47.852,-51.270,-43.457
1688665377.288,-20.996,-15.137,-46.387,-40.039,126.953
1688665377.292,-26.367,-17.578,-44.434,-29.297,183.105
1688665377.296,-4.883,-22.949,-44.922,-40.039,-168.945
1688665377.300,-13.184,-25.879,-42.969,-30.273,-229.004
1688665377.304,-22.949,-25.879,-39.062,-23.438,-140.625
1688665377.308,-14.648,-25.391,-33.691,-22.949,-167.480
1688665377.312,-19.043,-24.414,-33.203,-17.090,-208.008
1688665377.316,-8.789,-24.414,-37.598,-24.414,-83.008
1688665377.320,1.953,-27.344,-38.086,-33.203,27.832
1688665377.324,-8.789,-27.832,-38.086,-36.133,-74.707
1688665377.328,-25.879,-31.250,-39.062,-25.879,-72.266
1688665377.332,-30.762,-32.715,-36.621,-21.484,92.285
1688665377.335,-21.484,-30.762,-34.668,-18.066,443.359
1688665377.339,-9.766,-37.598,-34.180,-21.973,240.723
1688665377.343,-21.484,-38.086,-29.785,-33.203,-228.027
1688665377.347,-30.762,-31.250,-28.320,-30.762,-156.738
1688665377.351,-18.555,-34.668,-41.992,-35.156,-86.914
1688665377.351,-23.926,-37.598,-42.480,-36.621,-146.484
1688665377.355,-41.016,-33.691,-31.250,-45.898,-154.785
1688665377.359,-36.621,-28.809,-32.227,-44.434,5.371
1688665377.363,-33.203,-31.250,-31.738,-40.039,32.715
1688665377.367,-41.992,-38.574,-27.832,-44.434,-110.840
1688665377.371,-30.762,-37.598,-26.367,-42.969,-156.250
1688665377.375,-26.855,-36.133,-31.250,-41.992,165.039
1688665377.378,-29.297,-35.156,-27.344,-40.527,326.660
1688665377.382,-21.973,-37.109,-26.855,-55.176,-17.578
1688665377.386,-25.879,-41.016,-30.762,-51.270,-157.227
1688665377.390,-48.828,-37.109,-35.645,-46.387,-91.797
1688665377.394,-38.574,-33.691,-38.574,-57.617,-94.727
1688665377.398,-20.020,-34.180,-34.668,-52.246,-226.562
1688665377.402,-31.738,-35.156,-32.227,-42.969,-145.508
1688665377.406,-36.621,-31.738,-35.156,-35.156,-81.543
1688665377.410,-30.762,-28.320,-35.645,-32.715,-150.391
1688665377.414,-27.344,-30.273,-29.297,-36.133,-209.961
1688665377.418,-32.715,-31.250,-27.832,-38.574,63.477
1688665377.422,-36.133,-31.738,-26.367,-37.109,285.645
1688665377.425,-40.039,-33.691,-23.438,-30.762,-10.254
1688665377.429,-50.293,-33.691,-29.297,-42.969,-161.621
1688665377.433,-39.551,-27.832,-27.832,-34.668,-16.602
1688665377.437,-24.902,-24.902,-22.461,-16.113,49.805
1688665377.441,-18.066,-29.297,-33.691,-35.156,-53.223
1688665377.443,-27.832,-32.715,-34.180,-43.945,-94.727
1688665377.447,-40.527,-32.715,-27.832,-29.785,0.488
1688665377.451,-39.062,-31.738,-27.832,-26.367,52.246
1688665377.455,-43.945,-31.250,-25.879,-32.227,-53.711
1688665377.459,-25.391,-35.156,-26.367,-33.691,-159.180
1688665377.463,-26.367,-36.621,-26.367,-36.133,142.090
1688665377.467,-41.504,-34.180,-28.320,-42.480,447.266
1688665377.470,-38.086,-31.738,-27.344,-30.273,48.340
1688665377.474,-37.109,-26.367,-24.414,-18.555,-130.859
1688665377.478,-36.621,-31.250,-27.832,-25.879,-48.828
1688665377.482,-34.668,-34.668,-31.250,-29.785,-123.047
1688665377.486,-31.738,-28.320,-33.691,-29.297,-261.719
1688665377.490,-23.926,-25.879,-32.227,-23.926,-198.730
1688665377.494,-28.809,-29.785,-35.645,-22.949,-35.645
1688665377.498,-20.996,-29.297,-37.598,-25.879,-21.484
1688665377.502,-20.020,-28.809,-33.203,-36.621,-174.805
1688665377.506,-40.527,-31.250,-34.180,-40.527,-96.680
1688665377.510,-46.387,-29.297,-32.227,-39.551,208.984
1688665377.514,-37.109,-31.738,-31.250,-42.969,83.496
1688665377.517,-31.738,-36.133,-34.180,-43.457,-166.504
1688665377.521,-33.691,-29.297,-32.227,-43.945,-39.551
1688665377.525,-35.156,-27.832,-33.203,-34.180,130.859
1688665377.529,-39.551,-31.250,-34.668,-35.156,-72.266
1688665377.533,-28.320,-25.879,-33.691,-56.641,-178.223
1688665377.546,-25.879,-23.438,-29.297,-51.270,-78.125
1688665377.550,-42.480,-26.367,-32.227,-45.410,-83.496
1688665377.554,-42.480,-30.273,-36.133,-46.875,-66.406
1688665377.558,-37.598,-31.250,-33.691,-47.852,-53.711
1688665377.562,-28.809,-29.785,-30.273,-46.387,182.129
1688665377.566,-18.555,-29.297,-26.855,-32.715,353.516
1688665377.570,-24.414,-25.391,-25.391,-23.926,103.516
1688665377.573,-20.020,-23.926,-31.250,-26.367,-104.492
1688665377.577,-22.949,-32.715,-34.668,-11.230,23.438
1688665377.581,-29.785,-39.551,-23.438,-13.672,46.387
1688665377.585,-37.109,-39.062,-22.461,-41.992,-173.340
1688665377.589,-52.246,-39.062,-26.367,-38.086,-144.043
1688665377.591,-60.059,-36.133,-20.996,-33.203,-105.957
1688665377.595,-63.965,-36.621,-11.719,-34.180,-127.930
1688665377.599,-63.965,-42.480,-9.766,-35.645,-151.855
1688665377.603,-60.547,-43.457,-8.301,-47.852,-100.586
1688665377.607,-61.035,-43.457,-8.301,-42.969,-55.176
1688665377.611,-69.824,-47.363,-10.254,-39.551,-2.930
1688665377.615,-68.359,-43.945,-10.742,-43.945,17.578
1688665377.618,-54.688,-39.551,-11.230,-33.691,97.168
1688665377.622,-40.527,-41.504,-9.766,-13.672,383.789
1688665377.626,-37.598,-41.504,-12.207,-16.602,169.922
1688665377.630,-53.223,-42.969,-13.672,-29.297,-199.219
1688665377.634,-52.246,-42.969,-13.184,-20.508,-103.027
1688665377.637,-45.898,-44.434,-17.578,-23.438,-26.855
1688665377.641,-32.715,-42.969,-18.066,-22.949,-105.469
1688665377.645,-28.809,-36.621,-16.602,-12.695,-88.379
1688665377.649,-30.762,-35.156,-19.531,-19.531,147.461
1688665377.653,-33.203,-37.598,-18.066,-13.672,96.191
1688665377.657,-25.879,-43.945,-16.113,-21.973,-37.109
1688665377.661,-41.016,-41.992,-21.973,-35.645,-50.781
1688665377.664,-44.922,-37.109,-19.531,-23.926,73.242
1688665377.668,-37.109,-41.016,-21.484,-24.414,114.258
1688665377.672,-34.668,-39.551,-24.414,-18.066,-112.305
1688665377.676,-26.855,-38.574,-25.391,-21.973,-165.527
1688665377.680,-27.832,-41.992,-27.832,-31.738,-87.402
1688665377.682,-20.996,-41.992,-28.809,-30.762,-106.934
1688665377.686,-23.926,-42.969,-32.227,-38.574,-252.930
1688665377.690,-41.504,-44.922,-31.250,-34.180,-168.457
1688665377.694,-41.504,-42.480,-22.461,-20.996,-55.664
1688665377.698,-38.574,-38.574,-23.438,-24.902,-92.285
1688665377.702,-48.340,-39.551,-30.762,-33.691,-47.852
1688665377.706,-39.551,-38.086,-29.297,-25.879,102.051
1688665377.709,-28.809,-34.668,-29.785,-27.832,229.492
1688665377.713,-42.480,-36.133,-35.645,-25.879,13.672
1688665377.717,-49.805,-34.180,-32.227,-28.320,-153.320
1688665377.721,-46.387,-28.809,-30.273,-31.738,-80.566
1688665377.725,-43.457,-31.738,-28.320,-36.621,-50.781
1688665377.728,-35.645,-33.691,-24.414,-34.668,-68.848
1688665377.732,-27.832,-27.344,-25.879,-31.250,-141.113
1688665377.736,-19.531,-29.297,-26.367,-24.414,128.906
1688665377.740,-26.855,-35.645,-28.809,-15.625,281.250
1688665377.744,-27.832,-33.691,-33.691,-30.273,-74.219
1688665377.748,-39.062,-27.832,-39.062,-43.945,-96.191
1688665377.752,-37.109,-26.367,-35.645,-38.574,189.941
1688665377.755,-38.574,-27.832,-34.668,-31.250,229.492
1688665377.759,-54.199,-29.785,-41.504,-34.180,-144.043
1688665377.763,-41.016,-29.297,-44.434,-39.551,-204.590
1688665377.767,-37.598,-24.414,-41.504,-48.828,-144.531
1688665377.771,-39.551,-21.973,-36.621,-45.410,-154.785
1688665377.775,-38.086,-32.227,-37.109,-39.551,-154.297
1688665377.779,-27.344,-35.645,-34.668,-33.691,-105.957
1688665377.783,-20.020,-29.785,-37.109,-39.551,-20.996
1688665377.787,-32.715,-31.738,-39.062,-49.316,-73.242
1688665377.791,-45.410,-35.645,-36.621,-50.781,-170.898
1688665377.795,-47.852,-33.203,-38.086,-40.527,48.828
1688665377.799,-38.086,-30.273,-32.715,-25.391,556.641
1688665377.802,-22.949,-35.156,-29.297,-36.133,297.852
1688665377.806,-23.926,-28.320,-30.762,-38.574,-186.523
1688665377.810,-31.250,-29.785,-39.062,-42.480,-125.977
1688665377.814,-27.832,-39.062,-40.039,-47.852,-137.695
1688665377.818,-24.414,-34.668,-32.227,-40.039,-193.848
1688665377.832,-28.809,-35.645,-31.738,-28.320,-190.918
1688665377.836,-27.344,-33.203,-30.273,-24.414,-129.395
1688665377.840,-34.180,-30.762,-31.250,-27.344,-104.492
1688665377.844,-31.738,-35.645,-28.320,-20.996,-83.496
1688665377.848,-21.484,-38.086,-27.832,-19.531,-75.684
1688665377.852,-32.715,-40.039,-34.180,-20.020,141.113
1688665377.856,-40.039,-41.992,-31.250,-20.020,451.172
1688665377.859,-32.715,-38.086,-30.762,-22.461,171.387
1688665377.863,-26.855,-31.250,-30.273,-26.855,-131.836
1688665377.867,-31.738,-30.762,-25.879,-29.785,-42.969
1688665377.871,-33.203,-33.203,-31.250,-36.621,-84.961
1688665377.875,-24.902,-28.320,-33.691,-38.574,-241.699
1688665377.876,-28.320,-29.297,-34.180,-36.133,-214.844
1688665377.880,-31.738,-33.691,-36.133,-40.039,-120.117
1688665377.884,-18.555,-32.715,-38.574,-28.809,-121.582
1688665377.888,-17.578,-30.273,-35.645,-23.438,-187.500
1688665377.892,-31.738,-31.250,-35.156,-25.879,-140.625
1688665377.896,-53.711,-35.645,-40.527,-34.180,44.922
1688665377.900,-47.363,-39.551,-41.504,-46.387,41.016
1688665377.903,-30.273,-38.086,-30.273,-34.180,12.695
1688665377.907,-42.969,-33.691,-34.180,-30.273,97.168
1688665377.911,-54.199,-35.156,-40.039,-44.434,202.637
1688665377.915,-50.781,-37.109,-34.180,-43.457,-36.133
1688665377.919,-42.969,-38.086,-31.738,-38.574,-245.117
1688665377.921,-43.945,-38.574,-36.133,-33.691,-2.930
1688665377.925,-23.438,-34.180,-34.180,-8.301,144.043
1688665377.929,-13.184,-35.645,-22.949,-16.113,-104.980
1688665377.933,-43.945,-44.922,-14.648,-42.969,-214.355
1688665377.937,-66.895,-44.434,-6.348,-42.480,79.102
1688665377.941,-67.871,-40.527,-4.395,-40.039,192.383
1688665377.945,-72.266,-43.945,0.000,-36.621,-120.117
1688665377.948,-83.008,-48.828,5.371,-41.016,-179.199
1688665377.952,-89.844,-51.270,7.812,-43.457,33.203
1688665377.956,-84.961,-51.758,10.254,-34.180,60.547
1688665377.960,-82.520,-50.293,17.090,-32.227,-103.516
1688665377.964,-85.449,-45.898,26.855,-44.434,-106.934
1688665377.969,-83.008,-46.875,28.320,-32.227,124.023
1688665377.973,-91.797,-52.246,20.020,-28.809,24.414
1688665377.977,-96.191,-58.105,10.254,-44.434,-197.266
1688665377.981,-77.637,-54.688,20.020,-30.273,-103.027
1688665377.985,-56.641,-50.293,26.367,-12.695,-67.383
1688665377.989,-58.105,-44.922,22.949,0.977,-25.879
1688665377.993,-60.059,-37.109,21.484,9.766,33.691
1688665377.996,-53.711,-39.062,12.207,-2.930,94.238
1688665378.000,-40.527,-35.645,9.277,7.324,199.707
1688665378.004,-43.945,-36.621,2.930,-1.953,46.875
1688665378.008,-41.016,-40.039,-2.930,-18.066,-162.109
1688665378.012,-14.648,-31.738,-0.488,-6.836,-131.836
1688665378.012,-22.461,-32.227,-6.348,-11.719,-29.785
1688665378.016,-21.973,-30.762,-12.207,-4.883,-111.816
1688665378.020,-11.719,-22.949,-5.371,11.230,-109.863
1688665378.024,-20.996,-26.855,-3.906,0.977,44.922
1688665378.028,-25.879,-28.809,-11.230,-7.812,-11.719
1688665378.032,-38.086,-25.391,-9.766,-3.906,-78.613
1688665378.036,-24.414,-30.273,-13.184,-9.277,-98.633
1688665378.039,-7.812,-34.668,-19.531,-4.883,90.820
1688665378.043,-24.902,-36.133,-20.508,6.348,375.977
1688665378.047,-38.086,-39.062,-25.879,-5.371,66.406
1688665378.051,-26.367,-36.133,-24.902,-0.977,-190.918
1688665378.055,-28.809,-31.738,-17.578,11.230,-88.867
1688665378.059,-24.414,-31.738,-21.484,8.301,-64.941
1688665378.063,-14.648,-32.227,-24.414,1.953,-199.219
1688665378.067,-18.555,-30.762,-18.066,-4.883,-119.141
1688665378.071,-23.438,-27.832,-13.672,1.953,20.996
1688665378.075,-35.156,-25.879,-20.996,0.488,-109.863
1688665378.079,-30.762,-29.785,-26.367,-13.184,-101.562
1688665378.083,-12.695,-28.320,-24.902,-11.719,62.012
1688665378.086,-8.301,-27.832,-25.391,3.906,280.762
1688665378.090,-29.785,-29.785,-27.344,-1.465,51.758
1688665378.094,-31.250,-26.367,-25.879,-23.438,-218.262
1688665378.098,-23.926,-27.344,-28.809,-27.832,-76.172
1688665378.102,-27.832,-25.879,-31.738,-23.926,-76.172
1688665378.101,-26.367,-25.879,-33.691,-24.414,-167.969
1688665378.105,-31.738,-28.320,-35.156,-22.461,-122.559
1688665378.109,-30.762,-30.762,-31.250,-26.855,-4.395
1688665378.113,-28.320,-31.250,-29.785,-23.438,7.812
1688665378.117,-29.785,-27.344,-18.555,-18.066,-109.863
1688665378.121,-18.555,-28.809,-16.602,-14.160,-107.422
1688665378.125,-21.484,-35.645,-26.367,-23.438,232.422
1688665378.128,-34.668,-38.086,-25.391,-26.367,508.301
1688665378.132,-20.996,-33.691,-20.508,-10.254,81.055
1688665378.136,-17.578,-33.203,-24.902,-13.672,-222.168
1688665378.140,-44.922,-33.691,-28.809,-19.531,-168.945
1688665378.144,-52.246,-34.180,-31.738,-23.438,-227.539
1688665378.148,-33.203,-35.645,-30.762,-24.902,-271.973
1688665378.152,-34.668,-36.133,-31.738,-16.602,-132.324
1688665378.156,-46.875,-32.227,-29.785,-11.230,-8.301
1688665378.160,-29.297,-30.273,-31.738,-22.949,-97.656
1688665378.164,-23.438,-30.273,-33.203,-26.367,-177.246
1688665378.168,-42.480,-33.203,-32.227,-28.320,31.250
1688665378.172,-48.340,-39.551,-35.645,-29.297,262.207
1688665378.175,-40.527,-38.086,-38.086,-26.855,87.891
1688665378.179,-44.922,-35.156,-41.992,-40.039,-72.266
1688665378.183,-41.992,-34.668,-35.645,-45.898,-2.441
1688665378.187,-41.016,-33.691,-25.879,-43.945,98.145
1688665378.191,-46.387,-33.691,-30.762,-46.875,-93.262
1688665378.208,-39.062,-33.203,-38.574,-45.898,-160.645
1688665378.212,-30.273,-41.504,-40.527,-41.992,-82.520
1688665378.216,-19.043,-45.410,-30.273,-28.320,-24.414
1688665378.220,-20.996,-33.691,-31.738,-32.715,-82.520
1688665378.224,-48.340,-24.414,-40.039,-44.922,-161.133
1688665378.228,-56.152,-27.344,-43.457,-40.527,163.574
1688665378.232,-47.363,-27.832,-50.293,-50.781,403.320
1688665378.235,-43.457,-17.090,-56.641,-61.035,-28.809
1688665378.239,-50.781,-17.090,-60.059,-66.406,-245.605
1688665378.243,-48.828,-18.066,-59.082,-65.430,-68.848
1688665378.247,-45.898,-18.066,-60.059,-51.758,-38.086
1688665378.251,-50.781,-26.367,-58.105,-52.246,-187.500
1688665378.252,-46.875,-28.320,-53.711,-58.594,-168.457
1688665378.256,-51.758,-28.320,-54.688,-45.898,-76.172
1688665378.260,-43.457,-31.250,-55.176,-43.457,-84.961
1688665378.264,-26.855,-25.391,-47.363,-44.434,-120.117
1688665378.268,-28.320,-24.414,-44.922,-43.457,3.906
1688665378.272,-21.484,-25.879,-51.270,-46.387,127.930
1688665378.276,-29.297,-26.367,-49.316,-40.039,-61.523
1688665378.279,-45.410,-30.273,-41.504,-30.762,-156.250
1688665378.283,-36.621,-29.785,-34.180,-23.926,30.762
1688665378.287,-26.367,-26.855,-39.062,-22.461,396.484
1688665378.291,-33.203,-27.832,-44.922,-36.621,161.621
1688665378.295,-27.344,-28.320,-34.668,-37.598,-196.777
1688665378.296,-17.090,-27.344,-34.180,-38.574,-59.082
1688665378.300,-43.945,-30.762,-35.645,-47.363,-53.223
1688665378.304,-55.176,-30.762,-33.203,-42.480,-74.219
1688665378.308,-46.387,-26.855,-37.109,-41.016,-88.379
1688665378.312,-36.133,-31.738,-42.480,-40.039,33.203
1688665378.316,-20.996,-34.668,-37.109,-32.715,199.707
1688665378.320,-28.809,-35.156,-31.250,-32.227,34.180
1688665378.323,-38.574,-36.133,-29.785,-28.320,-85.938
1688665378.327,-24.902,-32.227,-28.320,-19.531,61.523
1688665378.331,-22.949,-34.180,-27.832,-22.461,128.906
1688665378.335,-36.621,-42.480,-30.273,-30.762,-186.035
1688665378.339,-34.180,-37.109,-29.785,-36.133,-185.059
1688665378.342,-21.973,-34.668,-29.297,-25.879,-138.672
1688665378.346,-17.090,-36.133,-31.738,-26.367,-174.805
1688665378.350,-10.742,-28.809,-25.879,-26.855,-104.492
1688665378.354,-23.438,-29.785,-28.809,-14.648,-12.207
1688665378.358,-36.621,-33.691,-32.715,-20.020,8.301
1688665378.362,-41.016,-31.738,-25.391,-18.555,-4.883
1688665378.366,-42.969,-31.738,-25.391,-21.973,-43.945
1688665378.369,-34.180,-29.297,-22.949,-23.926,-33.691
1688665378.373,-32.227,-24.414,-22.949,-22.461,99.609
1688665378.377,-26.367,-30.273,-22.461,-27.832,-102.539
1688665378.381,-32.227,-35.645,-27.344,-29.297,-279.785
1688665378.385,-51.270,-38.086,-33.691,-37.598,-159.668
1688665378.386,-54.688,-32.715,-30.762,-36.133,-123.047
1688665378.390,-45.410,-30.762,-25.879,-27.344,-179.688
1688665378.394,-46.875,-32.227,-32.227,-21.973,-151.367
1688665378.398,-36.621,-31.250,-36.621,-16.113,141.113
1688665378.402,-24.414,-30.762,-30.273,-20.996,147.461
1688665378.406,-38.086,-31.250,-26.855,-25.391,-61.035
1688665378.410,-41.504,-40.039,-25.879,-34.668,-89.844
1688665378.413,-23.926,-43.457,-27.832,-42.969,206.055
1688665378.417,-23.438,-31.738,-29.297,-29.785,371.094
1688665378.421,-24.414,-28.809,-27.832,-27.832,-46.387
1688665378.425,-29.785,-32.227,-27.344,-35.645,-221.680
1688665378.429,-43.457,-30.762,-31.250,-30.762,-163.574
1688665378.433,-45.410,-34.668,-37.598,-34.180,-202.637
1688665378.437,-37.598,-36.621,-35.156,-42.480,-265.625
1688665378.441,-43.945,-35.156,-31.250,-36.133,-184.570
1688665378.445,-50.781,-29.785,-36.621,-28.320,-89.844
1688665378.449,-41.016,-26.367,-36.621,-29.785,-165.039
1688665378.453,-29.297,-29.297,-31.250,-29.785,-122.559
1688665378.457,-28.809,-34.180,-29.785,-26.367,92.773
1688665378.460,-31.738,-36.621,-31.250,-25.391,295.410
1688665378.464,-43.457,-36.133,-32.715,-26.855,101.074
1688665378.468,-46.387,-38.574,-31.738,-25.391,-212.402
1688665378.472,-34.668,-41.992,-28.809,-16.602,-72.754
1688665378.476,-27.832,-33.691,-34.180,-26.855,50.293
1688665378.476,-28.320,-24.902,-39.062,-43.945,-89.844
1688665378.480,-41.504,-27.344,-41.504,-48.828,-140.137
1688665378.484,-48.828,-22.949,-42.969,-51.270,3.906
1688665378.488,-50.293,-20.996,-42.969,-50.293,20.996
1688665378.492,-53.711,-24.414,-46.875,-54.199,-124.023
1688665378.496,-43.945,-18.555,-47.852,-53.711,-97.168
1688665378.500,-36.133,-15.625,-53.223,-56.152,242.188
1688665378.503,-48.828,-14.160,-61.523,-62.500,366.211
1688665378.507,-61.035,-14.648,-68.848,-81.055,-104.004
1688665378.511,-56.152,-14.648,-64.941,-77.148,-193.848
1688665378.515,-33.203,-22.461,-53.711,-67.383,-54.688
1688665378.519,-44.434,-27.832,-51.270,-78.125,-76.660
1688665378.523,-56.152,-27.344,-49.805,-68.848,-139.648
1688665378.527,-41.016,-32.227,-50.781,-56.152,-108.887
1688665378.531,-38.574,-36.621,-54.688,-52.246,-0.488
1688665378.535,-31.738,-34.668,-55.664,-49.316,-15.137
1688665378.539,-27.832,-34.668,-48.828,-44.434,-134.277
1688665378.543,-36.621,-30.762,-39.551,-49.805,2.441
1688665378.547,-45.898,-26.367,-42.480,-56.152,302.734
1688665378.550,-39.551,-28.320,-41.992,-56.641,45.898
1688665378.554,-21.484,-27.832,-40.527,-63.965,-169.922
1688665378.558,-17.578,-30.762,-42.969,-62.012,-41.992
1688665378.562,-21.484,-30.762,-37.109,-42.969,-99.121
1688665378.566,-40.039,-31.250,-33.203,-32.715,-247.559
1688665378.568,-53.711,-28.809,-33.691,-30.762,-184.082
1688665378.572,-34.180,-26.855,-30.762,-26.367,67.871
1688665378.576,-21.484,-26.367,-28.809,-21.484,124.512
1688665378.580,-23.438,-25.391,-36.133,-24.902,-41.992
1688665378.584,-27.832,-24.902,-34.180,-22.949,-171.875
1688665378.588,-25.391,-23.438,-31.250,-17.090,49.805
1688665378.592,-26.855,-21.484,-35.156,-20.996,272.949
1688665378.595,-26.855,-24.902,-31.250,-35.645,-48.340
1688665378.599,-26.367,-26.855,-23.926,-40.039,-209.473
1688665378.603,-32.227,-21.484,-29.785,-31.250,-3.418
1688665378.607,-23.926,-27.832,-34.180,-25.879,-1.953
1688665378.611,-22.949,-37.109,-30.273,-26.855,-135.254
1688665378.626,-18.066,-28.320,-41.016,-31.250,-86.426
1688665378.630,-21.484,-20.020,-48.340,-34.668,-72.754
1688665378.634,-47.363,-12.207,-48.828,-51.270,-146.973
1688665378.638,-55.664,-9.766,-52.246,-66.895,-150.391
1688665378.642,-46.875,-9.766,-53.711,-59.082,36.621
1688665378.646,-41.992,-1.465,-60.059,-67.383,251.465
1688665378.650,-39.062,0.000,-67.383,-82.031,133.301
1688665378.653,-48.340,-5.371,-71.777,-83.496,-128.906
1688665378.657,-46.387,-9.277,-72.266,-83.496,-24.414
1688665378.661,-42.480,-3.906,-72.754,-82.031,160.645
1688665378.665,-41.016,1.953,-73.730,-82.520,-71.777
1688665378.669,-32.227,-12.207,-74.707,-83.496,-183.594
1688665378.672,-28.809,-23.926,-71.777,-83.984,-93.750
1688665378.676,-24.902,-19.531,-64.453,-76.172,-103.027
1688665378.680,-33.691,-21.484,-58.594,-67.383,-83.984
1688665378.684,-42.969,-28.320,-60.059,-64.453,-81.055
1688665378.688,-36.621,-25.391,-59.570,-55.176,5.371
1688665378.692,-33.691,-25.879,-53.223,-44.922,103.027
1688665378.696,-21.973,-26.367,-51.758,-39.062,-61.523
1688665378.699,-7.812,-22.949,-46.875,-32.227,-72.266
1688665378.703,-5.859,-22.461,-32.715,-21.973,210.938
1688665378.707,-9.766,-20.996,-23.438,-20.508,259.766
1688665378.711,-15.137,-24.902,-23.926,-30.762,-136.719
1688665378.715,-5.859,-23.438,-28.320,-37.598,-241.211
1688665378.716,-4.883,-20.996,-26.367,-25.879,-154.297
1688665378.720,-11.230,-24.414,-28.320,-11.719,-155.762
1688665378.724,-17.578,-24.902,-33.691,-18.555,-139.160
1688665378.728,-28.320,-23.438,-29.785,-33.691,-99.121
1688665378.732,-32.715,-22.461,-27.832,-25.391,-15.625
1688665378.736,-22.461,-28.320,-36.621,-27.832,28.809
1688665378.740,-16.602,-29.785,-34.668,-27.344,-65.430
1688665378.743,-18.066,-25.391,-33.203,-14.160,-18.555
1688665378.747,-25.879,-23.926,-39.062,-20.020,294.922
1688665378.751,-21.973,-28.809,-36.621,-23.926,130.371
1688665378.755,-18.066,-29.297,-31.738,-21.484,-203.125
1688665378.759,-19.531,-29.297,-30.762,-19.043,-92.773
1688665378.761,-0.977,-31.250,-33.203,-19.043,-63.965
1688665378.765,-5.859,-30.762,-34.668,-25.391,-168.457
1688665378.769,-25.879,-28.320,-38.086,-33.691,-157.715
1688665378.773,-32.227,-29.297,-39.062,-28.320,77.637
1688665378.777,-34.668,-30.762,-38.086,-15.625,95.703
1688665378.781,-20.020,-26.367,-32.227,-19.531,-21.484
1688665378.785,-22.949,-26.367,-30.273,-26.367,-104.980
1688665378.788,-41.504,-30.273,-27.832,-16.113,49.316
1688665378.792,-23.438,-32.715,-29.785,-15.625,160.645
1688665378.796,-18.066,-33.691,-37.109,-19.531,-148.926
1688665378.800,-25.879,-34.180,-36.621,-28.320,-113.281
1688665378.804,-35.156,-38.086,-31.738,-31.738,12.207
1688665378.806,-43.945,-30.273,-27.344,-25.879,-62.012
1688665378.810,-31.738,-23.926,-26.367,-18.555,-137.695
1688665378.814,-38.574,-28.320,-27.344,-19.531,-46.875
1688665378.818,-38.086,-28.320,-29.297,-20.508,9.766
1688665378.822,-28.809,-29.785,-33.203,-25.391,-82.031
1688665378.826,-29.297,-33.203,-38.574,-28.320,-64.941
1688665378.830,-26.855,-33.203,-30.762,-25.879,79.102
1688665378.833,-22.949,-27.832,-26.367,-23.438,271.484
1688665378.837,-23.926,-30.273,-31.250,-21.973,52.246
1688665378.841,-28.809,-31.250,-35.645,-26.367,-167.969
1688665378.845,-37.109,-29.297,-38.574,-26.855,-90.820
1688665378.849,-29.785,-30.762,-34.180,-24.414,-62.988
1688665378.853,-22.949,-27.832,-31.738,-16.602,-117.676
1688665378.857,-26.855,-26.855,-35.645,-19.043,-59.570
1688665378.861,-20.020,-29.785,-38.574,-22.461,232.910
1688665378.865,-21.973,-28.809,-32.227,-19.531,278.809
1688665378.869,-24.902,-28.320,-24.902,-23.438,-62.012
1688665378.873,-23.926,-26.855,-29.785,-30.273,-123.535
1688665378.877,-26.855,-26.855,-31.250,-25.879,229.004
1688665378.880,-27.344,-25.391,-25.879,-27.344,252.930
1688665378.884,-34.668,-25.879,-28.809,-38.574,-194.824
1688665378.888,-44.434,-23.926,-26.367,-30.762,-266.602
1688665378.892,-47.363,-24.902,-26.367,-28.320,-167.969
1688665378.896,-23.438,-31.250,-28.809,-25.879,-160.156
1688665378.913,0.000,-38.574,-31.250,-16.602,-195.801
1688665378.917,-20.508,-38.574,-34.180,-25.879,-127.441
1688665378.921,-46.387,-29.297,-34.668,-43.945,-44.922
1688665378.925,-46.387,-29.297,-34.180,-43.457,-93.750
1688665378.929,-37.598,-34.668,-37.109,-31.250,-81.055
1688665378.933,-20.508,-35.645,-43.457,-23.926,46.387
1688665378.937,-25.879,-30.273,-42.969,-11.719,378.906
1688665378.940,-40.527,-29.297,-42.480,-17.578,243.164
1688665378.944,-30.273,-31.738,-41.504,-21.484,-158.691
1688665378.948,-12.695,-32.227,-35.645,-16.602,-92.773
1688665378.952,-11.719,-30.273,-35.156,-16.602,-38.574
1688665378.956,-20.996,-27.832,-35.645,-20.020,-103.027
1688665378.956,-21.973,-25.879,-31.250,-15.137,-160.156
1688665378.960,-16.602,-27.344,-30.273,-10.254,-81.543
1688665378.964,-15.625,-29.785,-34.180,-10.742,54.199
1688665378.968,-18.066,-28.320,-34.668,-6.348,20.508
1688665378.972,-27.344,-29.785,-41.016,-10.742,-81.543
1688665378.976,-31.250,-34.668,-41.992,-22.949,83.008
1688665378.980,-34.180,-35.645,-24.902,-14.160,137.207
1688665378.983,-29.297,-29.297,-17.578,1.465,52.734
1688665378.987,-14.160,-27.832,-25.879,-2.930,-63.965
1688665378.991,-17.578,-33.203,-33.203,-20.996,80.078
1688665378.995,-20.508,-30.762,-29.785,-22.461,350.586
1688665378.999,-15.625,-23.438,-26.855,-18.555,2.441
1688665379.001,-22.461,-25.879,-35.645,-34.180,-206.055
1688665379.005,-31.250,-31.738,-36.133,-40.039,-141.602
1688665379.009,-20.996,-28.809,-24.902,-27.344,-138.184
1688665379.013,-24.902,-27.832,-24.902,-18.555,-125.977
1688665379.017,-36.621,-25.391,-29.785,-13.672,-58.105
1688665379.021,-31.738,-25.879,-27.832,-25.391,27.344
1688665379.025,-16.113,-29.785,-30.762,-33.691,73.730
1688665379.028,-12.695,-33.203,-33.203,-26.367,6.348
1688665379.032,-24.902,-31.738,-37.109,-27.344,-5.371
1688665379.036,-31.250,-24.902,-30.762,-15.137,358.887
1688665379.040,-22.949,-26.367,-19.531,-10.742,209.473
1688665379.044,-26.855,-30.273,-22.461,-25.879,-173.828
1688665379.046,-37.109,-32.227,-25.879,-29.785,-106.445
1688665379.050,-39.062,-33.691,-24.902,-28.320,-111.328
1688665379.054,-27.832,-34.180,-25.391,-26.855,-143.066
1688665379.058,-23.926,-33.203,-27.344,-24.414,-106.445
1688665379.062,-37.598,-31.738,-24.414,-21.484,95.215
1688665379.066,-29.785,-29.297,-26.855,-28.809,195.312
1688665379.070,-36.621,-30.762,-34.668,-39.062,-77.148
1688665379.073,-54.688,-31.250,-32.715,-38.574,-204.590
1688665379.077,-50.781,-30.273,-30.762,-29.297,108.887
1688665379.081,-29.785,-29.297,-33.203,-28.320,210.938
1688665379.085,-22.461,-28.320,-33.203,-29.785,-110.352
1688665379.089,-30.762,-28.320,-33.691,-25.391,-117.188
1688665379.091,-35.156,-29.785,-31.250,-25.879,-19.531
1688665379.095,-35.645,-28.809,-29.297,-30.762,-72.266
1688665379.099,-29.297,-26.367,-27.832,-35.645,-151.855
1688665379.103,-31.250,-28.809,-33.691,-40.039,-68.848
1688665379.107,-38.086,-34.180,-38.574,-33.691,-82.520
1688665379.111,-48.828,-36.133,-33.203,-29.785,-62.500
1688665379.115,-51.758,-32.227,-30.762,-37.109,-5.371
1688665379.118,-38.086,-28.809,-33.203,-34.668,12.695
1688665379.122,-45.410,-29.297,-29.297,-28.809,238.770
1688665379.126,-42.480,-31.738,-26.367,-34.668,56.152
1688665379.130,-32.227,-32.227,-31.738,-37.109,-197.754
1688665379.134,-44.922,-28.809,-29.297,-20.996,-84.473
1688665379.153,-46.387,-32.227,-26.367,-27.832,-60.547
1688665379.157,-33.691,-33.203,-28.320,-34.180,-19.531
1688665379.161,-38.574,-29.785,-28.809,-38.086,-12.207
1688665379.165,-45.898,-30.273,-31.250,-38.574,114.746
1688665379.169,-36.133,-31.738,-30.273,-37.598,293.457
1688665379.173,-29.297,-31.738,-32.227,-47.852,54.199
1688665379.177,-31.738,-30.273,-32.715,-39.062,-65.918
1688665379.180,-23.438,-32.715,-31.250,-27.344,119.629
1688665379.184,-29.297,-30.273,-29.785,-28.809,145.996
1688665379.188,-51.270,-29.785,-31.738,-34.668,-152.344
1688665379.192,-48.828,-31.738,-27.344,-30.762,-197.266
1688665379.196,-38.574,-30.273,-25.391,-32.227,-129.395
1688665379.183,-38.086,-31.250,-34.180,-40.527,-135.254
1688665379.187,-38.574,-29.297,-33.691,-40.527,-135.742
1688665379.191,-39.062,-27.344,-31.738,-41.992,-64.941
1688665379.195,-31.738,-22.949,-33.203,-51.270,-44.434
1688665379.199,-20.020,-19.531,-35.156,-46.875,-44.434
1688665379.203,-29.297,-25.879,-35.645,-47.363,-63.965
1688665379.207,-80.078,-31.738,-32.715,-76.660,24.414
1688665379.210,-106.445,-27.344,-31.738,-106.445,70.801
1688665379.214,-112.305,-32.227,-27.344,-117.188,-69.336
1688665379.218,-140.137,-34.668,-25.879,-134.277,-173.828
1688665379.222,-147.461,-28.809,-25.879,-148.438,-50.293
1688665379.226,-174.316,-27.344,-14.648,-148.926,322.754
1688665379.226,-204.102,-32.715,-9.766,-154.297,125.977
1688665379.230,-205.566,-37.598,-12.207,-159.668,-187.500
1688665379.234,-204.590,-38.574,0.488,-166.016,-58.594
1688665379.238,-196.289,-43.457,8.301,-170.410,-35.156
1688665379.242,-206.055,-51.758,9.766,-161.621,-118.652
1688665379.246,-213.867,-57.129,16.602,-152.344,-128.418
1688665379.250,-189.453,-64.453,22.461,-128.906,127.441
1688665379.253,-166.504,-69.336,26.367,-103.027,500.000
1688665379.257,-146.973,-67.871,31.250,-96.680,135.254
1688665379.261,-120.117,-73.242,33.203,-87.891,-250.000
1688665379.265,-105.469,-76.660,38.574,-79.102,-195.312
1688665379.269,-102.539,-77.148,47.852,-47.852,-217.285
1688665379.273,-77.637,-75.195,49.316,-20.020,-234.863
1688665379.277,-59.082,-73.730,41.992,-16.113,-143.555
1688665379.281,-41.992,-74.707,41.504,-7.812,-76.660
1688665379.285,-35.645,-68.848,41.504,-2.441,-115.234
1688665379.289,-40.527,-65.918,41.992,12.207,-202.637
1688665379.293,-29.785,-64.941,47.363,34.180,-107.910
1688665379.297,-23.438,-64.453,42.480,43.945,145.020
1688665379.300,-5.859,-57.129,37.109,45.898,30.273
1688665379.304,6.348,-52.246,34.668,48.828,-179.688
1688665379.308,14.160,-47.363,31.250,49.316,60.059
1688665379.312,22.949,-41.016,26.367,61.523,239.746
1688665379.316,26.855,-41.016,17.578,65.918,-41.504
1688665379.332,35.156,-34.668,13.672,57.129,-121.582
1688665379.336,22.461,-33.691,10.254,46.387,-14.648
1688665379.340,26.855,-34.668,2.930,53.711,31.738
1688665379.344,38.574,-28.809,6.348,65.918,-31.738
1688665379.348,22.949,-32.227,2.930,57.617,-115.234
1688665379.352,7.324,-39.062,-6.348,62.988,181.641
1688665379.356,7.812,-42.969,-10.254,58.105,403.809
1688665379.359,9.277,-40.527,-2.930,46.875,8.301
1688665379.363,9.277,-32.227,0.000,52.246,-215.820
1688665379.367,10.742,-26.367,-5.371,46.875,-139.160
1688665379.371,17.090,-28.320,-14.160,39.551,-147.461
1688665379.375,31.738,-31.738,-17.090,34.180,-186.035
1688665379.364,25.391,-25.879,-13.184,31.250,-164.062
1688665379.368,17.090,-25.391,-16.113,34.668,13.672
1688665379.372,18.555,-30.273,-20.020,32.227,45.898
1688665379.376,11.230,-26.855,-17.090,31.250,-124.512
1688665379.380,11.230,-24.414,-18.555,26.855,-100.586
1688665379.384,11.719,-24.902,-19.531,15.137,82.520
1688665379.388,9.277,-25.391,-19.531,19.531,111.816
1688665379.391,1.465,-26.367,-23.438,15.137,-44.434
1688665379.395,2.930,-25.879,-27.344,9.766,-42.969
1688665379.399,-0.977,-27.832,-29.785,20.020,274.902
1688665379.403,-13.184,-30.762,-23.438,18.066,72.266
1688665379.407,-15.625,-29.297,-23.926,12.695,-221.191
1688665379.423,-8.301,-26.855,-24.414,12.207,-97.168
1688665379.427,-9.277,-26.367,-23.926,10.742,-34.668
1688665379.431,8.301,-25.391,-28.809,10.254,-23.438
1688665379.435,8.301,-30.273,-34.180,-5.371,-80.566
1688665379.439,-32.715,-37.598,-31.250,-13.184,85.449
1688665379.443,-29.785,-39.062,-28.809,1.465,369.141
1688665379.447,-19.043,-39.551,-27.832,3.906,96.191
1688665379.450,-10.742,-36.621,-23.438,-5.371,-183.594
1688665379.454,-12.695,-35.156,-23.926,-9.277,-68.359
1688665379.458,-13.672,-33.691,-29.297,-3.418,-45.410
1688665379.462,-6.348,-29.785,-27.344,2.930,-160.156
1688665379.466,-15.625,-25.391,-17.578,-11.230,-144.043
1688665379.467,-32.715,-22.949,-16.602,-24.414,-125.488
1688665379.471,-39.062,-25.391,-23.438,-20.996,-152.344
1688665379.475,-39.062,-26.855,-20.020,-35.156,-171.875
1688665379.479,-37.109,-30.273,-16.602,-41.016,-101.074
1688665379.483,-41.016,-33.203,-20.020,-28.320,7.324
1688665379.487,-35.645,-32.715,-19.531,-30.762,43.457
1688665379.491,-51.270,-34.180,-18.066,-32.227,-21.973
1688665379.494,-63.477,-32.715,-14.160,-28.809,-28.320
1688665379.498,-49.316,-31.250,-15.137,-20.996,283.203
1688665379.502,-58.105,-34.668,-21.484,-25.391,187.988
1688665379.506,-56.641,-30.762,-26.367,-29.785,-187.988
1688665379.510,-42.480,-25.879,-29.785,-29.785,-135.254
1688665379.512,-48.828,-29.785,-25.879,-31.738,-83.008
1688665379.516,-43.457,-35.645,-20.996,-25.391,-100.586
1688665379.520,-21.484,-32.715,-22.461,-29.785,-76.660
1688665379.524,-26.367,-30.273,-27.344,-33.203,100.098
1688665379.528,-37.598,-28.320,-34.180,-33.203,114.746
1688665379.532,-24.902,-22.949,-30.273,-28.320,-3.906
1688665379.536,-19.531,-28.320,-27.344,-24.902,-6.836
1688665379.539,-36.621,-33.691,-26.855,-24.414,150.879
1688665379.543,-45.898,-33.691,-23.926,-19.043,275.391
1688665379.547,-43.945,-37.109,-32.227,-25.879,-114.746
1688665379.551,-41.992,-34.180,-31.250,-32.715,-275.879
1688665379.555,-45.410,-29.297,-24.902,-28.320,-121.582
1688665379.588,-31.738,-29.297,-27.832,-25.391,-92.285
1688665379.592,-20.996,-30.762,-33.691,-21.973,-150.879
1688665379.596,-27.344,-28.320,-35.156,-24.414,-109.375
1688665379.600,-24.902,-25.391,-31.738,-22.461,-77.148
1688665379.604,-32.715,-25.391,-34.180,-20.508,-95.703
1688665379.608,-32.227,-20.508,-27.832,-17.090,-53.223
1688665379.612,-18.066,-23.438,-21.484,-17.578,98.145
1688665379.615,-21.973,-28.809,-25.879,-22.949,276.855
1688665379.619,-34.668,-31.250,-29.785,-22.949,12.695
1688665379.623,-36.133,-29.297,-25.879,-8.789,-176.758
1688665379.627,-24.414,-24.902,-24.414,-6.836,51.758
1688665379.631,-18.066,-28.809,-32.227,-20.996,81.055
1688665379.601,-23.438,-26.855,-35.156,-18.555,-138.184
1688665379.605,-36.621,-27.832,-37.109,-16.602,-184.082
1688665379.609,-39.062,-30.273,-36.133,-34.668,11.719
1688665379.613,-37.598,-26.367,-31.250,-32.715,31.738
1688665379.617,-31.738,-25.391,-30.273,-20.508,-119.141
1688665379.621,-28.809,-25.391,-35.645,-35.156,-5.859
1688665379.625,-31.738,-23.438,-37.598,-38.086,103.027
1688665379.628,-24.414,-23.438,-32.715,-22.461,-21.973
1688665379.632,-20.996,-28.320,-28.809,-22.949,-114.746
1688665379.636,-17.578,-25.879,-29.297,-20.020,-145.996
1688665379.640,-3.418,-20.020,-32.227,-25.391,-63.965
1688665379.644,-8.789,-18.066,-37.598,-30.762,-55.664
1688665379.663,-6.836,-21.973,-39.062,-29.785,-121.094
1688665379.667,3.418,-19.531,-27.832,-23.438,-129.395
1688665379.671,-0.488,-16.602,-23.926,-19.531,196.777
1688665379.675,-19.043,-22.461,-31.738,-18.066,422.363
1688665379.679,-30.762,-25.391,-33.691,-19.043,7.812
1688665379.683,-44.922,-25.879,-30.273,-22.949,-25.879
1688665379.687,-51.270,-25.391,-28.809,-11.230,233.887
1688665379.690,-31.250,-24.902,-32.715,-11.230,-9.277
1688665379.694,-10.742,-22.949,-34.668,-26.367,-231.934
1688665379.698,-15.625,-26.855,-30.762,-25.879,-91.797
1688665379.702,-37.109,-32.227,-27.832,-22.461,-43.457
1688665379.706,-44.922,-30.762,-24.414,-16.113,-179.199
1688665379.708,-42.480,-26.855,-20.020,-15.137,-156.738
1688665379.712,-44.922,-24.414,-17.578,-18.066,-104.004
1688665379.716,-45.410,-33.203,-17.090,-19.043,-39.062
1688665379.720,-46.387,-34.180,-12.695,-22.949,17.578
1688665379.724,-41.992,-34.180,-10.254,-21.484,-29.297
1688665379.728,-43.457,-39.551,-17.578,-20.020,191.895
1688665379.732,-36.621,-36.621,-20.508,-20.508,331.055
1688665379.735,-30.762,-35.156,-15.137,-18.066,-25.391
1688665379.739,-29.785,-31.250,-9.277,-13.672,-218.262
1688665379.743,-28.809,-30.762,-6.348,0.977,59.082
1688665379.747,-35.156,-34.668,-13.184,-4.883,251.953
1688665379.751,-22.949,-30.762,-16.602,-19.043,-120.117
1688665379.751,-17.578,-28.320,-12.695,-4.883,-214.355
1688665379.755,-11.230,-27.344,-13.184,-4.883,-120.605
1688665379.759,-20.020,-27.832,-19.531,-12.207,-136.230
1688665379.763,-34.180,-25.879,-27.344,-9.277,-135.742
1688665379.767,-37.598,-25.879,-30.273,-6.836,-119.629
1688665379.771,-29.785,-26.367,-30.273,-14.648,20.508
1688665379.775,-22.461,-23.926,-33.203,-19.531,47.852
1688665379.778,-24.414,-25.391,-33.691,-9.766,-47.852
1688665379.782,-19.043,-24.414,-32.715,-1.953,-30.273
1688665379.786,-10.742,-27.344,-30.762,-3.906,276.855
1688665379.790,-14.160,-29.785,-24.414,-15.625,203.613
1688665379.794,-21.973,-25.879,-23.926,-22.461,-159.668
1688665379.796,-28.809,-25.879,-28.320,-21.484,-154.785
1688665379.800,-30.762,-32.227,-29.297,-20.020,-140.137
1688665379.804,-29.297,-33.203,-31.738,-24.902,-119.629
1688665379.808,-33.203,-27.344,-32.715,-19.043,-134.277
1688665379.812,-26.855,-23.926,-33.691,-4.883,-27.344
1688665379.816,-9.277,-23.926,-37.598,-12.207,110.352
1688665379.820,-6.348,-28.809,-36.621,-24.902,-13.672
1688665379.823,-16.113,-29.785,-32.715,-29.785,-72.754
1688665379.827,-16.602,-23.438,-28.320,-9.766,110.840
1688665379.831,-23.438,-20.508,-27.344,-3.906,267.578
1688665379.835,-37.109,-23.926,-31.738,-34.180,-75.684
1688665379.839,-30.762,-23.926,-32.715,-27.832,-198.730
1688665379.842,-22.461,-20.508,-33.691,-18.066,-93.750
1688665379.846,-23.438,-20.508,-30.762,-18.066,-137.207
1688665379.850,-25.879,-24.902,-25.391,-11.230,-177.734
1688665379.854,-31.250,-30.273,-30.762,-13.672,-81.055
1688665379.858,-33.203,-36.133,-40.039,-20.996,13.184
1688665379.862,-13.184,-31.250,-35.645,-20.996,-3.906
1688665379.866,-4.883,-29.297,-31.250,-23.926,40.039
1688665379.869,-16.113,-26.855,-35.156,-30.762,16.113
1688665379.873,-17.090,-22.949,-39.062,-26.367,119.141
1688665379.877,-30.762,-27.832,-37.598,-24.902,39.551
1688665379.881,-36.133,-28.809,-28.809,-23.438,-134.277
1688665379.885,-31.250,-27.832,-25.391,-19.043,-40.527
1688665379.887,-30.273,-22.461,-23.926,-11.230,-6.836
1688665379.891,-30.762,-23.926,-28.320,-10.742,-160.156
1688665379.895,-20.996,-25.879,-30.762,-17.578,-142.578
1688665379.899,-2.930,-24.414,-31.738,-15.625,101.074
1688665379.903,12.207,-15.137,-32.715,-11.230,129.883
1688665379.907,-1.953,-8.301,-29.785,-8.789,-82.520
1688665379.911,-32.227,-20.508,-30.273,-12.695,-64.941
1688665379.914,-52.246,-24.902,-34.180,-12.695,-7.324
1688665379.918,-50.293,-21.973,-27.344,3.906,-84.473
1688665379.922,-22.461,-22.461,-25.391,0.977,-138.672
1688665379.926,-16.113,-27.344,-29.785,-19.043,-158.203
1688665379.930,-34.180,-28.809,-31.738,-20.508,-0.977
1688665379.934,-41.504,-26.855,-31.250,-21.484,131.348
1688665379.938,-34.668,-27.344,-31.738,-28.320,-41.992
1688665379.942,-27.832,-24.414,-34.180,-17.578,-115.234
1688665379.946,-24.414,-25.391,-34.180,-13.184,-13.672
1688665379.950,-29.785,-27.832,-32.227,-17.090,-108.887
1688665379.954,-37.109,-30.273,-31.738,-23.438,-161.621
1688665379.958,-31.250,-36.621,-41.504,-29.785,21.973
1688665379.961,-29.785,-34.180,-38.574,-20.508,218.262
1688665379.965,-28.320,-26.855,-29.785,-17.578,19.531
1688665379.969,-20.508,-27.832,-30.762,-32.227,-234.863
1688665379.973,-12.695,-25.879,-33.203,-28.809,-174.805
1688665379.977,-18.066,-27.832,-39.062,-18.066,-110.352
1688665379.976,-35.156,-35.645,-37.598,-22.949,-128.906
1688665379.980,-34.180,-39.062,-30.762,-12.695,-156.250
1688665379.984,-26.367,-31.250,-32.715,-14.160,21.484
1688665379.988,-35.156,-15.625,-39.062,-50.293,98.145
1688665379.992,-34.180,-9.277,-41.992,-58.105,-34.668
1688665379.996,-41.992,-15.137,-48.828,-38.574,-0.488
1688665380.000,-41.504,-22.949,-54.688,-41.504,155.273
1688665380.003,-33.203,-18.066,-57.617,-42.969,386.719
1688665380.007,-32.715,-15.137,-62.500,-48.340,126.953
1688665380.011,-29.785,-12.695,-62.012,-49.805,-182.617
1688665380.015,-33.691,-12.695,-58.105,-43.457,-115.234
1688665380.019,-36.621,-21.973,-55.664,-49.316,-154.297
1688665380.023,-33.691,-25.879,-53.711,-41.992,-227.539
1688665380.027,-41.016,-22.461,-48.828,-39.062,-171.875
1688665380.031,-42.480,-23.926,-46.875,-45.410,-75.195
1688665380.035,-25.391,-22.461,-47.852,-42.480,-66.895
1688665380.039,-11.719,-19.531,-48.340,-32.715,-99.121
1688665380.043,-18.555,-22.461,-46.875,-37.598,20.508
1688665380.047,-22.461,-20.020,-45.898,-41.504,238.281
1688665380.050,-15.137,-12.695,-44.922,-36.133,78.613
1688665380.054,-17.090,-15.625,-43.457,-24.902,-116.211
1688665380.058,-16.602,-21.973,-41.016,-24.414,10.254
1688665380.062,-8.789,-20.996,-37.109,-28.320,95.215
1688665380.066,-21.973,-25.879,-40.527,-25.391,-73.730
1688665380.097,-33.691,-26.855,-41.504,-20.020,-165.039
1688665380.101,-26.367,-23.438,-35.156,-14.648,-10.742
1688665380.105,-18.555,-21.484,-36.621,-9.277,119.629
1688665380.109,-12.695,-25.391,-42.480,-22.461,-28.809
1688665380.113,-15.137,-22.461,-34.180,-26.855,-190.430
1688665380.117,-24.414,-16.113,-32.227,-11.230,104.492
1688665380.121,-23.926,-22.461,-37.598,-6.836,493.652
1688665380.124,-10.742,-21.973,-36.133,-17.578,149.902
1688665380.128,-3.418,-18.066,-33.203,-21.973,-149.414
1688665380.132,-4.395,-23.926,-33.203,-24.902,-50.293
1688665380.136,-7.324,-23.438,-35.156,-25.391,-66.895
1688665380.140,-8.789,-15.625,-24.414,-16.113,-211.426
1688665380.142,-19.043,-23.926,-30.273,-16.113,-191.406
1688665380.146,-37.109,-26.855,-40.527,-30.762,-148.926
1688665380.150,-33.203,-17.090,-34.180,-31.250,-131.348
1688665380.154,-23.438,-17.578,-33.691,-21.484,-231.934
1688665380.158,-29.785,-21.973,-32.715,-14.160,-177.246
1688665380.162,-35.645,-23.438,-33.203,-22.461,-65.918
1688665380.166,-27.832,-25.391,-37.109,-31.738,-116.211
1688665380.169,-20.996,-26.367,-33.691,-26.855,-175.293
1688665380.173,-29.785,-28.320,-28.320,-29.297,-104.980
1688665380.177,-35.645,-26.367,-37.598,-25.879,-17.578
1688665380.181,-32.227,-23.438,-36.621,-14.160,-68.848
1688665380.185,-30.762,-24.414,-25.879,-19.043,-128.418
1688665380.171,-25.391,-27.344,-32.715,-21.973,-62.012
1688665380.175,-16.113,-26.367,-31.738,-18.555,282.227
1688665380.179,-17.578,-24.414,-31.250,-24.902,166.016
1688665380.183,-27.832,-30.762,-34.180,-37.109,-139.160
1688665380.187,-30.273,-32.715,-31.738,-30.762,-5.859
1688665380.191,-20.996,-30.273,-34.668,-27.832,147.949
1688665380.195,-25.391,-26.855,-37.598,-38.574,-38.086
1688665380.198,-24.414,-21.484,-33.691,-35.156,-178.711
1688665380.202,-17.578,-24.902,-32.227,-30.762,-126.465
1688665380.206,-34.668,-28.320,-34.668,-39.551,-66.406
1688665380.210,-51.758,-26.367,-35.156,-40.527,-145.508
1688665380.214,-52.734,-30.762,-33.691,-33.691,-261.230
1688665380.219,-32.227,-31.738,-38.086,-25.879,147.461
1688665380.223,-30.762,-29.297,-41.016,-26.367,324.219
1688665380.227,-40.039,-28.809,-36.621,-27.832,-135.254
1688665380.231,-34.668,-29.785,-32.715,-27.832,-165.527
1688665380.235,-27.832,-32.715,-33.203,-30.762,-68.359
1688665380.239,-29.297,-36.133,-36.621,-37.598,-30.762
1688665380.243,-41.504,-38.574,-34.180,-30.273,-45.898
1688665380.246,-24.902,-33.203,-33.203,-23.926,24.414
1688665380.250,-20.508,-33.203,-35.156,-26.855,182.617
1688665380.254,-26.367,-29.785,-30.273,-20.508,-23.926
1688665380.258,-27.344,-27.344,-29.785,-14.648,-221.680
1688665380.262,-34.668,-33.203,-39.062,-16.113,-89.844
1688665380.262,-32.715,-30.273,-31.250,-17.090,-49.805
1688665380.266,-36.133,-26.855,-33.203,-14.648,-148.438
1688665380.270,-36.621,-28.320,-40.527,-12.695,-83.496
1688665380.274,-24.414,-25.879,-29.297,-13.184,83.984
1688665380.278,-19.531,-24.414,-21.484,-16.113,22.949
1688665380.282,-20.020,-21.973,-26.367,-25.391,2.441
1688665380.286,-32.227,-24.414,-31.250,-36.133,-69.824
1688665380.289,-38.574,-27.832,-30.762,-28.809,-10.254
1688665380.293,-30.762,-25.879,-27.832,-12.695,388.184
1688665380.297,-28.809,-21.484,-25.391,-10.742,178.223
1688665380.301,-26.855,-23.438,-26.367,-21.484,-192.871
1688665380.305,-29.297,-29.297,-24.902,-20.508,-160.645
1688665380.323,-30.273,-24.414,-18.066,-14.648,-101.074
1688665380.327,-18.066,-16.602,-10.742,-7.324,-131.348
1688665380.331,-17.578,-26.855,-17.578,-6.836,-96.680
1688665380.335,-14.160,-26.367,-21.484,-10.742,-17.578
1688665380.339,-5.371,-18.555,-19.043,-18.555,-85.449
1688665380.343,-11.230,-21.973,-24.414,-26.367,-114.258
1688665380.347,-22.461,-24.414,-26.855,-25.391,-47.363
1688665380.350,-25.879,-25.879,-24.414,-8.301,349.121
1688665380.354,-27.832,-22.461,-23.438,0.977,250.977
1688665380.358,-28.809,-24.414,-26.855,-11.719,-172.363
1688665380.362,-17.578,-28.809,-24.902,-15.137,-101.562
1688665380.366,-8.301,-25.879,-26.367,-17.090,-92.773
1688665380.352,-22.461,-19.043,-24.902,-11.719,-148.438
1688665380.356,-30.762,-18.066,-24.902,-5.371,-154.785
1688665380.360,-35.156,-23.926,-34.668,-17.090,-50.781
1688665380.364,-43.457,-27.344,-36.621,-22.949,32.227
1688665380.368,-42.969,-23.926,-25.879,-18.066,-164.551
1688665380.372,-23.438,-20.508,-19.531,-9.277,-131.836
1688665380.376,-16.113,-23.438,-25.391,-10.742,86.426
1688665380.379,-22.949,-23.438,-28.809,-18.066,-25.879
1688665380.383,-29.297,-23.926,-29.297,-22.461,-119.629
1688665380.387,-29.785,-26.855,-34.668,-29.297,-168.457
1688665380.391,-20.996,-23.926,-38.086,-16.602,57.617
1688665380.395,-16.113,-20.508,-28.809,-11.719,398.926
1688665380.398,-19.531,-24.902,-28.320,-28.320,31.250
1688665380.402,-30.762,-26.855,-32.715,-30.762,-200.195
1688665380.406,-36.621,-23.438,-33.203,-27.344,-149.414
1688665380.410,-23.438,-22.949,-37.109,-24.414,-161.621
1688665380.414,-20.020,-26.855,-33.691,-20.996,-209.961
1688665380.418,-23.926,-24.414,-30.762,-13.184,-51.758
1688665380.422,-18.555,-20.996,-27.832,-6.836,237.793
1688665380.425,-26.855,-27.344,-23.438,-16.602,32.227
1688665380.429,-23.438,-30.762,-30.273,-19.531,-245.605
1688665380.433,-17.090,-24.414,-33.203,-9.766,-114.258
1688665380.437,-17.090,-21.973,-32.715,-13.184,76.172
1688665380.441,-7.812,-19.043,-31.250,-22.949,-17.578
1688665380.456,-20.020,-21.484,-27.832,-25.879,-137.207
1688665380.460,-39.551,-31.250,-24.902,-18.555,-28.320
1688665380.464,-30.273,-31.250,-25.391,-12.207,77.637
1688665380.468,-20.508,-28.320,-25.879,-12.695,-26.855
1688665380.472,-21.973,-25.391,-21.973,-4.883,-166.016
1688665380.476,-23.926,-27.832,-25.879,-5.371,77.148
1688665380.480,-24.902,-21.484,-30.762,-5.859,328.125
1688665380.483,-10.254,-19.043,-31.250,-10.742,14.160
1688665380.487,-6.836,-20.508,-25.879,-25.879,-177.734
1688665380.491,-25.879,-17.090,-28.320,-41.992,-69.336
1688665380.495,-34.668,-19.043,-31.250,-41.016,-51.270
1688665380.499,-35.645,-20.508,-30.762,-27.344,-173.340
1688665380.490,-33.203,-22.461,-30.762,-30.273,-182.129
1688665380.494,-33.691,-26.855,-33.203,-31.250,35.156
1688665380.498,-29.785,-28.320,-31.250,-20.996,20.020
1688665380.502,-20.020,-25.391,-28.320,-23.438,-168.945
1688665380.506,-28.809,-26.855,-25.879,-30.762,-119.141
1688665380.510,-27.344,-27.832,-27.344,-20.996,63.965
1688665380.514,-21.484,-28.320,-31.250,-20.020,89.844
1688665380.517,-24.902,-30.762,-31.250,-28.320,-97.656
1688665380.521,-13.672,-30.762,-35.156,-25.391,-135.254
1688665380.525,-21.484,-26.367,-36.621,-21.484,122.559
1688665380.529,-30.273,-26.367,-34.668,-33.691,24.902
1688665380.533,-21.973,-30.273,-34.668,-41.504,-152.344
1688665380.547,-24.902,-31.250,-35.156,-31.250,-104.492
1688665380.551,-21.484,-25.879,-32.715,-25.879,-103.516
1688665380.555,-18.066,-27.344,-31.250,-28.320,-83.984
1688665380.559,-27.344,-32.227,-34.668,-31.738,-99.121
1688665380.563,-24.902,-32.227,-33.203,-14.160,118.652
1688665380.567,-26.367,-31.738,-31.738,-7.812,460.938
1688665380.571,-36.621,-34.180,-30.762,-33.203,121.094
1688665380.574,-34.180,-30.273,-32.227,-38.086,-210.449
1688665380.578,-38.086,-26.855,-36.133,-36.133,-11.719
1688665380.582,-47.363,-27.832,-27.832,-45.898,31.738
1688665380.586,-47.852,-28.809,-27.832,-50.293,-172.852
1688665380.590,-41.992,-26.367,-27.832,-38.086,-151.367
1688665380.591,-35.645,-20.996,-22.461,-24.902,-123.535
1688665380.595,-39.062,-26.367,-24.902,-27.344,-147.461
1688665380.599,-40.527,-29.785,-29.297,-31.250,-154.785
1688665380.603,-36.133,-27.832,-27.832,-24.902,-54.688
1688665380.607,-22.461,-27.344,-27.344,-26.367,-30.273
1688665380.611,-29.785,-25.879,-32.715,-32.227,-53.711
1688665380.615,-42.480,-27.344,-35.645,-34.180,-13.672
1688665380.618,-26.855,-30.762,-32.227,-30.273,53.711
1688665380.622,-22.461,-27.344,-23.926,-16.602,349.121
1688665380.626,-19.043,-25.391,-20.508,-8.301,210.938
1688665380.630,-21.484,-28.809,-24.414,-16.602,-181.152
1688665380.634,-25.391,-25.391,-22.461,-6.348,-150.879
1688665380.636,-15.137,-22.461,-19.043,1.465,-74.707
1688665380.640,-12.207,-28.320,-24.414,-15.137,-119.141
1688665380.644,-15.137,-29.297,-26.855,-20.996,-141.602
1688665380.648,-25.391,-24.902,-26.855,-21.484,71.289
1688665380.652,-31.738,-24.902,-27.344,-23.438,129.883
1688665380.656,-35.156,-26.855,-26.367,-22.461,-45.898
1688665380.660,-25.879,-24.414,-31.250,-24.902,-80.566
1688665380.663,-22.949,-28.809,-34.668,-24.902,145.020
1688665380.667,-32.227,-32.227,-25.879,-21.973,234.375
1688665380.671,-36.133,-30.762,-27.832,-29.297,-54.688
1688665380.675,-34.180,-29.297,-29.785,-33.691,-146.973
1688665380.679,-30.273,-32.227,-26.855,-29.297,-56.152
1688665380.683,-28.809,-33.203,-29.297,-28.320,-44.434
1688665380.687,-26.855,-26.855,-24.414,-28.809,-128.906
1688665380.691,-32.227,-25.391,-24.414,-38.086,-68.848
1688665380.695,-37.598,-32.227,-36.133,-43.945,-17.090
1688665380.699,-34.180,-35.156,-40.039,-35.156,-22.949
1688665380.703,-21.484,-35.645,-40.527,-48.828,-2.930
1688665380.707,-23.438,-30.762,-32.227,-47.852,66.406
1688665380.710,-37.598,-29.297,-25.879,-29.785,273.438
1688665380.714,-42.969,-30.762,-34.180,-31.250,113.281
1688665380.718,-43.457,-32.227,-39.062,-30.762,-93.750
1688665380.722,-37.109,-33.203,-35.156,-25.879,-26.367
1688665380.726,-28.809,-31.250,-31.738,-25.879,15.625
1688665380.742,-32.227,-29.785,-31.250,-27.344,-70.312
1688665380.746,-29.785,-22.461,-34.668,-23.926,-199.219
1688665380.750,-20.508,-23.926,-37.598,-17.090,103.516
1688665380.754,-17.578,-25.391,-31.250,-14.160,275.879
1688665380.758,-29.785,-25.879,-30.762,-12.207,-106.934
1688665380.762,-40.527,-33.691,-32.715,-11.230,-108.887
1688665380.766,-41.016,-33.691,-28.809,-10.742,120.117
1688665380.769,-48.340,-34.180,-33.691,-16.113,297.363
1688665380.773,-39.062,-32.227,-32.715,-20.996,52.246
1688665380.777,-22.949,-31.738,-28.320,-18.555,-152.344
1688665380.781,-18.066,-37.109,-28.809,-32.227,-118.164
1688665380.785,-24.902,-32.227,-22.949,-34.668,-119.629
1688665380.775,-46.387,-20.508,-23.926,-37.598,-154.785
1688665380.779,-48.828,-15.137,-28.320,-45.898,-118.164
1688665380.783,-49.316,-11.719,-32.715,-56.641,-59.082
1688665380.787,-57.617,-9.766,-39.551,-80.078,-138.184
1688665380.791,-62.988,-17.090,-44.434,-91.797,-172.852
1688665380.795,-81.543,-18.066,-64.941,-114.258,102.051
1688665380.799,-100.098,-16.113,-75.684,-132.324,260.254
1688665380.802,-116.699,-10.742,-76.660,-151.367,13.672
1688665380.806,-134.766,-4.883,-87.402,-174.805,-175.781
1688665380.810,-145.996,-2.441,-90.332,-177.734,-137.695
1688665380.814,-154.297,-5.371,-93.750,-186.523,186.035
1688665380.818,-167.480,-0.977,-102.539,-212.402,62.500
1688665380.831,-166.016,7.812,-104.004,-223.633,-228.027
1688665380.835,-168.945,21.484,-100.098,-229.980,-176.270
1688665380.839,-185.547,23.438,-102.051,-245.117,-38.086
1688665380.843,-183.105,19.043,-115.723,-247.070,-21.484
1688665380.847,-166.016,25.879,-123.047,-242.676,-91.309
1688665380.851,-170.898,31.250,-124.512,-241.699,131.836
1688665380.855,-177.246,36.621,-123.535,-239.746,453.613
1688665380.858,-166.016,35.156,-122.070,-233.887,170.410
1688665380.862,-144.531,34.668,-120.605,-214.355,-208.984
1688665380.866,-115.723,40.527,-128.418,-195.312,-124.023
1688665380.870,-84.473,34.180,-124.512,-168.945,-124.512
1688665380.874,-62.988,21.973,-117.676,-155.273,-198.242
1688665380.876,-59.082,23.438,-117.188,-143.555,-170.898
1688665380.880,-34.668,21.484,-110.840,-113.770,-55.664
1688665380.884,-3.906,9.277,-108.887,-100.586,-48.340
1688665380.888,-1.953,5.859,-103.027,-83.008,-125.000
1688665380.892,-0.977,2.930,-93.262,-61.523,-120.605
1688665380.896,10.742,-1.465,-90.820,-52.246,3.418
1688665380.900,26.367,-5.371,-83.496,-36.621,24.902
1688665380.903,38.086,-11.230,-69.336,-15.137,-16.113
1688665380.907,34.668,-18.555,-61.523,-1.953,65.918
1688665380.911,41.016,-26.855,-63.477,-4.883,69.824
1688665380.915,43.945,-34.668,-61.523,-10.742,-63.965
1688665380.919,34.668,-38.574,-52.734,-15.625,-199.707
1688665380.922,41.992,-39.551,-49.805,14.648,-32.715
1688665380.926,51.758,-46.875,-45.410,32.227,202.637
1688665380.930,51.270,-49.805,-49.805,13.184,66.406
1688665380.934,48.340,-46.875,-52.246,13.184,-97.656
1688665380.938,48.828,-54.199,-41.992,17.090,48.828
1688665380.942,51.270,-54.199,-30.273,30.273,189.453
1688665380.946,51.758,-49.805,-25.391,41.992,24.902
1688665380.949,50.293,-51.758,-24.902,34.668,-125.000
1688665380.953,45.898,-51.758,-25.391,42.969,41.992
1688665380.957,25.879,-50.781,-23.926,49.805,242.188
1688665380.961,23.926,-43.945,-15.625,40.039,-76.660
1688665380.965,34.668,-43.945,-15.625,41.016,-172.363
1688665380.966,28.809,-49.316,-29.785,24.414,-14.648
1688665380.970,30.273,-49.316,-32.227,13.672,-57.617
1688665380.974,36.133,-46.875,-27.832,18.555,-174.316
1688665380.978,23.926,-49.805,-25.391,18.555,-99.609
1688665380.982,7.812,-52.734,-25.879,20.996,-38.574
1688665380.986,12.207,-43.457,-22.949,23.438,-67.871
1688665380.990,20.020,-41.504,-22.949,15.137,-92.285
1688665380.993,23.926,-47.363,-23.926,18.066,-41.504
1688665380.997,28.809,-48.828,-27.344,26.367,186.523
1688665381.001,30.762,-49.316,-35.156,18.555,57.129
1688665381.005,10.254,-51.758,-22.949,13.672,-228.027
1688665381.009,4.395,-51.758,-18.066,17.090,-20.996
1688665381.011,7.812,-48.828,-21.973,19.531,79.590
1688665381.015,0.000,-44.922,-28.320,25.879,-138.672
1688665381.019,-1.953,-41.016,-21.973,25.391,-118.652
1688665381.023,-5.859,-42.969,-14.648,13.672,93.262
1688665381.027,-7.812,-44.434,-17.578,6.348,164.062
1688665381.031,-9.766,-36.621,-19.531,9.766,23.438
1688665381.035,-16.602,-28.320,-20.508,15.137,-37.109
1688665381.038,-0.488,-28.320,-17.578,15.625,131.348
1688665381.042,-1.465,-29.785,-18.555,9.277,214.844
1688665381.046,-7.812,-30.762,-18.555,-2.441,-130.859
1688665381.050,-8.789,-29.297,-20.508,-11.719,-200.195
1688665381.054,-14.160,-30.273,-27.832,-11.230,-110.352
1688665381.059,-12.207,-32.227,-28.320,-8.789,-90.332
1688665381.063,-18.555,-30.273,-23.438,-16.602,-151.855
1688665381.067,-15.137,-32.227,-28.320,-19.043,-91.797
1688665381.071,-7.812,-33.203,-30.273,-11.230,66.895
1688665381.075,-19.043,-31.738,-28.320,-17.090,-41.504
1688665381.079,-20.020,-35.156,-25.879,-14.160,-42.969
1688665381.083,-5.371,-38.574,-28.320,-1.465,86.914
1688665381.086,-24.902,-33.691,-32.715,-15.137,229.492
1688665381.090,-47.852,-35.156,-29.297,-24.902,47.852
1688665381.094,-31.250,-31.738,-25.879,-22.949,-229.980
1688665381.098,-25.391,-25.879,-31.738,-22.461,-74.219
1688665381.102,-26.855,-35.645,-38.086,-22.949,40.039
1688665381.102,-17.578,-32.227,-41.504,-23.926,-115.723
1688665381.106,-16.113,-25.879,-37.598,-25.879,-193.848
1688665381.110,-21.973,-32.715,-38.086,-30.762,2.930
1688665381.114,-28.809,-32.227,-40.039,-31.250,80.566
1688665381.118,-25.391,-34.180,-34.180,-31.250,-66.406
1688665381.122,-16.113,-37.109,-34.180,-33.691,-113.770
1688665381.126,-12.207,-35.645,-37.598,-23.926,120.117
1688665381.129,-31.738,-37.598,-35.645,-14.160,435.059
1688665381.133,-34.668,-39.551,-37.598,-16.602,114.746
1688665381.137,-28.320,-40.039,-38.086,-18.555,-184.570
1688665381.141,-27.344,-35.156,-26.855,-20.996,-174.805
1688665381.145,-18.555,-32.715,-21.973,-27.832,-235.840
1688665381.148,-22.461,-33.691,-23.926,-36.133,-231.445
1688665381.152,-25.879,-32.227,-29.785,-30.762,-205.566
1688665381.156,-36.133,-31.738,-29.785,-25.879,-176.758
1688665381.160,-29.785,-38.086,-25.879,-17.578,-128.906
1688665381.164,-23.926,-39.551,-30.762,-15.137,-173.828
1688665381.168,-24.414,-32.715,-34.668,-16.602,-58.594
1688665381.172,-27.832,-32.715,-35.645,-20.996,237.305
1688665381.175,-20.020,-31.250,-29.785,-17.090,178.711
1688665381.179,-11.230,-30.273,-25.879,-12.207,-123.535
1688665381.183,-31.250,-32.715,-25.879,-15.625,-148.438
1688665381.187,-48.828,-34.668,-30.762,-14.160,66.406
1688665381.191,-26.855,-32.227,-33.203,-20.508,-73.730
1688665381.222,-16.113,-33.203,-30.273,-27.832,-197.754
1688665381.226,-29.297,-38.086,-36.133,-29.297,-126.465
1688665381.230,-29.785,-34.180,-41.016,-20.020,-66.406
1688665381.234,-35.156,-30.762,-33.203,-17.090,-75.684
1688665381.238,-38.086,-36.133,-32.227,-18.066,-157.227
1688665381.242,-32.715,-37.598,-32.715,-15.625,130.859
1688665381.246,-19.043,-30.273,-30.762,-15.137,472.168
1688665381.249,-15.137,-34.180,-39.551,-29.297,80.566
1688665381.253,-28.809,-37.598,-38.574,-37.109,-243.164
1688665381.257,-26.367,-31.738,-21.973,-31.250,-130.371
1688665381.261,-25.879,-33.691,-23.926,-26.855,-113.281
1688665381.265,-33.691,-37.598,-28.320,-27.344,-208.008
1688665381.266,-31.250,-38.574,-26.855,-28.809,-226.562
1688665381.270,-30.273,-33.203,-31.250,-20.020,-101.074
1688665381.274,-40.039,-31.250,-28.809,-13.184,-65.430
1688665381.278,-51.270,-29.785,-23.926,-14.160,-133.789
1688665381.282,-44.434,-31.250,-27.832,-21.973,-73.242
1688665381.286,-34.668,-32.715,-30.762,-30.762,12.207
1688665381.290,-41.016,-30.273,-37.598,-38.086,-4.395
1688665381.293,-51.270,-29.297,-31.250,-41.992,-132.324
1688665381.297,-29.785,-26.367,-27.832,-30.762,-59.082
1688665381.301,-16.602,-32.227,-37.598,-30.273,58.105
1688665381.305,-28.320,-35.156,-28.320,-43.945,-98.633
1688665381.309,-33.691,-32.227,-28.809,-38.086,-160.645
1688665381.296,-30.762,-33.691,-32.715,-17.578,-16.113
1688665381.300,-28.320,-33.691,-26.855,-5.371,313.477
1688665381.304,-27.832,-32.227,-28.320,-18.555,275.391
1688665381.308,-25.391,-30.762,-30.762,-28.320,-85.938
1688665381.312,-27.344,-32.715,-32.227,-30.273,-41.992
1688665381.316,-31.738,-33.203,-33.203,-35.156,153.809
1688665381.320,-39.551,-34.180,-36.133,-39.551,-27.344
1688665381.323,-35.645,-35.156,-40.039,-33.203,-160.645
1688665381.327,-17.578,-29.785,-32.227,-23.438,-74.219
1688665381.331,-29.297,-31.250,-29.785,-35.156,-98.145
1688665381.335,-44.922,-39.062,-31.250,-40.527,-204.102
1688665381.339,-38.086,-35.156,-27.832,-31.738,-213.379
1688665381.343,-31.250,-29.297,-28.809,-20.020,94.727
1688665381.347,-31.738,-31.738,-31.250,-20.020,139.160
1688665381.351,-33.691,-32.227,-33.203,-25.391,-181.152
1688665381.355,-35.645,-29.297,-27.832,-26.367,-131.836
1688665381.359,-44.434,-26.367,-29.785,-20.020,2.441
1688665381.363,-42.480,-29.297,-38.086,-21.973,45.898
1688665381.367,-32.715,-30.273,-32.227,-31.250,0.000
1688665381.370,-28.320,-29.785,-27.832,-29.785,51.270
1688665381.374,-25.879,-33.691,-33.691,-26.367,284.180
1688665381.378,-22.461,-24.902,-25.879,-21.973,176.270
1688665381.382,-19.531,-20.020,-24.414,-23.926,-76.660
1688665381.386,-24.902,-22.949,-30.273,-23.926,-12.695
1688665381.386,-29.785,-23.926,-28.809,-21.973,-41.016
1688665381.390,-31.250,-30.762,-31.250,-21.973,-141.602
1688665381.394,-37.598,-25.391,-37.598,-21.973,-111.816
1688665381.398,-35.645,-27.344,-37.109,-19.043,97.168
1688665381.402,-32.227,-31.738,-32.715,-27.344,145.996
1688665381.406,-30.762,-32.715,-33.691,-43.457,-7.812
1688665381.410,-37.598,-37.598,-34.180,-47.363,-29.297
1688665381.413,-37.598,-36.621,-30.273,-39.551,171.875
1688665381.417,-33.691,-35.156,-30.273,-33.691,352.051
1688665381.421,-45.898,-39.551,-36.621,-36.621,20.020
1688665381.425,-54.199,-38.086,-38.086,-34.668,-137.207
1688665381.429,-44.434,-31.738,-27.344,-22.461,-62.500
1688665381.432,-39.062,-32.227,-24.902,-19.531,-142.090
1688665381.436,-36.621,-29.785,-30.762,-26.367,-178.711
1688665381.440,-36.133,-22.949,-28.320,-24.414,-105.957
1688665381.444,-34.180,-25.879,-24.902,-21.484,-78.125
1688665381.448,-32.227,-34.668,-27.832,-21.973,-133.789
1688665381.452,-41.992,-41.504,-30.762,-24.414,-121.582
1688665381.456,-34.668,-40.039,-34.180,-40.527,-31.738
1688665381.459,-29.785,-38.086,-35.156,-31.738,351.562
1688665381.463,-33.203,-36.621,-37.598,-15.137,310.547
1688665381.467,-37.109,-39.062,-35.156,-20.020,-169.922
1688665381.471,-40.527,-38.086,-33.691,-41.504,-164.551
1688665381.475,-33.203,-34.180,-29.785,-49.805,-120.605
1688665381.477,-23.926,-37.109,-24.414,-35.645,-187.012
1688665381.481,-23.926,-32.227,-24.414,-32.715,-231.445
1688665381.485,-27.832,-24.414,-21.973,-32.715,11.719
1688665381.489,-26.367,-28.809,-24.414,-32.227,107.422
1688665381.493,-25.391,-30.762,-25.879,-33.203,-129.395
1688665381.497,-34.180,-31.738,-25.879,-28.320,-105.469
1688665381.501,-35.645,-30.762,-26.367,-25.391,221.680
1688665381.504,-24.902,-26.367,-30.762,-27.344,334.473
1688665381.508,-19.531,-25.879,-30.273,-29.297,-21.973
1688665381.512,-31.250,-28.809,-25.391,-26.855,-156.250
1688665381.516,-39.062,-34.180,-29.297,-30.762,-73.730
1688665381.520,-38.574,-37.598,-34.668,-28.809,-99.609
1688665381.523,-33.691,-36.133,-33.203,-37.598,-174.316
1688665381.527,-22.949,-28.809,-33.691,-43.945,-162.598
1688665381.531,-24.902,-32.715,-31.738,-44.434,-77.148
1688665381.535,-36.621,-38.086,-27.832,-41.992,-96.680
1688665381.539,-38.574,-35.156,-28.809,-36.621,-121.094
1688665381.543,-40.039,-36.621,-33.203,-41.016,75.195
1688665381.547,-41.504,-32.715,-36.133,-24.414,324.219
1688665381.550,-41.504,-28.320,-34.180,-22.949,49.805
1688665381.554,-29.297,-29.297,-38.574,-40.039,-198.730
1688665381.558,-31.250,-35.645,-35.645,-34.668,-93.750
1688665381.562,-40.039,-42.969,-26.855,-37.109,-61.523
1688665381.566,-47.363,-41.992,-27.832,-41.016,-139.160
1688665381.583,-48.340,-38.086,-24.414,-37.109,-118.652
1688665381.587,-39.062,-39.062,-25.879,-41.992,31.250
1688665381.591,-39.062,-38.086,-35.156,-37.109,140.625
1688665381.595,-37.109,-37.109,-34.668,-30.762,10.742
1688665381.599,-41.992,-33.691,-31.738,-39.551,-172.363
1688665381.603,-43.945,-31.738,-31.250,-38.086,149.902
1688665381.607,-38.574,-29.297,-33.691,-25.879,466.797
1688665381.610,-37.109,-29.785,-33.203,-24.414,74.707
1688665381.614,-32.715,-31.738,-29.297,-25.879,-149.902
1688665381.618,-24.902,-29.785,-33.691,-31.250,-79.102
1688665381.622,-34.180,-30.273,-30.273,-34.668,-110.840
1688665381.626,-43.457,-31.250,-28.809,-34.180,-174.805
1688665381.626,-36.621,-32.227,-30.273,-25.391,-115.723
1688665381.630,-41.016,-27.344,-25.879,-23.926,-66.895
1688665381.634,-33.203,-23.438,-27.832,-31.738,-51.758
1688665381.638,-35.645,-27.344,-24.414,-29.297,-91.797
1688665381.642,-28.320,-34.668,-30.273,-29.785,-71.777
1688665381.646,-3.906,-25.879,-31.738,-29.297,129.883
1688665381.650,2.441,-20.996,-32.227,-28.320,60.547
1688665381.653,-8.301,-27.344,-36.133,-38.086,-117.188
1688665381.657,-22.461,-28.320,-26.367,-47.852,-148.438
1688665381.661,-40.039,-30.762,-23.926,-39.062,236.816
1688665381.665,-34.668,-28.320,-28.320,-30.273,195.312
1688665381.669,-24.902,-30.273,-35.156,-33.691,-202.148
1688665381.671,-43.945,-35.645,-32.715,-29.297,-138.184
1688665381.675,-62.012,-33.203,-21.484,-38.574,-98.633
1688665381.679,-73.730,-41.992,-18.555,-55.176,-43.945
1688665381.683,-71.777,-42.969,-22.461,-50.293,-82.520
1688665381.687,-60.547,-39.062,-15.137,-47.363,83.008
1688665381.691,-72.266,-46.875,-6.348,-46.387,245.605
1688665381.695,-100.098,-54.199,-9.766,-45.898,-28.320
1688665381.698,-92.285,-55.664,-2.930,-56.641,-43.457
1688665381.702,-87.891,-58.105,8.789,-53.711,158.203
1688665381.706,-93.750,-57.129,15.137,-35.645,247.559
1688665381.710,-96.680,-62.500,4.883,-56.152,-99.609
1688665381.714,-104.980,-68.848,-1.953,-65.918,-226.562
1688665381.716,-99.121,-63.477,10.254,-54.199,-133.789
1688665381.720,-87.402,-63.477,17.090,-58.594,-136.719
1688665381.724,-86.914,-66.406,23.926,-48.828,-170.898
1688665381.728,-84.961,-62.500,26.855,-33.203,-184.570
1688665381.732,-73.730,-59.570,18.555,-31.250,-121.582
1688665381.736,-79.102,-58.594,15.625,-37.109,-8.301
1688665381.740,-87.891,-55.664,11.719,-38.086,-22.949
1688665381.743,-70.312,-54.688,4.883,-24.902,-51.270
1688665381.747,-68.848,-52.734,0.000,-18.555,242.676
1688665381.751,-60.059,-48.340,-4.883,-27.832,83.008
1688665381.755,-38.574,-41.504,-9.766,-25.391,-244.629
1688665381.759,-49.805,-36.133,-3.418,-11.230,-34.668
1688665381.761,-39.551,-29.785,5.859,-3.906,121.582
1688665381.765,-37.109,-28.320,0.000,-13.184,-90.332
1688665381.769,-55.664,-30.273,-2.930,-26.367,-107.422
1688665381.773,-67.871,-32.715,-5.859,-28.320,101.562
1688665381.777,-58.594,-38.086,-10.254,-26.367,61.035
1688665381.781,-36.133,-40.039,-6.836,-16.113,-69.824
1688665381.785,-15.137,-41.992,-10.254,-5.371,-69.336
1688665381.788,-9.277,-42.480,-17.090,-12.207,136.230
1688665381.792,-35.645,-30.762,-27.344,-32.227,169.434
1688665381.796,-39.062,-23.438,-39.062,-42.480,-177.734
1688665381.800,-20.996,-19.531,-42.969,-41.992,-149.902
1688665381.804,-22.461,-10.254,-51.270,-50.781,-41.992
1688665381.806,-19.531,-14.648,-56.641,-53.223,-81.543
1688665381.810,-15.137,-19.043,-62.500,-47.363,-163.086
1688665381.814,-9.277,-9.277,-68.359,-47.363,-131.836
1688665381.818,7.812,-3.418,-67.871,-41.992,-46.875
1688665381.822,7.324,-11.719,-76.172,-51.270,-87.402
1688665381.826,0.977,-15.625,-79.590,-53.711,-94.238
1688665381.830,13.184,-14.160,-74.219,-43.945,33.691
1688665381.833,14.648,-14.160,-77.148,-35.156,162.109
1688665381.837,11.230,-9.766,-75.684,-34.180,-8.789
1688665381.841,14.160,-6.348,-73.242,-37.598,-164.551
1688665381.845,13.184,-12.207,-76.172,-35.645,-63.477
1688665381.849,4.395,-17.578,-69.824,-26.855,62.012
1688665381.868,8.301,-17.090,-65.918,-17.090,-38.086
1688665381.872,15.137,-19.531,-58.594,-20.996,-104.492
1688665381.876,5.859,-21.973,-59.082,-31.738,112.793
1688665381.880,8.301,-22.461,-59.570,-22.461,278.320
1688665381.884,8.789,-24.414,-47.852,-10.742,-68.359
1688665381.888,-5.859,-27.344,-47.363,-15.137,-188.965
1688665381.892,-5.859,-26.367,-44.922,-8.301,188.477
1688665381.895,-4.395,-24.902,-39.062,1.465,323.242
1688665381.899,-5.371,-22.949,-37.598,-9.766,-77.637
1688665381.903,-8.789,-26.855,-41.016,-17.090,-219.238
1688665381.907,-17.578,-27.832,-44.922,-15.137,-176.758
1688665381.911,-25.879,-21.973,-43.945,-11.719,-134.766
1688665381.898,-21.484,-26.367,-37.598,-5.371,-74.707
1688665381.902,-9.766,-36.133,-35.156,-8.301,-102.539
1688665381.906,-2.441,-31.738,-34.180,-9.766,-117.676
1688665381.910,-4.883,-23.438,-29.297,-12.695,-70.801
1688665381.914,-23.926,-25.879,-29.785,-12.695,-144.043
1688665381.918,-24.902,-26.367,-34.180,-6.348,-47.852
1688665381.922,-17.578,-29.297,-37.109,-15.625,103.516
1688665381.925,-17.578,-31.738,-35.645,-22.461,-134.766
1688665381.929,-14.648,-29.297,-31.738,-20.996,-225.098
1688665381.933,-20.996,-32.715,-34.668,-22.461,-26.367
1688665381.937,-28.320,-34.180,-41.016,-9.277,332.031
1688665381.941,-20.996,-29.785,-41.504,-1.953,151.855
1688665381.941,-12.695,-26.855,-39.551,-10.742,-205.078
1688665381.945,-23.438,-30.273,-40.039,-23.926,-116.211
1688665381.949,-35.156,-33.691,-36.621,-33.203,-20.996
1688665381.953,-32.227,-34.668,-36.133,-29.297,-43.945
1688665381.957,-25.879,-29.297,-34.180,-26.855,-167.969
1688665381.961,-21.484,-24.414,-28.320,-30.273,62.012
1688665381.965,-13.184,-25.391,-30.273,-23.438,360.840
1688665381.968,-23.926,-30.762,-31.250,-22.949,84.473
1688665381.972,-36.621,-30.762,-32.227,-23.926,-130.859
1688665381.976,-33.203,-27.344,-40.039,-26.855,-68.359
1688665381.980,-34.180,-32.227,-40.039,-32.715,-42.969
1688665381.984,-35.156,-29.785,-37.598,-31.738,-134.277
1688665382.003,-37.598,-27.832,-40.527,-27.832,-184.082
1688665382.007,-34.180,-27.832,-39.551,-19.531,61.523
1688665382.011,-10.254,-30.762,-29.785,-18.555,109.863
1688665382.015,-2.930,-32.715,-21.973,-14.648,-183.594
1688665382.019,-13.184,-21.484,-24.902,-9.766,-166.504
1688665382.023,-30.273,-17.090,-31.250,-23.926,43.945
1688665382.027,-23.926,-25.391,-35.156,-19.531,69.336
1688665382.030,-13.184,-27.832,-42.969,-23.926,-93.262
1688665382.034,-2.930,-21.973,-41.016,-24.902,-47.852
1688665382.038,6.836,-23.926,-36.621,-11.719,262.695
1688665382.042,-1.465,-28.320,-35.156,-19.043,67.871
1688665382.046,-11.719,-26.367,-30.273,-19.531,-188.965
1688665382.046,-23.926,-25.879,-29.297,-11.719,-86.914
1688665382.050,-25.879,-33.691,-39.062,-5.859,-147.461
1688665382.054,-22.949,-36.133,-39.551,-0.977,-155.762
1688665382.058,-21.484,-30.273,-31.738,-7.812,-83.008
1688665382.062,-10.254,-33.203,-35.156,-25.391,0.488
1688665382.066,-1.465,-35.156,-37.598,-33.203,70.801
1688665382.070,-6.836,-26.367,-32.227,-24.902,39.062
1688665382.073,-4.395,-28.320,-32.227,-26.367,-90.820
1688665382.077,-5.371,-25.391,-35.156,-21.973,56.152
1688665382.081,-20.020,-19.531,-33.691,-6.348,295.898
1688665382.085,0.488,-21.484,-33.691,-14.160,22.461
1688665382.089,0.977,-18.066,-34.180,-20.020,-91.309
1688665382.091,-17.090,-23.438,-34.668,-21.484,-20.508
1688665382.095,-15.137,-28.320,-39.062,-20.996,-66.895
1688665382.099,-8.789,-27.344,-43.457,-14.648,-169.434
1688665382.103,-7.324,-29.785,-44.434,-17.578,-144.043
1688665382.107,-13.672,-28.809,-45.898,-21.484,-73.242
1688665382.111,-8.789,-27.344,-40.527,-15.137,-40.039
1688665382.115,-1.953,-25.391,-31.250,-12.695,-41.016
1688665382.118,-13.672,-21.484,-34.180,-20.996,-20.020
1688665382.122,-14.648,-17.090,-33.203,-11.230,172.852
1688665382.126,-5.859,-15.625,-33.691,-8.301,66.895
1688665382.130,-25.879,-22.949,-41.992,-20.508,-169.434
1688665382.134,-25.879,-23.438,-37.109,-20.020,-97.656
1688665382.138,-12.695,-22.949,-31.738,-17.090,-126.953
1688665382.142,-15.625,-27.832,-36.133,-17.578,-76.660
1688665382.146,-11.719,-27.832,-37.598,-17.578,-29.297
1688665382.150,-8.789,-33.691,-36.621,-20.508,62.012
1688665382.154,-29.785,-36.133,-36.133,-22.949,183.105
1688665382.158,-41.016,-31.738,-36.133,-21.484,22.461
1688665382.162,-29.297,-31.250,-35.156,-32.715,-81.055
1688665382.165,-36.133,-28.809,-37.598,-33.691,85.449
1688665382.169,-39.551,-29.297,-42.480,-26.855,177.246
1688665382.173,-30.762,-30.762,-32.715,-34.180,-164.551
1688665382.177,-29.785,-34.180,-35.156,-35.156,-232.910
1688665382.181,-34.668,-38.086,-41.992,-34.180,-133.301
1688665382.182,-26.855,-34.668,-39.062,-30.273,-149.414
1688665382.186,-31.738,-30.762,-37.109,-33.203,-173.340
1688665382.190,-39.551,-30.273,-37.598,-41.992,-141.602
1688665382.194,-28.320,-30.273,-37.598,-42.480,-96.680
1688665382.198,-35.156,-25.391,-28.320,-31.250,-82.520
1688665382.202,-49.805,-26.367,-36.133,-24.902,-54.199
1688665382.206,-42.969,-25.879,-38.086,-24.414,-17.090
1688665382.209,-48.828,-25.391,-35.645,-29.297,242.188
1688665382.213,-44.922,-27.344,-42.480,-42.480,224.609
1688665382.217,-20.020,-26.855,-37.598,-32.715,-151.855
1688665382.221,-12.207,-25.391,-30.762,-21.484,-139.648
1688665382.225,-11.719,-20.996,-30.762,-27.832,-89.355
1688665382.227,-20.020,-22.461,-34.668,-34.180,-182.617
1688665382.231,-40.527,-30.273,-40.527,-40.039,-157.715
1688665382.235,-40.527,-30.273,-41.016,-39.551,30.273
1688665382.239,-20.996,-30.273,-38.086,-33.691,45.410
1688665382.243,-17.578,-27.344,-38.574,-36.133,-123.535
1688665382.247,-16.113,-26.367,-41.992,-35.156,-114.258
1688665382.251,-6.348,-20.996,-38.086,-27.832,175.781
1688665382.254,-13.672,-17.578,-34.180,-22.949,575.684
1688665382.258,-30.762,-22.461,-31.738,-20.508,281.738
1688665382.262,-29.297,-23.926,-32.227,-13.672,-192.871
1688665382.266,-14.648,-19.531,-35.156,-12.207,-49.316
1688665382.270,-8.301,-17.578,-32.227,-18.066,-46.387
1688665382.273,-17.578,-23.926,-36.133,-17.578,-200.684
1688665382.277,-3.418,-26.855,-39.551,-10.254,-110.840
1688665382.281,9.766,-25.391,-38.086,-12.207,-94.238
1688665382.285,-10.254,-26.367,-35.156,-26.855,-143.066
1688665382.289,-14.160,-26.367,-33.203,-32.227,-159.180
1688665382.293,-19.043,-24.902,-33.203,-14.160,29.297
1688665382.297,-30.273,-28.320,-35.156,-5.859,309.570
1688665382.300,-14.648,-28.809,-38.086,-28.809,104.004
1688665382.304,-6.348,-26.855,-37.109,-29.297,-194.824
1688665382.308,-29.785,-27.832,-34.668,-18.555,-104.492
1688665382.312,-45.410,-26.367,-37.109,-17.090,40.527
1688665382.316,-54.199,-30.273,-37.109,-22.461,-50.781
1688665382.316,-54.688,-34.668,-35.156,-21.484,-114.746
1688665382.320,-38.574,-32.227,-39.551,-19.043,-83.496
1688665382.324,-35.645,-33.691,-43.945,-24.414,-72.266
1688665382.328,-27.832,-31.738,-41.016,-24.414,-20.020
1688665382.332,-23.438,-29.785,-36.621,-26.367,-130.859
1688665382.336,-37.598,-30.762,-33.203,-23.438,73.730
1688665382.340,-48.340,-27.344,-29.785,-12.207,377.930
1688665382.343,-36.133,-25.391,-27.344,-23.438,67.383
1688665382.347,-26.367,-26.855,-26.855,-33.203,-136.719
1688665382.351,-36.621,-25.391,-35.156,-29.297,-72.754
1688665382.355,-29.297,-22.461,-39.062,-24.902,-49.805
1688665382.359,-28.320,-22.949,-34.668,-23.438,-22.949
1688665382.377,-35.645,-26.855,-36.133,-29.297,-80.566
1688665382.381,-39.551,-31.738,-39.551,-21.484,-57.129
1688665382.385,-45.410,-29.785,-42.480,-23.926,-13.672
1688665382.389,-29.297,-26.855,-35.645,-35.156,-129.395
1688665382.393,-22.949,-25.879,-34.180,-34.180,-119.629
1688665382.397,-35.156,-25.391,-35.645,-27.832,-17.090
1688665382.401,-43.457,-22.461,-35.645,-25.879,87.891
1688665382.404,-32.715,-21.484,-38.086,-30.762,-1.465
1688665382.408,-23.438,-20.508,-37.109,-32.715,-10.254
1688665382.412,-20.020,-18.066,-32.715,-25.391,177.246
1688665382.416,-22.949,-16.602,-30.273,-17.090,-37.598
1688665382.420,-16.602,-14.648,-33.203,-11.719,-210.938
1688665382.422,-12.207,-19.531,-36.621,-12.207,-137.207
1688665382.426,-33.691,-27.832,-38.086,-20.996,-37.109
1688665382.430,-33.203,-26.367,-34.668,-25.391,44.434
1688665382.434,-17.090,-23.438,-35.645,-28.809,-70.312
1688665382.438,-18.555,-21.484,-41.016,-23.438,50.781
1688665382.442,-28.320,-23.438,-39.551,-11.719,217.285
1688665382.446,-21.973,-23.926,-34.180,-19.531,-23.926
1688665382.449,-14.648,-20.508,-35.156,-29.297,-211.914
1688665382.453,-16.113,-16.113,-36.133,-14.160,-14.648
1688665382.457,-17.090,-16.113,-33.203,-9.277,242.676
1688665382.461,-0.977,-20.996,-35.156,-6.836,-28.809
1688665382.465,-1.953,-22.461,-35.156,-2.441,-132.324
1688665382.466,-14.648,-20.996,-35.156,-9.277,-95.703
1688665382.470,-15.137,-19.043,-32.715,-8.789,-142.090
1688665382.474,-23.438,-20.020,-30.762,-6.836,-199.707
1688665382.478,-15.625,-22.461,-33.691,-9.277,-157.227
1688665382.482,7.812,-16.602,-33.691,-8.301,3.418
1688665382.486,10.254,-13.184,-36.621,-6.836,15.137
1688665382.490,6.836,-24.414,-39.551,-14.160,-62.012
1688665382.493,-10.254,-32.715,-42.480,-12.695,-49.316
1688665382.497,-25.879,-29.297,-40.039,-0.977,146.484
1688665382.501,-14.160,-28.320,-36.621,-0.488,68.848
1688665382.505,-3.418,-27.832,-40.527,-7.324,-169.434
1688665382.509,7.812,-21.973,-39.062,-3.418,-28.809
1688665382.511,15.137,-20.508,-35.156,2.441,173.340
1688665382.515,-3.418,-23.438,-39.062,-5.371,-26.367
1688665382.519,-17.090,-23.438,-37.598,-5.371,-87.891
1688665382.523,-12.695,-23.438,-33.203,-2.930,154.297
1688665382.527,-12.207,-21.484,-25.879,-1.465,154.297
1688665382.531,-20.508,-21.484,-25.391,-2.930,-0.977
1688665382.535,-15.137,-21.973,-31.738,-1.953,-53.223
1688665382.538,-13.672,-24.902,-33.203,3.418,125.977
1688665382.542,-32.715,-25.879,-35.156,8.789,281.250
1688665382.546,-25.391,-19.043,-35.156,0.000,-70.312
1688665382.550,-9.277,-20.020,-35.645,-16.113,-273.926
1688665382.554,-14.648,-18.066,-27.832,-10.742,-213.867
1688665382.557,-20.996,-13.672,-24.414,1.465,-162.598
1688665382.561,-29.297,-25.879,-36.133,-5.371,-172.363
1688665382.565,-23.438,-25.391,-32.715,-3.906,-204.590
1688665382.569,-23.438,-24.414,-27.832,-6.348,-154.785
1688665382.573,-21.973,-27.344,-33.691,-2.441,-142.090
1688665382.577,-20.020,-24.902,-32.227,-2.930,-134.766
1688665382.581,-27.344,-24.902,-33.691,-16.113,-55.176
1688665382.584,-34.668,-23.926,-39.062,-8.301,155.273
1688665382.588,-28.809,-26.367,-41.016,-8.789,41.992
1688665382.592,-35.156,-26.855,-38.086,-18.555,-199.707
1688665382.596,-54.688,-23.438,-33.203,-19.043,-70.312
1688665382.600,-27.344,-22.949,-31.250,-6.836,-5.371
1688665382.601,-16.602,-28.809,-35.645,-8.301,-102.539
1688665382.605,-25.391,-26.855,-33.691,-23.438,-177.734
1688665382.609,-28.320,-21.973,-27.832,-17.578,52.246
1688665382.613,-40.527,-28.320,-32.715,-14.648,254.395
1688665382.617,-29.297,-25.879,-37.109,-19.043,-49.805
1688665382.621,-20.508,-22.949,-36.621,-15.137,-187.500
1688665382.625,-32.227,-24.414,-33.691,-14.648,140.625
1688665382.628,-41.992,-23.926,-29.785,-18.555,244.629
1688665382.632,-30.273,-22.461,-32.227,-28.809,-104.004
1688665382.636,-17.090,-18.555,-38.086,-23.438,-181.152
1688665382.640,-19.531,-17.090,-35.156,-20.020,67.383
1688665382.644,-20.508,-20.020,-26.855,-25.879,155.273
1688665382.649,-31.250,-22.461,-26.367,-28.809,-116.699
1688665382.653,-30.762,-18.555,-25.879,-22.949,-157.227
1688665382.657,-33.691,-14.648,-30.762,-23.926,-33.691
1688665382.661,-50.781,-19.531,-33.203,-29.785,-23.438
1688665382.665,-37.598,-28.320,-27.832,-27.832,-161.133
1688665382.669,-45.410,-31.738,-28.809,-25.391,-67.383
1688665382.673,-51.270,-31.738,-31.250,-20.020,222.656
1688665382.676,-36.133,-28.809,-34.180,-17.090,35.645
1688665382.680,-28.320,-30.273,-41.504,-28.320,-212.891
1688665382.684,-19.043,-30.273,-41.016,-26.367,-113.770
1688665382.688,-20.996,-24.414,-32.715,-15.625,-31.738
1688665382.692,-26.855,-22.949,-25.391,-18.555,-116.699
1688665382.707,-18.066,-23.438,-22.949,-12.695,-137.207
1688665382.711,-16.113,-28.320,-29.785,-12.207,-40.527
1688665382.715,-25.391,-31.738,-37.598,-27.344,-4.395
1688665382.719,-26.367,-27.832,-36.133,-35.156,-4.395
1688665382.723,-23.926,-22.461,-28.809,-21.973,-78.613
1688665382.727,-27.832,-28.320,-28.809,-11.719,48.828
1688665382.731,-24.414,-33.691,-31.738,-8.789,534.668
1688665382.734,-14.160,-28.809,-29.785,-12.207,279.785
1688665382.738,-15.137,-27.344,-27.832,-20.996,-259.766
1688665382.742,-32.227,-29.297,-27.832,-20.020,-100.098
1688665382.746,-29.297,-31.250,-29.785,-23.926,-28.809
1688665382.750,-13.672,-20.996,-20.020,-18.066,-222.168
1688665382.752,-16.113,-17.090,-17.090,-16.602,-191.895
1688665382.756,-28.809,-23.438,-23.438,-32.227,-141.113
1688665382.760,-41.504,-24.414,-23.438,-34.668,-120.117
1688665382.764,-41.504,-25.391,-26.367,-23.926,-142.090
1688665382.768,-14.648,-21.484,-23.926,-17.578,-95.703
1688665382.772,-2.441,-21.973,-23.438,-19.531,117.676
1688665382.776,-28.320,-29.785,-34.180,-21.484,64.453
1688665382.779,-42.969,-30.762,-32.227,-23.438,-85.449
1688665382.783,-22.949,-23.926,-23.926,-20.996,-81.055
1688665382.787,-15.625,-21.484,-33.203,-16.113,195.801
1688665382.791,-18.555,-22.461,-34.180,-18.555,58.594
1688665382.795,-22.949,-22.949,-27.344,-31.738,-259.277
1688665382.811,-38.086,-26.855,-28.809,-25.879,-195.801
1688665382.815,-44.922,-25.391,-35.156,-23.438,-125.977
1688665382.819,-32.715,-21.484,-34.668,-35.645,-133.301
1688665382.823,-25.391,-29.297,-34.668,-37.598,-144.531
1688665382.827,-36.621,-28.809,-34.180,-23.926,103.516
1688665382.831,-52.246,-20.508,-29.297,-22.949,242.676
1688665382.835,-49.316,-23.926,-35.156,-36.621,61.035
1688665382.838,-35.156,-27.832,-37.109,-36.133,18.066
1688665382.842,-37.109,-25.879,-33.691,-33.691,104.492
1688665382.846,-29.785,-23.438,-34.668,-32.715,50.293
1688665382.850,-26.855,-25.879,-32.715,-22.949,-143.066
1688665382.854,-32.227,-25.391,-31.250,-20.020,-191.406
1688665382.843,-34.180,-23.926,-33.691,-20.020,130.371
1688665382.847,-30.273,-26.367,-32.715,-28.320,257.812
1688665382.851,-28.320,-30.273,-37.109,-41.504,-145.996
1688665382.855,-30.762,-32.715,-39.551,-34.180,-224.121
1688665382.859,-30.762,-28.809,-38.086,-25.879,-145.020
1688665382.863,-28.320,-23.926,-37.109,-21.973,-66.406
1688665382.867,-10.742,-23.926,-33.203,-24.414,-85.938
1688665382.870,-18.066,-28.320,-36.621,-33.691,-29.785
1688665382.874,-43.945,-31.250,-41.504,-31.738,12.695
1688665382.878,-36.621,-32.715,-37.109,-20.508,1.465
1688665382.882,-27.344,-27.832,-29.785,-7.324,-31.250
1688665382.886,-22.949,-24.414,-31.250,-5.859,-60.547
1688665382.887,-20.508,-31.250,-33.203,-13.672,280.762
1688665382.891,-16.113,-33.203,-29.297,-13.184,116.699
1688665382.895,-10.254,-28.320,-30.273,-21.973,-79.102
1688665382.899,-17.578,-26.367,-31.738,-15.137,106.934
1688665382.903,-11.719,-30.273,-31.250,-9.277,-35.645
1688665382.907,-10.254,-30.273,-31.250,-11.230,-48.340
1688665382.911,-19.043,-33.691,-35.645,-10.742,-72.754
1688665382.914,-29.297,-32.227,-32.227,-8.789,-28.320
1688665382.918,-26.367,-25.391,-21.973,-5.371,309.570
1688665382.922,-21.973,-26.855,-25.391,-9.766,90.332
1688665382.926,-19.043,-29.297,-30.762,-14.160,-218.750
1688665382.930,-7.812,-29.297,-28.809,-20.508,-182.617
1688665382.949,-7.812,-27.832,-28.809,-25.879,-93.262
1688665382.953,-14.160,-26.367,-30.273,-22.461,-156.250
1688665382.957,-14.160,-25.879,-31.250,-16.602,-140.625
1688665382.961,-8.301,-27.344,-34.668,-13.672,-20.996
1688665382.965,-16.602,-27.832,-31.738,-13.184,-93.750
1688665382.969,-29.297,-29.785,-27.832,-3.418,-145.508
1688665382.973,-28.320,-37.109,-36.133,5.859,-41.016
1688665382.976,-30.762,-37.109,-33.691,3.906,203.613
1688665382.980,-27.344,-31.738,-27.832,-5.859,53.711
1688665382.984,-18.066,-32.715,-30.273,-12.695,-233.398
1688665382.988,-27.344,-32.715,-30.273,-8.301,-175.781
1688665382.992,-31.738,-28.320,-31.738,-8.301,-130.371
1688665382.977,-27.832,-32.227,-30.273,-8.789,-117.188
1688665382.981,-27.344,-35.645,-26.367,-6.348,-164.551
1688665382.985,-20.508,-30.762,-25.391,0.977,-33.691
1688665382.989,-28.809,-26.855,-26.367,3.906,21.484
1688665382.993,-42.969,-29.297,-28.320,-1.465,-72.266
1688665382.997,-32.227,-27.832,-27.832,1.465,19.043
1688665383.001,-30.273,-26.855,-27.832,-0.488,161.621
1688665383.004,-29.297,-25.879,-24.414,2.441,73.242
1688665383.008,-15.137,-26.855,-23.926,9.277,-103.027
1688665383.012,-0.488,-27.344,-20.508,8.789,-153.809
1688665383.016,4.395,-29.785,-20.996,0.000,74.219
1688665383.020,-17.090,-30.273,-27.344,0.977,409.180
1688665383.023,-23.926,-26.367,-24.902,-0.977,103.516
1688665383.027,-11.230,-24.414,-24.414,-10.254,-211.426
1688665383.031,-20.020,-24.414,-27.344,-10.742,-177.246
1688665383.035,-20.020,-26.855,-27.344,-10.742,-136.719
1688665383.039,-17.090,-26.855,-30.273,-16.602,-80.078
1688665383.043,-25.391,-23.438,-32.227,-21.484,-0.488
1688665383.047,-17.090,-22.461,-29.297,-16.602,239.258
1688665383.050,-17.090,-23.926,-30.273,-13.672,149.902
1688665383.054,-32.715,-23.438,-30.762,-17.090,-154.297
1688665383.058,-35.645,-27.344,-30.762,-18.066,-57.129
1688665383.062,-41.016,-30.273,-33.691,-20.508,83.496
1688665383.066,-39.551,-29.297,-30.762,-18.066,-83.496
1688665383.067,-38.086,-27.344,-29.785,-17.578,-205.078
1688665383.071,-36.133,-21.484,-30.273,-17.578,-13.184
1688665383.075,-17.578,-23.438,-24.414,-17.578,219.727
1688665383.079,-19.531,-28.320,-27.832,-20.996,107.422
1688665383.083,-21.484,-27.344,-28.320,-14.160,-89.355
1688665383.087,-30.762,-27.344,-24.414,-14.160,147.949
1688665383.091,-28.809,-24.414,-26.367,-12.207,583.984
1688665383.094,-20.996,-25.391,-26.855,-10.742,337.402
1688665383.098,-28.809,-31.250,-29.297,-21.484,-103.516
1688665383.102,-26.367,-27.832,-28.809,-16.113,-105.957
1688665383.106,-29.785,-24.902,-28.320,-14.648,-106.445
1688665383.110,-32.227,-33.203,-35.156,-22.949,-229.004
1688665383.126,-21.973,-35.156,-32.715,-19.531,-217.773
1688665383.130,-25.879,-29.297,-29.297,-27.832,-84.473
1688665383.134,-40.039,-24.414,-32.227,-38.574,-141.113
1688665383.138,-54.199,-28.320,-33.691,-46.875,-290.039
1688665383.142,-62.012,-30.273,-34.180,-54.688,-153.809
1688665383.146,-64.941,-27.344,-36.133,-61.035,54.688
1688665383.150,-74.219,-27.344,-38.086,-68.848,45.898
1688665383.153,-82.520,-24.902,-42.480,-72.754,-85.938
1688665383.157,-88.379,-30.273,-44.922,-68.848,-126.953
1688665383.161,-83.496,-30.762,-41.016,-61.523,111.816
1688665383.165,-72.754,-29.785,-41.992,-64.453,46.387
1688665383.169,-69.824,-32.715,-41.504,-65.430,-197.266
1688665383.171,-66.895,-29.785,-37.109,-51.270,-90.820
1688665383.175,-63.965,-31.250,-37.598,-37.109,-19.531
1688665383.179,-54.688,-35.645,-37.598,-36.621,-78.613
