timestamps,TP9,AF7,AF8,TP10,Right AUX
1688303747.049,-11.719,-20.996,-32.227,-44.922,-123.535
1688303747.053,-13.672,-22.461,-31.738,-25.879,-54.688
1688303747.057,-31.250,-34.180,-36.621,9.766,-55.176
1688303747.061,-14.160,-36.133,-37.109,8.301,10.742
1688303747.065,8.301,-37.109,-35.645,-21.484,29.297
1688303747.069,-1.465,-39.062,-36.133,-38.086,-96.191
1688303747.073,-15.625,-34.180,-35.156,-40.527,-67.383
1688303747.076,-36.133,-24.414,-32.227,-19.531,106.445
1688303747.080,-24.902,-24.414,-31.738,-4.395,462.402
1688303747.084,-8.301,-25.391,-38.574,-26.367,291.504
1688303747.088,-18.066,-26.855,-35.156,-36.133,-283.691
1688303747.092,-25.879,-36.133,-30.273,-21.484,-165.039
1688303747.095,-37.109,-36.621,-29.297,-17.090,-0.488
1688303747.099,-36.133,-33.691,-24.414,-27.344,-56.641
1688303747.103,-17.090,-40.527,-23.926,-48.828,-166.992
1688303747.107,-7.324,-53.223,-24.902,-48.828,-121.582
1688303747.111,-12.695,-51.758,-26.855,-44.922,-73.730
1688303747.115,-22.949,-46.387,-27.344,-27.832,-30.273
1688303747.119,-28.809,-43.457,-31.738,-22.949,42.969
1688303747.122,-18.066,-42.969,-33.691,-44.922,131.836
1688303747.126,-10.742,-34.180,-33.691,-52.246,88.379
1688303747.130,-17.578,-22.949,-31.738,-29.297,-188.965
1688303747.134,-37.598,-31.738,-28.809,1.953,-68.848
1688303747.138,-57.617,-35.156,-31.738,7.324,53.223
1688303747.154,-44.434,-26.367,-28.320,-18.555,-66.895
1688303747.158,-30.762,-29.785,-27.832,-48.828,-203.613
1688303747.162,-26.367,-38.086,-29.297,-43.945,-128.418
1688303747.166,-37.109,-41.992,-30.762,-28.809,7.812
1688303747.170,-42.480,-41.992,-37.598,-27.832,38.086
1688303747.174,-21.973,-45.410,-37.109,-26.855,16.113
1688303747.178,-9.277,-50.781,-32.715,-34.180,-33.691
1688303747.181,-2.441,-43.945,-25.391,-26.855,282.715
1688303747.185,-23.926,-26.855,-27.344,-8.789,358.398
1688303747.189,-57.129,-20.996,-31.738,-11.230,-4.395
1688303747.193,-37.109,-29.785,-25.879,-24.902,-18.066
1688303747.197,-13.672,-34.180,-27.832,-49.805,-38.086
1688303747.184,-18.066,-32.227,-32.715,-43.945,-256.348
1688303747.188,-33.203,-35.156,-31.738,-6.836,-198.730
1688303747.192,-46.387,-35.156,-31.738,-1.465,1.953
1688303747.196,-35.645,-33.203,-33.691,-21.973,-14.160
1688303747.200,-18.066,-46.387,-31.250,-38.086,-227.539
1688303747.204,-11.719,-51.270,-25.879,-42.969,-175.293
1688303747.208,-18.066,-38.086,-24.414,-15.625,65.918
1688303747.211,-39.551,-41.504,-24.902,-7.812,141.602
1688303747.215,-42.969,-44.434,-27.832,-32.715,34.180
1688303747.219,-23.438,-35.645,-28.809,-45.410,-230.469
1688303747.223,-15.137,-35.156,-24.902,-32.715,-0.977
1688303747.227,-17.578,-35.156,-27.832,-5.371,235.840
1688303747.229,-34.668,-29.785,-27.344,16.113,-47.363
1688303747.233,-32.715,-27.344,-26.855,-5.859,-83.008
1688303747.237,-9.766,-29.297,-31.250,-33.691,-119.141
1688303747.241,-7.324,-28.320,-29.297,-26.367,-216.797
1688303747.245,-10.742,-26.367,-31.250,-24.414,-180.176
1688303747.249,-40.039,-35.156,-37.109,-9.766,84.473
1688303747.253,-35.156,-41.992,-34.180,-11.719,345.703
1688303747.256,-9.277,-45.410,-35.645,-41.504,37.109
1688303747.260,-5.859,-45.898,-43.457,-55.176,-189.941
1688303747.264,-2.441,-38.086,-43.945,-31.250,-21.973
1688303747.268,-20.020,-33.203,-30.762,13.672,397.461
1688303747.272,-49.805,-19.043,-23.438,-0.488,260.254
1688303747.289,-44.434,-11.230,-23.438,-52.246,-251.465
1688303747.293,-27.344,-20.508,-24.902,-64.941,-263.184
1688303747.297,-34.668,-23.438,-30.273,-51.758,-142.578
1688303747.301,-51.270,-32.227,-27.344,-30.273,-96.680
1688303747.305,-48.828,-39.062,-22.949,-23.438,-43.457
1688303747.309,-20.508,-41.504,-23.926,-30.273,4.883
1688303747.313,-7.324,-45.410,-20.020,-31.250,-41.016
1688303747.316,-13.672,-39.551,-20.508,-27.832,-98.145
1688303747.320,-32.227,-33.203,-26.855,-3.906,-116.211
1688303747.324,-40.039,-41.504,-23.438,3.906,177.246
1688303747.328,-25.391,-36.133,-24.414,-16.113,155.762
1688303747.332,-12.207,-27.832,-26.855,-38.574,-230.469
1688303747.333,-9.766,-39.062,-24.414,-28.320,-153.320
1688303747.337,-12.207,-42.969,-25.879,0.977,53.711
1688303747.341,-24.902,-41.016,-25.391,0.488,63.965
1688303747.345,-26.855,-42.480,-25.391,-9.277,-68.848
1688303747.349,-17.578,-40.527,-32.715,-27.344,-104.980
1688303747.353,-12.695,-38.086,-40.527,-58.105,31.738
1688303747.357,-24.414,-35.645,-39.062,-47.852,97.168
1688303747.360,-42.969,-33.203,-37.598,-30.762,14.648
1688303747.364,-27.832,-34.180,-31.738,-35.156,5.859
1688303747.368,-3.906,-41.504,-29.297,-39.062,290.527
1688303747.372,-4.883,-35.156,-30.762,-32.715,126.953
1688303747.376,-15.625,-26.855,-26.367,-13.184,-178.711
1688303747.379,-40.039,-33.203,-29.785,4.395,-31.250
1688303747.383,-32.227,-32.715,-37.598,-12.695,-51.270
1688303747.387,4.395,-36.621,-31.250,-34.668,-200.195
1688303747.391,1.465,-46.387,-29.297,-29.297,-180.176
1688303747.395,-20.020,-50.781,-28.809,2.441,-10.742
1688303747.399,-36.133,-42.969,-25.879,13.184,115.234
1688303747.403,-38.086,-39.062,-30.762,-28.809,34.668
1688303747.406,-16.602,-32.227,-30.762,-52.246,-187.988
1688303747.410,-8.789,-29.297,-25.879,-40.527,-50.781
1688303747.414,-25.391,-32.227,-27.344,-22.949,218.750
1688303747.418,-54.199,-35.645,-32.715,-1.465,20.020
1688303747.422,-45.410,-38.086,-30.273,-6.836,-69.824
1688303747.424,-13.672,-31.738,-27.832,-49.316,-134.766
1688303747.428,-4.395,-34.180,-32.227,-59.082,-197.266
1688303747.432,-4.395,-31.250,-27.832,-28.809,-153.320
1688303747.436,-27.344,-37.598,-27.832,-13.672,-2.930
1688303747.440,-35.645,-45.898,-31.250,-27.344,72.266
1688303747.444,-11.719,-35.156,-24.902,-33.691,-61.523
1688303747.448,-7.812,-32.715,-25.391,-38.574,-127.930
1688303747.451,-8.789,-35.645,-29.785,-34.180,62.012
1688303747.455,-33.203,-39.551,-33.203,-5.859,568.359
1688303747.459,-52.246,-30.273,-41.016,1.465,611.816
1688303747.463,-20.508,-20.020,-43.457,-22.461,15.625
1688303747.467,-0.488,-25.391,-30.273,-35.645,-240.234
1688303747.469,-12.695,-26.855,-18.555,-22.461,-167.969
1688303747.473,-42.969,-37.598,-13.184,-6.836,-88.867
1688303747.477,-47.852,-45.898,-14.648,-1.953,-46.387
1688303747.481,-20.020,-40.527,-20.020,-26.367,-84.961
1688303747.485,-12.695,-39.062,-20.996,-41.992,-123.535
1688303747.489,-26.855,-40.039,-19.531,-39.551,-47.363
1688303747.493,-41.992,-40.527,-20.996,-24.414,-6.836
1688303747.496,-48.828,-47.363,-28.320,-16.602,270.996
1688303747.500,-31.250,-41.504,-29.785,-42.480,337.402
1688303747.504,-8.789,-32.715,-24.902,-55.176,-195.801
1688303747.508,3.906,-42.480,-28.320,-36.621,-316.895
1688303747.512,-19.043,-42.480,-31.738,-27.832,-111.328
1688303747.513,-56.641,-40.527,-31.250,-24.902,-16.602
1688303747.517,-36.621,-38.574,-29.297,-26.855,-89.844
1688303747.521,-19.531,-38.086,-29.297,-41.992,-135.742
1688303747.525,-14.160,-29.785,-25.879,-30.273,-119.141
1688303747.529,-21.484,-32.715,-29.297,-2.930,-109.863
1688303747.533,-49.805,-37.109,-36.133,-7.324,75.195
1688303747.537,-38.086,-30.762,-33.203,-19.043,212.891
1688303747.540,-17.578,-33.203,-32.227,-36.621,201.172
1688303747.544,-10.742,-31.250,-39.062,-41.504,12.207
1688303747.548,-22.461,-32.715,-39.551,-16.602,-135.742
1688303747.552,-53.711,-39.551,-36.133,-0.488,177.734
1688303747.556,-47.852,-37.598,-39.551,-6.348,373.535
1688303747.558,-29.297,-34.180,-42.969,-42.969,-130.371
1688303747.562,-21.484,-44.434,-33.691,-42.969,-346.680
1688303747.566,-16.602,-43.945,-28.320,-24.414,-147.461
1688303747.570,-32.227,-33.203,-35.156,-15.625,-32.715
1688303747.574,-28.809,-31.738,-37.598,-9.766,-58.105
1688303747.578,-15.137,-34.668,-38.086,-27.344,-164.551
1688303747.582,-7.812,-31.250,-40.039,-45.898,28.320
1688303747.585,-19.043,-27.344,-31.250,-39.062,180.176
1688303747.589,-49.805,-18.555,-28.809,-18.066,-40.527
1688303747.593,-47.363,-26.367,-30.273,-19.531,-94.238
1688303747.597,-19.043,-31.738,-29.785,-52.246,-150.391
1688303747.601,-3.418,-28.809,-29.785,-58.105,-228.516
1688303747.605,-23.438,-36.133,-29.297,-37.598,-210.449
1688303747.609,-44.434,-42.480,-31.738,-14.160,-49.805
1688303747.613,-35.645,-35.156,-29.785,-3.906,115.234
1688303747.617,-10.254,-28.809,-28.320,-35.156,-6.348
1688303747.621,0.977,-31.738,-31.738,-52.734,-218.262
1688303747.625,-19.043,-27.832,-33.203,-40.039,2.441
1688303747.629,-40.527,-32.227,-36.621,-8.789,323.242
1688303747.632,-48.828,-29.297,-39.062,-0.977,124.512
1688303747.636,-32.715,-22.949,-35.645,-12.695,-99.609
1688303747.640,-9.766,-28.809,-32.227,-35.156,-47.852
1688303747.644,3.418,-25.879,-37.109,-33.691,87.891
1688303747.648,-14.160,-17.090,-38.086,-1.465,-30.762
1688303747.664,-45.410,-31.738,-35.645,-3.906,-69.336
1688303747.668,-33.691,-38.574,-34.180,-31.250,-29.297
1688303747.672,-10.254,-32.715,-31.250,-44.922,-164.551
1688303747.676,8.301,-35.156,-28.809,-32.227,-192.871
1688303747.680,-20.996,-36.621,-23.926,-26.855,-107.422
1688303747.684,-56.641,-44.922,-23.438,-10.742,280.762
1688303747.688,-30.762,-45.410,-26.367,-12.695,440.430
1688303747.691,-18.066,-35.156,-27.344,-32.227,-83.984
1688303747.695,-10.254,-36.133,-18.555,-6.348,-227.051
1688303747.699,-14.648,-49.316,-17.578,10.254,-3.418
1688303747.703,-39.062,-53.223,-31.738,-20.020,112.305
1688303747.707,-20.996,-38.086,-34.180,-49.805,-21.484
1688303747.709,-5.859,-27.832,-32.227,-59.570,-208.008
1688303747.713,-10.742,-28.320,-30.762,-60.547,-205.078
1688303747.717,-29.297,-30.762,-31.738,-36.133,-76.660
1688303747.721,-53.223,-23.926,-32.715,-5.859,5.859
1688303747.725,-43.457,-26.855,-30.273,-11.719,12.207
1688303747.729,-18.555,-28.809,-24.902,-36.621,16.602
1688303747.733,-10.742,-30.762,-20.020,-46.875,-50.781
1688303747.736,-11.230,-33.691,-23.926,-30.273,-31.250
1688303747.740,-34.180,-38.574,-37.598,-0.977,165.039
1688303747.744,-48.828,-52.734,-42.480,1.953,494.141
1688303747.748,-35.156,-44.434,-43.945,-41.016,306.641
1688303747.752,-21.973,-24.902,-34.668,-48.828,-181.641
1688303747.754,-24.414,-28.809,-21.484,-17.090,-202.637
1688303747.758,-58.594,-37.598,-24.414,-1.465,-77.637
1688303747.762,-64.453,-30.762,-22.949,0.977,-75.195
1688303747.766,-40.039,-25.879,-24.902,-32.227,-196.289
1688303747.770,-23.926,-26.367,-30.273,-46.875,-219.238
1688303747.774,-24.414,-38.086,-29.297,-30.762,-69.336
1688303747.778,-40.039,-38.574,-27.832,-17.578,36.621
1688303747.781,-41.016,-27.344,-25.391,-6.836,-75.195
1688303747.785,-20.508,-34.668,-23.926,-27.344,91.797
1688303747.789,-11.719,-38.574,-26.367,-51.758,182.129
1688303747.793,-13.672,-26.367,-32.227,-45.898,-131.348
1688303747.797,-32.227,-28.809,-32.715,-29.297,-153.809
1688303747.799,-46.387,-34.668,-33.691,-20.020,-17.090
1688303747.803,-22.949,-30.762,-37.109,-28.809,-125.977
1688303747.807,-4.883,-22.949,-32.227,-47.852,-313.965
1688303747.811,-14.648,-25.879,-31.738,-45.898,-226.074
1688303747.815,-42.480,-34.180,-32.227,-9.277,-45.898
1688303747.819,-57.617,-40.039,-29.297,-10.742,48.340
1688303747.823,-32.715,-44.434,-24.902,-40.039,62.012
1688303747.826,-16.113,-39.551,-20.020,-35.645,-15.137
1688303747.830,-8.301,-39.062,-23.926,-26.367,289.062
1688303747.834,-14.648,-34.180,-27.344,-26.367,307.129
1688303747.838,-45.898,-27.344,-24.414,-20.996,14.160
1688303747.842,-36.133,-31.250,-32.227,-24.414,55.176
1688303747.843,-10.254,-32.227,-41.016,-35.645,-112.305
1688303747.847,-12.207,-33.203,-30.762,-20.996,-281.250
1688303747.851,-31.250,-35.645,-17.578,-4.883,-162.598
1688303747.855,-60.547,-46.875,-17.578,3.906,153.809
1688303747.859,-55.664,-49.805,-19.531,-8.789,131.348
1688303747.863,-29.785,-43.457,-20.508,-24.414,-150.879
1688303747.867,-29.297,-42.480,-20.996,-30.762,-153.320
1688303747.870,-41.016,-53.223,-17.090,-3.906,138.184
1688303747.874,-61.523,-53.711,-22.461,9.277,290.527
1688303747.878,-57.129,-36.621,-24.414,-32.227,-28.809
1688303747.882,-33.203,-33.203,-23.926,-45.410,-161.133
1688303747.886,-20.020,-35.156,-26.855,-41.992,-215.820
1688303747.890,-24.414,-42.480,-26.855,-37.109,-133.301
1688303747.894,-40.527,-48.340,-22.461,3.418,26.367
1688303747.898,-33.203,-52.246,-22.461,-9.277,-36.621
1688303747.902,-15.625,-44.922,-33.203,-47.852,-58.594
1688303747.906,-5.859,-25.879,-33.203,-44.434,-158.203
1688303747.910,-12.695,-28.809,-29.785,-28.809,-176.270
1688303747.914,-37.109,-28.809,-26.367,-10.254,128.418
1688303747.917,-48.340,-28.320,-23.438,-12.207,367.676
1688303747.921,-34.668,-30.273,-26.855,-32.227,125.488
1688303747.925,-17.578,-25.391,-26.367,-32.227,-220.703
1688303747.929,-21.973,-31.250,-23.926,-17.090,-115.723
1688303747.933,-41.992,-34.180,-25.879,-15.137,117.676
1688303747.948,-47.363,-20.508,-26.855,-21.484,-3.906
1688303747.952,-30.273,-24.902,-24.902,-41.504,-125.000
1688303747.956,-22.461,-30.762,-26.855,-49.316,-155.762
1688303747.960,-15.137,-31.250,-28.320,-23.438,-145.508
1688303747.964,-21.973,-41.016,-27.832,-10.742,-5.859
1688303747.968,-38.574,-50.781,-21.973,-5.859,42.969
1688303747.972,-28.320,-52.734,-22.949,-25.879,151.855
1688303747.975,-21.973,-50.293,-30.762,-47.852,218.262
1688303747.979,-26.367,-39.551,-31.250,-33.691,-123.535
1688303747.983,-20.996,-27.832,-29.785,-5.859,-164.551
1688303747.987,-36.133,-27.344,-29.297,16.113,-36.133
1688303747.991,-28.320,-31.250,-32.227,-20.996,-113.281
1688303747.979,-6.348,-28.320,-30.762,-38.086,-263.672
1688303747.983,-16.602,-26.855,-25.391,-26.855,-254.395
1688303747.987,-45.410,-32.715,-33.203,-27.832,-80.078
1688303747.991,-58.105,-41.504,-33.691,-10.254,-18.555
1688303747.995,-14.648,-46.875,-24.902,-6.348,-109.375
1688303747.999,18.555,-38.086,-31.250,-25.391,-93.750
1688303748.003,12.695,-28.320,-35.156,-38.086,-7.324
1688303748.006,-8.789,-23.438,-30.273,-24.414,20.996
1688303748.010,-32.715,-24.414,-33.691,-4.883,109.863
1688303748.014,-20.996,-23.926,-39.551,-16.113,102.539
1688303748.018,7.324,-20.508,-35.156,-34.668,277.832
1688303748.022,2.441,-16.602,-36.133,-48.828,264.648
1688303748.054,-10.254,-8.789,-41.504,-46.875,-61.523
1688303748.058,-23.438,-17.090,-37.109,-27.344,11.719
1688303748.062,-21.484,-34.180,-39.062,-40.527,3.906
1688303748.066,-0.488,-31.738,-41.504,-61.523,-199.707
1688303748.070,13.184,-27.344,-34.668,-64.941,-253.418
1688303748.074,-6.348,-32.227,-32.715,-47.363,-23.926
1688303748.078,-38.086,-30.762,-35.156,-22.949,164.551
1688303748.081,-28.320,-35.645,-35.645,-20.996,36.133
1688303748.085,-9.277,-42.969,-35.156,-31.738,-173.828
1688303748.089,-7.812,-42.480,-32.227,-30.762,23.438
1688303748.093,-22.461,-37.598,-31.250,-11.230,228.027
1688303748.097,-49.316,-32.227,-37.109,2.441,-17.578
1688303748.084,-38.086,-31.738,-36.621,-0.488,-46.387
1688303748.088,-11.719,-21.973,-35.645,-19.043,-72.754
1688303748.092,-19.043,-24.414,-38.086,-49.316,-189.453
1688303748.096,-26.367,-36.133,-35.156,-49.316,-187.012
1688303748.100,-49.316,-40.527,-32.227,-10.742,37.109
1688303748.104,-54.688,-48.340,-29.785,-7.324,253.418
1688303748.108,-22.461,-49.805,-31.250,-36.133,43.945
1688303748.111,-9.277,-43.457,-36.621,-33.203,-238.281
1688303748.115,-17.578,-31.250,-37.109,-23.926,-29.297
1688303748.119,-43.945,-12.695,-32.227,-12.695,210.938
1688303748.123,-56.641,-17.578,-33.203,-11.230,87.402
1688303748.127,-32.227,-25.879,-35.156,-39.551,-37.598
1688303748.128,-13.184,-16.602,-36.621,-62.500,-100.098
1688303748.132,-8.301,-18.066,-37.598,-42.969,240.723
1688303748.136,-36.133,-23.926,-35.645,-19.531,272.949
1688303748.140,-54.199,-30.762,-28.809,-35.156,-29.785
1688303748.144,-29.785,-32.715,-31.738,-49.805,-60.059
1688303748.148,-9.277,-29.785,-40.039,-58.105,-104.492
1688303748.152,-0.488,-21.484,-36.621,-45.410,-67.383
1688303748.155,-19.043,-21.973,-35.645,-30.762,-51.758
1688303748.159,-39.062,-42.969,-36.133,-4.395,133.789
1688303748.163,-20.996,-40.039,-32.715,-20.996,210.449
1688303748.167,0.000,-22.461,-32.227,-45.410,-208.984
1688303748.171,2.441,-28.809,-36.133,-34.180,-284.668
1688303748.175,-15.625,-27.344,-32.227,-21.973,-79.590
1688303748.179,-41.016,-20.996,-32.227,-13.672,79.590
1688303748.183,-37.109,-9.277,-39.062,-24.414,-10.254
1688303748.187,-11.230,-8.789,-36.133,-45.898,-166.504
1688303748.191,-6.836,-27.344,-30.762,-43.945,-122.070
1688303748.195,-22.949,-28.809,-30.762,-22.949,-34.668
1688303748.199,-47.852,-32.227,-30.762,-3.418,66.406
1688303748.202,-42.480,-33.691,-24.902,-16.602,33.203
1688303748.206,-10.254,-32.715,-23.438,-34.668,342.285
1688303748.210,2.441,-22.461,-27.344,-29.785,313.477
1688303748.214,-14.160,-20.996,-31.250,-34.180,-120.117
1688303748.218,-41.992,-32.227,-31.250,-15.625,-34.180
1688303748.219,-39.551,-32.227,-32.715,-20.508,-30.762
1688303748.223,-11.719,-30.762,-35.645,-49.316,-210.938
1688303748.227,0.488,-22.949,-36.621,-44.922,-259.277
1688303748.231,-13.184,-23.926,-35.156,-25.879,-129.395
1688303748.235,-40.039,-39.551,-32.227,-16.113,32.227
1688303748.239,-44.922,-46.387,-37.109,-15.137,10.742
1688303748.243,-16.113,-37.109,-37.109,-41.992,-162.598
1688303748.246,-10.254,-37.109,-30.762,-41.992,-4.395
1688303748.250,-22.461,-29.785,-31.738,-28.809,141.602
1688303748.254,-29.785,-24.414,-33.203,-11.719,-54.199
1688303748.258,-32.715,-37.598,-29.297,-1.953,-70.312
1688303748.262,-18.555,-47.363,-31.250,-40.039,83.984
1688303748.264,0.000,-38.086,-34.180,-50.293,-15.137
1688303748.268,0.000,-32.715,-35.645,-33.203,-250.977
1688303748.272,-24.414,-34.668,-40.039,-14.160,-81.055
1688303748.276,-39.551,-34.668,-35.156,-14.160,46.875
1688303748.280,-31.738,-33.203,-31.738,-41.016,-72.754
1688303748.284,-14.648,-32.715,-30.273,-48.828,-186.523
1688303748.288,-13.672,-39.062,-21.484,-23.926,-125.488
1688303748.291,-35.645,-51.758,-19.043,8.301,390.625
1688303748.295,-49.316,-43.945,-27.832,1.953,451.660
1688303748.299,-28.809,-18.066,-29.297,-28.809,-63.965
1688303748.303,-13.184,-20.020,-27.344,-44.434,-73.730
1688303748.307,-19.043,-30.762,-33.691,-52.734,17.090
1688303748.309,-40.527,-24.902,-44.434,-39.551,-82.520
1688303748.313,-61.035,-23.926,-46.387,-23.438,-60.059
1688303748.317,-35.645,-30.762,-38.086,-35.156,-72.266
1688303748.321,-7.812,-33.203,-29.785,-51.758,-180.664
1688303748.325,-11.230,-29.785,-33.691,-48.340,-212.402
1688303748.329,-29.785,-23.438,-41.016,-17.578,-62.500
1688303748.333,-42.480,-34.180,-40.039,-0.977,367.188
1688303748.336,-22.461,-32.227,-34.180,-28.320,397.461
1688303748.340,-10.254,-20.996,-26.367,-66.406,-128.418
1688303748.344,-10.254,-35.645,-23.926,-56.641,-201.660
1688303748.348,-28.320,-36.621,-27.344,-19.043,-3.906
1688303748.352,-45.898,-22.461,-28.320,-6.348,60.059
1688303748.354,-35.645,-22.949,-29.297,-30.273,-92.285
1688303748.358,-29.785,-33.691,-32.715,-59.570,-212.891
1688303748.362,-28.320,-38.086,-34.180,-59.570,-96.680
1688303748.366,-39.551,-38.086,-38.086,-34.180,-14.160
1688303748.370,-51.758,-41.016,-38.086,-19.043,-40.527
1688303748.374,-45.410,-41.992,-36.621,-24.414,44.434
1688303748.378,-18.555,-41.504,-38.086,-40.527,220.215
1688303748.381,-2.930,-31.738,-36.621,-45.898,20.508
1688303748.385,-15.625,-28.809,-31.250,-35.156,-93.750
1688303748.389,-51.758,-41.016,-35.156,-15.625,219.727
1688303748.393,-47.852,-38.086,-36.621,-14.648,296.387
1688303748.397,-22.461,-29.785,-32.715,-40.527,-66.406
1688303748.400,-17.090,-25.391,-33.203,-55.664,-286.621
1688303748.404,-24.902,-29.785,-32.715,-25.391,-66.895
1688303748.408,-55.664,-37.598,-30.762,-8.301,125.977
1688303748.412,-59.570,-36.621,-25.879,-20.020,-50.781
1688303748.416,-22.461,-36.133,-24.902,-29.785,-188.965
1688303748.420,-3.906,-40.527,-20.996,-21.973,-86.426
1688303748.424,-12.207,-32.227,-23.438,-1.953,3.906
1688303748.427,-40.527,-19.043,-35.156,-16.113,-60.059
1688303748.431,-51.270,-20.020,-39.551,-43.945,-117.188
1688303748.435,-21.484,-27.344,-35.645,-52.734,62.012
1688303748.439,-9.766,-17.578,-29.297,-50.781,54.199
1688303748.443,-20.996,-9.277,-35.156,-29.297,-162.598
1688303748.460,-32.715,-32.227,-39.062,-10.254,-51.758
1688303748.464,-41.504,-39.551,-40.039,-43.945,59.570
1688303748.468,-25.879,-25.879,-40.527,-68.359,25.391
1688303748.472,9.277,-21.484,-33.691,-57.129,-155.762
1688303748.476,17.578,-24.414,-34.668,-39.551,-187.500
1688303748.480,-21.484,-29.785,-33.203,-14.160,219.238
1688303748.484,-50.781,-33.203,-32.715,-14.648,311.035
1688303748.487,-27.344,-28.809,-31.738,-31.738,-81.543
1688303748.491,-4.395,-24.414,-32.227,-48.340,-110.840
1688303748.495,-15.137,-35.156,-36.133,-41.992,225.586
1688303748.499,-25.879,-39.062,-31.250,-19.531,104.492
1688303748.503,-33.203,-41.016,-27.344,-6.348,-137.207
1688303748.504,-26.367,-36.133,-26.855,-13.672,-133.301
1688303748.508,-10.742,-23.438,-25.879,-40.527,-213.867
1688303748.512,-3.906,-20.508,-25.391,-44.434,-264.160
1688303748.516,-20.996,-17.578,-22.461,-12.207,-134.277
1688303748.520,-47.363,-26.855,-23.438,-14.160,68.359
1688303748.524,-33.203,-39.062,-29.785,-40.039,81.543
1688303748.528,-4.395,-32.715,-28.809,-37.109,-101.074
1688303748.531,-2.441,-21.973,-29.785,-32.715,-200.684
1688303748.535,-16.113,-20.508,-30.762,-17.090,91.797
1688303748.539,-44.922,-25.879,-35.156,2.441,411.621
1688303748.543,-39.551,-26.855,-36.621,-16.602,128.906
1688303748.547,-19.531,-28.809,-27.344,-35.156,-136.230
1688303748.548,-24.414,-32.227,-24.414,-26.855,-192.871
1688303748.552,-22.949,-35.156,-26.367,-4.395,-162.598
1688303748.556,-39.551,-26.367,-23.438,0.977,-83.496
1688303748.560,-36.133,-21.973,-21.484,-27.344,-26.367
1688303748.564,-3.418,-29.785,-22.461,-62.012,-49.805
1688303748.568,-0.977,-29.297,-33.203,-59.082,-152.344
1688303748.572,-17.578,-39.551,-37.598,-26.367,-56.641
1688303748.575,-41.016,-48.828,-32.715,-17.090,145.996
1688303748.579,-48.828,-50.293,-37.109,-20.996,512.207
1688303748.583,-30.762,-36.621,-41.504,-50.293,485.352
1688303748.587,-21.973,-23.438,-38.086,-69.336,-127.930
1688303748.591,-28.809,-34.668,-33.691,-36.621,-177.246
1688303748.593,-43.945,-44.922,-32.715,-8.789,23.926
1688303748.597,-47.363,-41.016,-36.133,-21.484,-62.500
1688303748.601,-15.137,-26.367,-34.180,-46.875,-146.484
1688303748.605,1.953,-23.438,-31.738,-47.852,-166.992
1688303748.609,-11.230,-27.832,-38.086,-36.133,-150.879
1688303748.613,-34.180,-28.320,-38.574,-15.625,38.086
1688303748.617,-43.457,-28.809,-38.574,-17.578,213.867
1688303748.620,-26.367,-34.668,-37.598,-35.156,272.949
1688303748.624,-16.602,-35.156,-40.527,-37.109,41.992
1688303748.628,-16.602,-23.926,-40.039,-41.992,-285.156
1688303748.632,-41.016,-28.320,-30.762,-28.320,-144.531
1688303748.636,-57.617,-37.598,-26.855,-17.578,65.430
1688303748.638,-27.832,-31.738,-27.344,-27.344,-90.332
1688303748.642,-4.883,-37.109,-30.762,-37.109,-329.102
1688303748.646,-8.301,-48.828,-32.715,-18.555,-306.641
1688303748.650,-32.227,-36.621,-24.902,-1.465,-160.645
1688303748.654,-58.594,-24.414,-22.461,-10.742,-57.617
1688303748.658,-47.363,-24.414,-30.273,-15.137,-76.172
1688303748.662,-26.855,-24.414,-31.250,-33.691,-72.266
1688303748.665,-10.254,-32.227,-30.762,-41.504,120.605
1688303748.669,-22.461,-29.785,-29.297,-15.625,167.969
1688303748.673,-52.246,-17.578,-26.855,-2.930,43.945
1688303748.677,-50.781,-20.996,-31.738,-46.387,23.926
1688303748.681,-16.602,-18.066,-31.250,-72.266,22.461
1688303748.685,-16.113,-7.324,-29.785,-59.082,-159.180
1688303748.689,-39.062,-14.160,-31.738,-43.945,-228.516
1688303748.693,-58.105,-30.273,-27.832,-21.973,44.922
1688303748.697,-63.477,-39.551,-30.273,-46.387,102.051
1688303748.701,-41.504,-29.785,-31.738,-66.895,-160.156
1688303748.705,-50.293,-21.484,-30.762,-80.566,-206.543
1688303748.709,-66.895,-23.926,-30.273,-81.543,142.578
1688303748.712,-95.215,-20.508,-31.250,-71.777,309.570
1688303748.716,-110.352,-11.230,-30.762,-97.656,-26.367
1688303748.720,-77.148,-14.160,-36.133,-115.234,-210.938
1688303748.724,-43.457,-12.695,-41.504,-86.426,-236.328
1688303748.728,-56.152,-20.020,-25.879,-52.246,-180.176
1688303748.744,-106.934,-32.227,-16.602,-55.176,-66.895
1688303748.748,-105.957,-26.367,-19.531,-70.312,-1.465
1688303748.752,-68.359,-17.578,-12.207,-79.102,55.664
1688303748.756,-45.898,-20.020,-6.836,-71.289,-19.531
1688303748.760,-39.551,-35.645,-10.254,-52.734,-133.789
1688303748.764,-58.105,-47.852,-15.137,-24.414,125.488
1688303748.768,-55.664,-46.875,-21.973,-7.324,582.520
1688303748.771,-30.762,-32.715,-30.762,-40.527,320.312
1688303748.775,-12.207,-28.809,-29.785,-58.594,-203.613
1688303748.779,-4.883,-40.039,-26.855,-31.738,-71.777
1688303748.783,-20.996,-45.898,-29.785,-11.719,97.656
1688303748.787,-31.738,-38.086,-29.297,-8.301,-12.695
1688303748.774,-5.859,-23.926,-31.250,-15.137,-195.801
1688303748.778,13.184,-27.344,-30.273,-4.395,-189.941
1688303748.782,15.137,-32.715,-33.203,-1.465,-123.047
1688303748.786,-0.977,-26.855,-40.527,19.043,-95.703
1688303748.790,-15.137,-18.555,-31.250,36.133,-51.758
1688303748.794,2.930,-17.578,-22.949,-1.465,55.176
1688303748.798,7.324,-23.926,-23.926,-24.902,25.879
1688303748.801,11.230,-27.344,-20.508,-12.695,-105.957
1688303748.805,-4.395,-32.227,-24.902,5.371,-123.535
1688303748.809,-23.926,-46.387,-29.297,12.695,204.590
1688303748.813,2.930,-43.945,-28.320,0.977,302.734
1688303748.817,13.672,-28.809,-37.598,-39.062,-212.402
1688303748.833,3.418,-30.273,-42.480,-40.527,-267.578
1688303748.837,-13.184,-33.203,-41.016,-15.625,-22.461
1688303748.841,-32.715,-37.598,-39.062,-3.418,58.105
1688303748.845,-14.648,-42.480,-32.227,-13.672,-62.012
1688303748.849,3.906,-40.039,-32.227,-25.391,-125.000
1688303748.853,4.395,-33.203,-34.180,-16.602,-10.254
1688303748.857,-10.254,-24.902,-32.227,0.000,105.957
1688303748.860,-36.133,-24.414,-33.691,7.812,92.773
1688303748.864,-23.926,-28.809,-39.551,-0.977,70.312
1688303748.868,1.953,-40.527,-37.598,-29.785,332.031
1688303748.872,4.395,-43.457,-32.715,-41.992,187.500
1688303748.876,-8.789,-28.809,-32.227,-18.555,-191.406
1688303748.909,-37.109,-25.391,-33.691,3.906,-76.172
1688303748.913,-35.156,-25.879,-35.645,-9.766,-41.504
1688303748.917,-12.207,-26.855,-35.645,-39.551,-215.820
1688303748.921,-12.695,-31.250,-38.086,-51.758,-252.930
1688303748.925,-22.461,-33.691,-39.551,-35.156,-121.094
1688303748.929,-40.039,-36.133,-39.062,-1.465,26.855
1688303748.933,-35.645,-34.668,-35.156,-7.324,97.168
1688303748.936,-3.418,-36.621,-32.715,-50.781,-61.035
1688303748.940,13.184,-45.898,-31.250,-44.922,-1.465
1688303748.944,-6.348,-44.434,-32.715,-19.043,213.379
1688303748.948,-36.133,-31.250,-30.273,-9.277,114.746
1688303748.952,-24.414,-31.738,-24.414,2.930,2.441
1688303748.929,-0.488,-35.156,-28.809,-6.836,-47.363
1688303748.933,-4.395,-20.996,-41.016,-19.043,-148.438
1688303748.937,-13.184,-10.254,-34.668,-5.859,-251.953
1688303748.941,-30.762,-13.184,-25.391,-1.953,-101.562
1688303748.945,-43.945,-19.531,-25.391,-10.254,40.039
1688303748.949,-20.508,-24.902,-31.250,-37.598,-46.875
1688303748.953,8.789,-18.555,-39.062,-54.199,-164.062
1688303748.956,5.859,-30.273,-29.785,-18.066,-90.820
1688303748.960,-20.020,-45.410,-23.438,8.789,96.191
1688303748.964,-37.109,-38.086,-24.414,-16.113,66.895
1688303748.968,-28.320,-41.992,-23.438,-44.434,-38.086
1688303748.972,-15.625,-41.992,-19.531,-60.059,-45.410
1688303748.969,-18.555,-43.457,-17.578,-56.641,-8.789
1688303748.973,-34.180,-43.457,-17.578,-26.855,-36.621
1688303748.977,-55.664,-41.992,-19.531,-8.789,-64.941
1688303748.981,-45.898,-47.363,-23.438,-19.043,48.828
1688303748.985,-25.391,-55.176,-27.832,-37.109,46.387
1688303748.989,-13.672,-52.246,-23.926,-29.785,-112.305
1688303748.993,-31.738,-48.828,-15.137,3.906,-25.391
1688303748.996,-59.570,-49.805,-15.625,14.160,216.797
1688303749.000,-33.203,-48.828,-21.973,5.859,488.281
1688303749.004,2.441,-40.039,-23.926,-0.977,264.160
1688303749.008,3.906,-43.457,-26.855,-18.555,-175.293
1688303749.012,-18.555,-41.992,-33.203,-11.719,-44.922
1688303749.013,-52.246,-26.367,-32.227,3.418,20.508
1688303749.017,-44.922,-22.461,-39.062,-13.672,-191.895
1688303749.021,-17.090,-28.809,-43.457,-37.109,-231.934
1688303749.025,-17.578,-33.203,-34.180,-38.574,-170.898
1688303749.029,-20.996,-40.527,-31.250,-20.020,-108.887
1688303749.033,-35.645,-43.945,-34.668,-8.301,-16.113
1688303749.037,-45.410,-43.457,-35.156,-22.949,44.922
1688303749.040,-20.508,-44.922,-33.691,-34.180,243.652
1688303749.044,-16.113,-33.691,-33.691,-30.762,154.297
1688303749.048,-22.461,-25.391,-32.227,-26.367,-152.344
1688303749.052,-37.109,-35.156,-35.156,-6.836,5.371
1688303749.056,-42.480,-39.551,-35.156,-3.418,132.324
1688303749.059,-15.137,-28.320,-28.809,-32.715,-199.219
1688303749.063,-6.348,-34.180,-29.785,-47.852,-334.961
1688303749.067,-8.789,-45.898,-28.320,-31.738,-112.793
1688303749.071,-29.297,-38.086,-26.367,-8.789,42.480
1688303749.075,-35.156,-23.438,-26.367,-3.418,-4.395
1688303749.079,-20.020,-20.020,-28.320,-16.602,-107.910
1688303749.083,-9.766,-33.691,-35.645,-34.180,115.723
1688303749.086,-7.324,-56.152,-33.203,-28.809,360.352
1688303749.090,-30.762,-40.527,-24.902,-2.441,76.172
1688303749.094,-31.250,-16.113,-29.297,10.742,-52.246
1688303749.098,-10.254,-18.066,-36.621,-29.785,-4.395
1688303749.102,-1.465,-22.461,-32.715,-48.340,-91.797
1688303749.104,-0.977,-24.902,-25.391,-28.320,-204.102
1688303749.108,-27.344,-35.645,-19.531,-7.812,-20.020
1688303749.112,-46.387,-50.781,-25.879,-5.371,131.348
1688303749.116,-25.879,-55.176,-33.691,-30.762,-31.738
1688303749.120,-11.230,-52.246,-31.250,-44.434,-182.129
1688303749.124,-10.742,-55.176,-29.297,-23.438,-28.809
1688303749.128,-26.367,-54.688,-29.785,-2.930,273.438
1688303749.131,-51.758,-47.363,-31.250,-12.207,162.598
1688303749.135,-32.715,-42.969,-31.250,-19.043,-114.746
1688303749.139,-3.906,-43.457,-31.250,-41.016,-95.703
1688303749.143,2.441,-48.828,-26.367,-46.875,120.605
1688303749.147,-31.738,-42.969,-23.926,-19.531,14.648
1688303749.149,-52.734,-37.109,-27.344,-3.906,-158.203
1688303749.153,-29.785,-41.504,-26.855,-20.020,-90.332
1688303749.157,-15.137,-41.992,-29.785,-37.598,-215.820
1688303749.161,-4.395,-34.668,-34.180,-37.598,-316.406
1688303749.165,-12.695,-38.086,-39.551,-30.762,-139.648
1688303749.169,-48.828,-48.828,-44.434,-6.348,125.977
1688303749.173,-54.199,-54.688,-37.109,-23.926,118.652
1688303749.176,-28.809,-51.758,-29.297,-65.918,-140.625
1688303749.180,-19.531,-44.922,-27.832,-59.570,-272.461
1688303749.184,-31.738,-49.805,-28.320,-18.066,64.453
1688303749.188,-55.664,-49.316,-22.949,0.000,344.238
1688303749.192,-44.922,-41.992,-24.414,-37.598,29.297
1688303749.208,-17.578,-43.457,-29.785,-58.105,-207.520
1688303749.212,-14.160,-50.781,-27.832,-46.875,-162.598
1688303749.216,-26.855,-46.875,-33.203,-22.461,-63.965
1688303749.220,-52.734,-46.875,-33.203,1.953,-63.965
1688303749.224,-53.711,-57.617,-26.855,-2.930,-23.926
1688303749.228,-27.344,-54.688,-27.832,-23.926,24.902
1688303749.232,-9.277,-44.434,-32.227,-38.086,-68.848
1688303749.235,-6.836,-36.133,-34.180,-13.672,-131.836
1688303749.239,-35.156,-34.668,-25.879,8.789,42.480
1688303749.243,-40.039,-36.621,-22.461,-6.836,450.684
1688303749.247,-19.531,-26.855,-32.715,-28.320,236.328
1688303749.251,-13.672,-20.508,-28.809,-30.273,-249.512
1688303749.254,-12.207,-28.320,-25.879,-18.066,-114.258
1688303749.258,-30.273,-37.109,-32.227,-15.137,37.109
1688303749.262,-42.969,-35.645,-30.273,-16.602,-26.855
1688303749.266,-24.414,-27.344,-27.832,-26.367,-192.871
1688303749.270,3.418,-25.879,-28.320,-31.250,-136.719
1688303749.274,1.465,-28.809,-28.809,-22.949,16.113
1688303749.278,-33.691,-34.668,-25.391,-10.254,38.574
1688303749.281,-31.738,-32.715,-23.438,4.395,12.695
1688303749.285,-11.719,-38.086,-27.344,-14.160,81.543
1688303749.289,-11.230,-33.203,-29.785,-38.574,57.129
1688303749.293,-19.531,-11.719,-31.738,-34.180,-217.773
1688303749.297,-36.133,-9.766,-31.250,-4.395,-108.887
1688303749.299,-46.875,-12.207,-32.715,-1.465,11.719
1688303749.303,-23.438,-18.066,-31.738,-39.551,-19.043
1688303749.307,2.930,-24.414,-30.273,-53.223,-191.406
1688303749.311,-5.371,-26.855,-33.203,-30.762,-166.992
1688303749.315,-39.551,-24.902,-32.227,-0.488,98.145
1688303749.319,-63.477,-25.879,-34.180,1.465,174.316
1688303749.323,-41.992,-25.391,-36.133,-52.734,48.828
1688303749.326,-18.066,-20.508,-33.691,-69.824,-60.059
1688303749.330,-8.301,-20.020,-32.227,-40.039,70.801
1688303749.334,-20.508,-11.230,-31.738,-24.902,5.859
1688303749.338,-51.270,-11.719,-35.645,-14.160,-121.094
1688303749.342,-27.344,-22.461,-33.691,-9.766,7.324
1688303749.344,-7.324,-34.180,-26.367,-22.949,198.242
1688303749.348,-23.438,-31.250,-30.273,-37.598,-49.316
1688303749.352,-37.598,-26.367,-30.273,-12.695,-169.434
1688303749.356,-62.012,-33.203,-31.738,7.812,61.523
1688303749.360,-49.805,-36.133,-34.668,-14.648,20.996
1688303749.364,-21.973,-35.645,-31.250,-33.691,-89.844
1688303749.368,-13.184,-39.062,-35.156,-38.086,-102.539
1688303749.371,-17.090,-38.574,-30.762,-13.184,229.004
1688303749.375,-56.152,-34.180,-35.156,3.418,490.723
1688303749.379,-52.734,-25.879,-41.504,-18.555,63.477
1688303749.383,-12.207,-27.344,-30.762,-47.363,-236.328
1688303749.387,-7.324,-26.855,-27.344,-43.945,-226.562
1688303749.388,-14.648,-20.508,-28.320,-16.113,-221.680
1688303749.392,-31.250,-19.043,-28.809,-3.906,-145.020
1688303749.396,-36.133,-22.949,-35.645,-10.254,-57.129
1688303749.400,-3.906,-34.180,-40.527,-20.508,-70.801
1688303749.404,6.836,-29.785,-41.992,-27.344,-205.566
1688303749.408,-10.742,-18.555,-41.504,-14.160,-134.766
1688303749.412,-37.598,-17.090,-33.691,5.859,104.980
1688303749.415,-37.598,-17.578,-24.902,-3.418,300.781
1688303749.419,-9.277,-10.742,-27.832,-20.996,94.238
1688303749.423,-1.465,-11.719,-27.344,-34.668,-202.637
1688303749.427,-9.766,-23.438,-25.391,-33.691,-74.219
1688303749.431,-33.691,-27.832,-24.902,-2.930,231.934
1688303749.433,-48.828,-30.762,-28.320,-5.859,104.004
1688303749.437,-18.066,-17.578,-33.691,-35.156,-182.617
1688303749.441,3.906,-0.977,-31.738,-51.270,-166.016
1688303749.445,0.488,-11.719,-31.738,-46.387,-103.516
1688303749.449,-26.367,-19.043,-33.691,-15.625,-57.129
1688303749.453,-42.969,-13.184,-34.668,-7.324,-21.973
1688303749.457,-11.719,-18.555,-38.574,-23.926,204.102
1688303749.460,10.254,-26.855,-37.109,-41.992,170.898
1688303749.464,3.906,-23.438,-32.715,-37.109,-246.094
1688303749.468,-6.836,-39.551,-23.926,1.953,-172.363
1688303749.472,-20.996,-43.457,-25.391,24.414,37.109
1688303749.476,-10.742,-9.277,-40.039,-19.043,-7.324
1688303749.479,0.977,6.836,-45.410,-64.453,-205.566
1688303749.483,-8.789,0.000,-42.480,-45.898,-241.211
1688303749.487,-33.691,-7.812,-50.293,-22.461,-38.574
1688303749.491,-62.500,-6.836,-54.688,-26.855,45.898
1688303749.495,-50.293,3.418,-55.176,-43.457,-78.125
1688303749.499,-25.391,1.465,-54.688,-66.895,-129.395
1688303749.503,-13.184,-5.371,-50.781,-65.918,145.020
1688303749.506,-25.391,7.812,-52.246,-48.828,143.555
1688303749.510,-62.012,14.648,-55.176,-35.156,39.062
1688303749.514,-38.574,4.395,-54.199,-41.016,153.320
1688303749.518,-0.488,-3.418,-52.734,-63.965,115.723
1688303749.522,-8.789,27.344,-56.152,-84.473,-134.766
1688303749.525,-27.832,41.504,-60.547,-84.473,-195.801
1688303749.529,-49.805,18.555,-58.105,-61.523,194.824
1688303749.533,-36.133,-6.348,-51.270,-60.059,237.793
1688303749.537,-11.230,-11.230,-48.340,-87.402,-124.512
1688303749.541,-3.906,-4.395,-46.387,-80.566,-240.723
1688303749.545,-9.766,-20.508,-43.945,-45.410,-11.230
1688303749.549,-44.922,-19.531,-41.504,-34.668,129.883
1688303749.552,-48.340,-0.488,-41.992,-41.992,-44.922
1688303749.556,-12.695,3.418,-42.480,-53.223,-227.051
1688303749.560,13.184,-23.926,-40.527,-45.410,-76.172
1688303749.564,5.859,-32.715,-43.945,-24.902,68.848
1688303749.568,-37.598,-9.277,-41.504,-16.602,-50.293
1688303749.584,-46.387,-13.672,-33.691,-8.789,-12.207
1688303749.588,-16.113,-27.344,-31.738,-27.344,-48.340
1688303749.592,-0.488,-19.531,-39.062,-37.598,-178.223
1688303749.596,1.465,-18.555,-40.527,-20.020,-87.891
1688303749.600,-31.250,-33.691,-31.738,-11.719,158.691
1688303749.604,-49.805,-38.574,-31.250,6.836,416.016
1688303749.608,-10.254,-28.320,-31.250,-16.602,209.961
1688303749.611,7.324,-34.668,-24.902,-40.527,-216.797
1688303749.615,0.488,-48.828,-20.996,-15.137,-98.145
1688303749.619,-15.137,-31.250,-21.973,8.301,314.941
1688303749.623,-31.250,-8.301,-27.344,0.488,165.039
1688303749.627,-11.230,-16.602,-25.879,-20.996,-243.652
1688303749.628,11.230,-25.879,-22.461,-25.391,-270.020
1688303749.632,11.719,-7.324,-23.438,-15.137,-189.453
1688303749.636,-10.254,-3.906,-27.832,7.324,-136.230
1688303749.640,-32.227,-18.555,-28.320,-0.488,-101.562
1688303749.644,-14.160,-29.785,-28.320,-23.926,-77.148
1688303749.648,11.230,-29.785,-26.855,-18.066,-24.414
1688303749.652,7.324,-32.227,-26.367,-12.207,-48.340
1688303749.655,-20.996,-40.527,-31.738,-5.371,-15.137
1688303749.659,-37.598,-46.875,-31.250,15.137,255.371
1688303749.663,-6.836,-25.879,-31.250,1.465,272.949
1688303749.667,20.020,-5.859,-34.180,-40.527,-151.855
1688303749.671,8.789,-8.301,-31.250,-44.922,-291.992
1688303749.673,-14.160,-16.113,-27.344,-10.742,0.000
1688303749.677,-47.852,-23.438,-31.250,-4.395,126.953
1688303749.681,-36.621,-16.602,-38.086,-32.715,-76.660
1688303749.685,3.418,-17.090,-37.598,-51.758,-169.434
1688303749.689,4.883,-17.578,-31.250,-38.574,-187.500
1688303749.693,-22.461,-3.418,-30.762,-15.137,-70.801
1688303749.697,-61.035,0.977,-35.645,-16.602,92.285
1688303749.700,-52.246,-10.254,-41.504,-38.086,27.832
1688303749.704,-11.230,-35.156,-42.480,-46.875,233.398
1688303749.708,0.000,-22.461,-41.992,-39.062,228.027
1688303749.712,-15.625,-1.953,-42.480,-26.855,-176.758
1688303749.716,-35.645,-24.902,-33.691,-11.230,-45.410
1688303749.718,-43.457,-28.320,-30.273,-19.043,154.297
1688303749.722,-22.949,-13.184,-32.715,-51.758,-145.996
1688303749.726,-2.930,-12.207,-31.250,-54.199,-282.227
1688303749.730,-19.043,-10.254,-33.691,-31.250,-158.691
1688303749.734,-52.734,-4.395,-33.203,-6.836,-39.551
1688303749.738,-52.734,-20.508,-32.715,-14.648,67.871
1688303749.742,-16.113,-41.992,-31.250,-35.645,-24.414
1688303749.745,0.000,-44.434,-25.391,-33.203,26.367
1688303749.749,-16.113,-27.832,-26.855,-20.508,131.836
1688303749.753,-52.246,-13.672,-28.809,-9.277,-65.918
1688303749.757,-59.082,-34.180,-31.250,-13.184,-60.059
1688303749.761,-19.043,-41.992,-36.133,-30.273,-25.879
1688303749.764,1.465,-21.484,-36.621,-35.645,-139.160
1688303749.768,4.395,-11.719,-28.809,-14.160,-195.312
1688303749.772,-21.484,-18.066,-27.344,2.441,-77.148
1688303749.776,-57.129,-24.902,-34.180,-11.230,79.102
1688303749.780,-32.227,-18.066,-38.086,-32.715,-57.129
1688303749.784,0.488,-20.508,-40.039,-36.133,-145.020
1688303749.788,13.184,-21.973,-37.598,-26.855,23.438
1688303749.791,-0.977,-32.715,-30.273,-15.625,320.801
1688303749.795,-44.434,-38.086,-32.227,-20.020,312.988
1688303749.799,-29.297,-31.738,-40.527,-34.668,-69.824
1688303749.803,-10.742,-41.016,-39.062,-38.574,-111.328
1688303749.807,-24.414,-34.180,-31.738,-33.203,43.945
1688303749.810,-58.105,-18.555,-37.109,-19.043,-98.633
1688303749.814,-83.984,-21.973,-36.133,-7.812,-112.793
1688303749.818,-59.082,-32.715,-29.297,-10.742,105.469
1688303749.822,-36.621,-33.203,-29.297,-26.855,23.438
1688303749.826,-26.855,-36.621,-32.227,-29.785,-234.863
1688303749.830,-37.598,-39.062,-36.133,-18.555,-134.277
1688303749.834,-57.617,-36.621,-36.133,-7.812,251.465
1688303749.837,-39.551,-45.410,-34.668,-24.414,322.754
1688303749.841,-20.508,-46.387,-31.250,-50.293,-97.168
1688303749.845,-22.461,-34.180,-29.785,-35.156,-262.695
1688303749.849,-33.691,-23.926,-31.250,-2.930,-133.789
1688303749.853,-53.223,-29.297,-33.203,-1.953,11.719
1688303749.854,-42.480,-38.086,-33.691,-27.832,-27.344
1688303749.858,-15.625,-42.969,-35.156,-33.203,-115.723
1688303749.862,-9.766,-40.039,-39.062,-40.527,-135.742
1688303749.866,-20.508,-31.738,-37.109,-34.180,-72.754
1688303749.870,-46.387,-33.203,-31.250,-3.906,30.762
1688303749.874,-43.945,-34.180,-29.785,-9.277,52.734
1688303749.878,-17.578,-34.668,-31.738,-34.668,254.395
1688303749.881,-12.207,-30.273,-35.156,-37.598,119.629
1688303749.885,-19.531,-25.391,-33.203,-20.508,-175.293
1688303749.889,-48.340,-35.156,-34.668,-9.277,26.367
1688303749.893,-52.734,-37.598,-36.133,-22.461,68.848
1688303749.897,-28.809,-27.344,-34.668,-40.039,-142.090
1688303749.899,-13.672,-22.461,-34.180,-49.805,-259.766
1688303749.903,-5.859,-27.344,-31.250,-29.297,-52.734
1688303749.907,-32.715,-35.645,-32.227,-5.859,196.777
1688303749.911,-48.828,-42.969,-33.203,-10.254,86.914
1688303749.915,-21.484,-41.016,-26.855,-26.855,-76.660
1688303749.919,-9.766,-30.762,-24.414,-44.922,-52.246
1688303749.923,-16.113,-28.809,-25.879,-23.926,41.016
1688303749.926,-40.527,-24.414,-26.855,-11.719,122.070
1688303749.930,-52.734,-22.949,-31.738,-30.273,72.266
1688303749.934,-25.879,-30.273,-27.344,-23.926,83.496
1688303749.938,-16.602,-26.367,-28.809,-32.715,180.176
1688303749.942,-16.113,-21.484,-36.621,-39.062,-103.516
1688303749.958,-32.227,-34.180,-34.668,-13.184,-102.539
1688303749.962,-60.547,-39.062,-39.551,-10.742,23.438
1688303749.966,-25.879,-30.273,-41.504,-31.738,-103.027
1688303749.970,6.836,-23.926,-27.832,-37.598,-236.816
1688303749.974,-2.930,-35.645,-23.438,-26.367,-192.383
1688303749.978,-26.855,-48.828,-24.414,-5.859,-1.953
1688303749.982,-53.711,-47.363,-22.949,-2.930,73.242
1688303749.985,-35.645,-41.504,-20.996,-27.832,-61.035
1688303749.989,-18.555,-39.062,-19.043,-48.340,-132.812
1688303749.993,-16.602,-45.410,-17.090,-22.949,311.035
1688303749.997,-36.621,-48.340,-22.949,-16.602,403.809
1688303750.001,-60.059,-40.527,-29.297,-13.184,-18.555
1688303750.003,-35.156,-47.852,-31.250,-15.137,-80.566
1688303750.007,-13.672,-46.875,-31.250,-41.016,-183.105
1688303750.011,-17.090,-35.156,-30.273,-51.270,-300.781
1688303750.015,-31.250,-33.691,-32.227,-31.250,-214.355
1688303750.019,-56.152,-35.156,-29.297,-4.395,44.434
1688303750.023,-48.340,-41.016,-32.715,-7.812,157.227
1688303750.027,-13.672,-45.410,-38.574,-40.039,-43.945
1688303750.030,-2.930,-39.062,-29.297,-50.781,-228.027
1688303750.034,-21.484,-39.551,-20.020,-26.855,74.707
1688303750.038,-52.734,-39.062,-25.879,-12.695,319.824
1688303750.042,-48.340,-32.227,-34.180,-25.879,-39.551
1688303750.046,-15.137,-35.645,-34.668,-45.898,-142.578
1688303750.048,-9.277,-38.086,-32.227,-43.457,6.836
1688303750.052,-24.414,-37.109,-32.227,-29.785,-26.855
1688303750.056,-48.340,-27.344,-25.879,-16.113,-49.316
1688303750.060,-45.410,-18.066,-20.508,-17.090,35.156
1688303750.064,-14.648,-23.438,-25.391,-45.410,-97.168
1688303750.068,-10.742,-28.809,-28.320,-51.270,-144.043
1688303750.072,-18.555,-34.180,-30.762,-24.902,-54.199
1688303750.075,-36.621,-46.387,-35.156,-3.418,-0.977
1688303750.079,-45.898,-49.805,-32.227,-0.488,454.102
1688303750.083,-28.809,-27.832,-27.832,-20.020,344.238
1688303750.087,-14.648,-16.602,-28.320,-42.480,-248.535
1688303750.091,-18.066,-30.273,-32.227,-27.344,-173.340
1688303750.095,-38.574,-30.273,-36.133,2.930,31.250
1688303750.099,-38.086,-40.039,-39.551,-3.418,-15.625
1688303750.103,-28.320,-56.641,-37.109,-33.203,-71.289
1688303750.107,-18.066,-58.105,-27.344,-33.691,-12.207
1688303750.111,-7.812,-43.945,-27.832,-18.555,-44.434
1688303750.115,-37.598,-32.715,-32.227,-5.371,-50.293
1688303750.119,-66.895,-33.691,-32.715,-2.930,64.453
1688303750.122,-43.457,-33.691,-30.273,-26.855,146.484
1688303750.126,-20.508,-29.785,-36.133,-43.457,95.703
1688303750.130,-20.508,-20.020,-44.434,-42.969,-213.867
1688303750.134,-35.645,-28.809,-31.250,-20.020,-142.578
1688303750.138,-57.129,-31.738,-28.809,-12.207,23.438
1688303750.138,-48.828,-29.297,-36.621,-42.969,-26.367
1688303750.142,-44.434,-40.039,-37.109,-61.035,-207.520
1688303750.146,-37.598,-59.082,-35.156,-45.898,-198.730
1688303750.150,-41.992,-62.500,-28.809,-27.344,-79.102
1688303750.154,-63.477,-43.945,-31.250,-12.695,-8.789
1688303750.158,-51.758,-41.992,-34.668,-29.297,57.129
1688303750.162,-33.203,-39.062,-32.715,-55.176,6.836
1688303750.165,-31.250,-41.992,-33.691,-47.363,190.918
1688303750.169,-40.039,-41.504,-31.250,-24.902,236.328
1688303750.173,-57.129,-24.414,-32.227,-21.973,-2.441
1688303750.177,-41.992,-24.902,-33.691,-25.879,34.180
1688303750.181,-20.508,-34.668,-32.715,-30.762,22.949
1688303750.183,-18.066,-35.645,-34.180,-40.039,-198.730
1688303750.187,-13.184,-37.598,-26.367,-20.020,-187.500
1688303750.191,-37.598,-41.016,-23.438,-4.395,11.719
1688303750.195,-47.363,-44.434,-26.855,-17.090,2.930
1688303750.199,-20.996,-41.016,-32.715,-33.203,-152.344
1688303750.203,-10.742,-36.621,-36.621,-30.273,-157.715
1688303750.207,-9.277,-34.180,-27.832,-16.113,213.867
1688303750.210,-26.367,-33.691,-32.715,-1.465,462.402
1688303750.214,-27.832,-29.785,-36.133,2.441,84.961
1688303750.218,-21.484,-39.551,-23.926,-20.996,-216.797
1688303750.222,-22.949,-47.852,-21.484,-48.340,-187.988
1688303750.226,-26.367,-37.598,-27.832,-34.180,-109.863
1688303750.228,-52.734,-34.668,-31.738,-8.301,-83.496
1688303750.232,-61.035,-44.922,-32.227,-20.508,-37.109
1688303750.236,-31.738,-45.410,-40.039,-43.457,-94.727
1688303750.240,-21.484,-40.527,-46.387,-45.898,-201.172
1688303750.244,-22.461,-40.527,-36.621,-36.133,-213.379
1688303750.248,-39.062,-43.945,-34.668,-19.531,-26.855
1688303750.252,-49.316,-50.293,-39.551,-15.137,356.934
1688303750.255,-25.391,-50.293,-30.762,-42.969,145.508
1688303750.259,-12.695,-46.387,-18.066,-54.688,-315.918
1688303750.263,-1.465,-43.457,-19.531,-43.457,-90.820
1688303750.267,-22.949,-41.504,-20.508,-12.695,394.043
1688303750.271,-48.828,-33.203,-25.391,-6.348,199.707
1688303750.274,-27.344,-27.832,-38.574,-34.668,-199.219
1688303750.278,-18.555,-32.227,-43.945,-42.480,-123.047
1688303750.282,-22.949,-33.203,-42.969,-31.738,-65.918
1688303750.286,-31.250,-28.809,-33.203,-12.207,-130.859
1688303750.290,-47.363,-35.645,-28.320,-5.371,-69.824
1688303750.294,-33.203,-38.086,-30.762,-28.809,50.781
1688303750.298,-12.207,-39.551,-26.367,-39.551,-12.207
1688303750.301,-4.395,-31.738,-32.715,-24.902,-167.480
1688303750.305,-10.254,-20.020,-35.156,-1.465,-185.059
1688303750.309,-37.598,-36.133,-22.461,0.977,130.859
1688303750.313,-42.480,-40.527,-16.113,-24.902,110.840
1688303750.317,-26.855,-27.832,-15.137,-48.828,-286.621
1688303750.334,-15.625,-24.414,-20.996,-47.852,-265.137
1688303750.338,-22.949,-29.785,-30.273,-16.113,-56.152
1688303750.342,-37.109,-37.109,-45.410,3.418,58.105
1688303750.346,-14.160,-31.738,-44.434,-22.949,-69.336
1688303750.350,13.184,-29.297,-26.855,-32.227,-207.031
1688303750.354,10.742,-30.762,-28.809,-25.879,-77.148
1688303750.358,-4.395,-26.855,-41.016,-13.672,100.586
1688303750.361,-40.527,-32.227,-31.250,4.395,86.914
1688303750.365,-39.551,-35.156,-18.555,-10.254,-18.066
1688303750.369,-24.902,-20.020,-20.996,-34.668,184.570
1688303750.373,-43.457,-17.578,-7.324,-44.922,63.965
1688303750.377,-27.344,-24.414,0.977,-20.508,-219.238
1688303750.380,-42.480,-17.090,-20.508,-3.906,-39.062
1688303750.384,-83.984,-12.695,-38.086,-50.781,-18.066
1688303750.388,-82.520,-5.371,-41.016,-96.680,-155.273
1688303750.392,-62.988,3.418,-40.527,-95.215,-201.172
1688303750.396,-67.383,15.625,-43.945,-90.332,-30.762
1688303750.400,-103.516,14.648,-49.805,-84.473,133.789
1688303750.404,-124.512,-12.695,-37.109,-85.449,109.375
1688303750.407,-121.094,-12.695,-23.926,-135.742,-112.793
1688303750.411,-93.750,5.371,-48.828,-148.926,-57.129
1688303750.415,-86.426,11.230,-90.820,-125.488,273.926
1688303750.419,-113.770,9.766,-71.289,-127.930,104.980
1688303750.423,-113.770,2.441,-32.227,-121.582,-27.832
1688303750.424,-68.359,3.418,-28.809,-127.441,-81.055
1688303750.428,-55.176,7.324,-31.738,-132.324,-165.527
1688303750.432,-66.406,14.160,-25.391,-110.352,-184.082
1688303750.436,-67.871,20.020,-37.598,-79.102,-42.480
1688303750.440,-70.801,9.277,-49.805,-72.266,103.516
1688303750.444,-47.363,17.578,-46.387,-85.449,46.875
1688303750.448,-16.602,18.555,-58.594,-91.309,-70.312
1688303750.451,-0.488,2.441,-55.664,-81.055,-48.340
1688303750.455,-14.160,-3.418,-33.691,-50.293,459.961
1688303750.459,-38.574,-15.137,-34.180,-31.738,588.867
1688303750.463,-35.156,-17.578,-37.598,-53.223,-14.160
1688303750.467,-23.926,-12.207,-34.180,-63.965,-236.816
1688303750.469,-9.766,-24.902,-48.340,-41.504,-190.430
1688303750.473,-8.301,-33.691,-64.941,-7.812,-125.000
1688303750.477,-20.996,-21.973,-45.898,9.277,-30.273
1688303750.481,-11.719,-21.484,-27.344,-7.812,-32.715
1688303750.485,-2.930,-26.367,-29.785,-29.297,-169.922
1688303750.489,6.836,-20.508,-34.180,-33.691,-184.570
1688303750.493,-0.488,-16.602,-39.551,-13.672,-6.348
1688303750.496,-14.648,-27.832,-36.133,9.277,279.297
1688303750.500,-2.930,-41.504,-34.668,-2.930,375.000
1688303750.504,3.906,-36.621,-40.039,-32.715,-104.492
1688303750.508,-4.395,-34.668,-39.551,-38.086,-334.961
1688303750.512,-9.277,-34.668,-33.203,-20.508,-147.949
1688303750.513,-16.113,-39.551,-34.180,8.301,-21.973
1688303750.517,-11.719,-46.387,-45.898,-1.465,-71.777
1688303750.521,2.930,-36.621,-42.480,-33.691,-120.605
1688303750.525,1.465,-35.156,-24.902,-32.715,-116.699
1688303750.529,2.441,-39.551,-21.973,-7.324,-62.012
1688303750.533,-12.207,-41.016,-24.414,15.137,41.016
1688303750.537,-14.648,-47.363,-20.508,9.277,137.695
1688303750.540,7.324,-51.758,-29.297,-5.859,252.930
1688303750.544,0.000,-40.039,-35.645,-13.184,29.297
1688303750.548,-10.742,-26.855,-32.227,-5.371,-154.297
1688303750.552,-21.484,-26.855,-32.227,-5.371,76.172
1688303750.556,-8.301,-41.504,-37.598,4.883,271.484
1688303750.558,22.461,-36.133,-34.180,-14.648,-3.906
1688303750.562,24.902,-18.555,-28.809,-41.504,-281.738
1688303750.566,21.484,-20.508,-25.391,-18.555,-180.664
1688303750.570,-9.766,-19.043,-23.438,6.348,-37.598
1688303750.574,-39.062,-22.949,-25.879,1.953,-26.855
1688303750.578,-14.648,-30.762,-32.715,-28.809,-65.430
1688303750.582,8.789,-38.574,-39.062,-32.227,122.559
1688303750.585,0.977,-44.922,-33.691,-3.906,204.102
1688303750.589,-22.949,-39.062,-32.715,3.906,-18.555
1688303750.593,-39.062,-36.133,-36.621,4.883,-60.547
1688303750.597,-25.879,-26.367,-33.691,-8.301,-139.160
1688303750.601,-12.695,-9.766,-31.250,-22.461,-276.367
1688303750.605,-5.371,-7.324,-33.203,-8.789,-273.926
1688303750.609,-13.184,-24.414,-30.273,-1.465,-118.652
1688303750.613,-31.250,-34.668,-29.785,10.254,83.496
1688303750.617,-2.930,-15.625,-33.203,1.465,-21.973
1688303750.621,12.695,-21.484,-25.879,-19.043,-266.602
1688303750.625,-13.184,-37.598,-19.043,-15.137,-201.172
1688303750.629,-37.109,-38.574,-21.484,2.441,169.922
1688303750.632,-54.688,-38.574,-24.902,7.324,173.340
1688303750.636,-40.527,-50.781,-24.902,-20.996,-12.207
1688303750.640,-5.371,-52.246,-25.879,-41.992,1.465
1688303750.644,-1.953,-28.809,-26.855,-28.809,81.055
1688303750.648,-21.484,-23.926,-28.809,-1.953,26.367
1688303750.649,-37.598,-30.762,-32.227,10.742,-38.086
1688303750.653,-31.738,-25.879,-38.574,-9.766,-33.691
1688303750.657,-16.113,-27.344,-38.086,-35.645,-138.184
1688303750.661,-17.578,-27.832,-30.273,-31.738,-196.289
1688303750.665,-27.832,-36.621,-28.320,-12.695,-163.574
1688303750.669,-34.180,-54.688,-30.762,3.906,238.281
1688303750.673,-34.668,-59.570,-39.551,-12.695,490.234
1688303750.676,-26.367,-47.363,-42.480,-48.828,-33.203
1688303750.680,-5.859,-34.668,-42.969,-48.340,-274.902
1688303750.684,-18.066,-32.715,-42.480,-26.367,-96.680
1688303750.688,-45.898,-26.367,-36.621,-12.695,41.992
1688303750.692,-39.062,-15.137,-36.621,-19.531,-35.156
1688303750.708,-20.508,-29.297,-42.480,-39.062,-133.301
1688303750.712,-20.996,-43.457,-43.945,-45.898,-159.668
1688303750.716,-28.809,-23.926,-26.367,-26.367,-175.293
1688303750.720,-41.504,-17.090,-14.648,-18.555,-53.711
1688303750.724,-43.457,-21.484,-27.832,-33.203,53.711
1688303750.728,-28.809,-20.508,-34.180,-53.711,12.207
1688303750.732,-22.461,-31.250,-33.691,-56.641,-113.281
1688303750.735,-15.137,-54.199,-33.203,-25.391,-74.219
1688303750.739,-13.184,-72.754,-28.320,5.371,142.090
1688303750.743,-22.461,-56.152,-41.504,6.836,491.211
1688303750.747,-30.273,-14.160,-53.223,-33.203,301.758
1688303750.751,-23.926,-0.488,-38.574,-60.059,-222.168
1688303750.754,-15.625,-15.137,-23.926,-48.340,-192.871
1688303750.758,-28.320,-23.926,-18.555,-20.508,-12.695
1688303750.762,-40.527,-32.715,-18.555,-11.230,-0.488
1688303750.766,-31.250,-44.434,-23.438,-33.203,-98.633
1688303750.770,-15.137,-36.621,-23.926,-50.293,-172.363
1688303750.774,-6.836,-30.273,-22.949,-35.645,-35.645
1688303750.778,-16.113,-40.039,-22.461,-2.930,99.121
1688303750.781,-31.738,-40.039,-23.438,5.371,34.180
1688303750.785,-23.438,-31.738,-29.297,-14.160,108.887
1688303750.789,-6.348,-20.020,-30.762,-33.691,206.543
1688303750.793,-4.883,-19.043,-33.691,-20.508,-34.180
1688303750.797,-18.066,-27.832,-37.109,0.488,-65.918
1688303750.798,-40.039,-38.086,-31.250,0.000,14.160
1688303750.802,-30.273,-45.898,-20.020,-20.996,-89.844
1688303750.806,-7.812,-32.715,-18.066,-24.902,-254.883
1688303750.810,-4.883,-21.973,-39.062,-14.160,-288.574
1688303750.814,-22.461,-29.785,-37.598,-4.395,-124.023
1688303750.818,-66.406,-40.527,-11.230,-10.254,47.363
1688303750.822,-78.125,-34.668,-4.883,-54.199,58.105
1688303750.825,-57.617,-30.762,-13.672,-76.660,-114.746
1688303750.829,-57.617,-36.133,-14.160,-67.383,216.797
1688303750.833,-78.613,-33.203,-13.184,-52.246,362.793
1688303750.837,-104.980,-34.180,-18.555,-51.270,-17.090
1688303750.841,-112.305,-41.016,-23.926,-86.914,11.719
1688303750.843,-94.727,-42.480,-18.555,-104.492,-39.062
1688303750.847,-86.914,-45.898,-12.695,-94.238,-228.516
1688303750.851,-88.867,-40.039,-16.602,-80.078,-227.539
1688303750.855,-91.797,-44.922,-20.996,-53.711,90.820
1688303750.859,-76.172,-56.641,-27.344,-45.410,219.238
1688303750.863,-46.875,-52.246,-31.250,-64.941,-28.809
1688303750.867,-33.691,-49.316,-27.344,-62.012,-143.555
1688303750.870,-29.785,-49.805,-26.855,-29.297,84.473
1688303750.874,-39.062,-47.852,-31.738,-0.977,292.480
1688303750.878,-40.527,-47.852,-35.645,-13.672,-6.348
1688303750.882,-32.227,-51.270,-37.109,-33.203,-190.918
1688303750.886,-28.320,-38.574,-39.062,-40.527,-213.867
1688303750.920,-20.508,-23.926,-33.203,-31.250,-120.605
1688303750.924,-39.062,-22.949,-26.855,-11.230,44.434
1688303750.928,-43.945,-34.180,-28.320,-7.324,20.508
1688303750.932,-21.973,-36.133,-27.832,-23.438,-32.715
1688303750.936,-11.719,-30.762,-26.367,-39.062,-143.555
1688303750.940,-11.230,-44.922,-26.367,-29.297,-148.926
1688303750.944,-16.113,-47.363,-27.832,3.418,40.527
1688303750.947,-24.902,-33.203,-25.879,11.230,308.105
1688303750.951,-21.973,-34.180,-32.715,-31.250,116.699
1688303750.955,-2.441,-37.109,-29.297,-43.457,-254.883
1688303750.959,2.930,-48.340,-20.996,-15.137,-147.461
1688303750.963,-29.297,-60.547,-21.973,12.207,59.570
1688303750.933,-57.129,-43.945,-32.227,13.184,22.461
1688303750.937,-39.062,-17.090,-33.203,-17.090,-102.539
1688303750.941,-20.020,-15.137,-35.645,-37.598,-113.281
1688303750.945,-9.766,-19.531,-47.363,-26.367,-37.598
1688303750.949,-18.555,-15.625,-32.715,5.859,-39.551
1688303750.953,-37.109,-27.344,-10.742,19.043,73.730
1688303750.957,-29.785,-52.246,-11.230,-6.836,191.895
1688303750.960,-11.230,-66.406,-15.137,-25.879,-14.160
1688303750.964,-0.488,-65.918,-19.531,-25.391,-192.871
1688303750.968,-16.113,-34.668,-33.203,-1.953,-134.766
1688303750.972,-42.969,-13.184,-43.457,10.254,7.812
1688303750.976,-30.762,-15.625,-43.945,-11.230,-14.160
1688303750.978,-5.371,-19.531,-37.598,-37.598,-167.480
1688303750.982,-1.953,-18.066,-19.043,-34.180,-245.605
1688303750.986,-4.883,-25.391,-10.254,-13.672,146.973
1688303750.990,-31.738,-28.320,-18.555,-9.766,412.109
1688303750.994,-41.504,-19.531,-30.762,-23.926,-26.367
1688303750.998,-18.555,-20.508,-39.062,-29.297,-150.879
1688303751.002,-6.836,-25.879,-44.434,-27.832,44.434
1688303751.005,-23.926,-22.949,-38.086,-12.695,59.082
1688303751.009,-44.434,-29.297,-26.367,-5.371,45.898
1688303751.013,-30.273,-39.551,-24.414,-10.254,-6.836
1688303751.017,-7.324,-49.805,-27.344,-8.789,151.367
1688303751.021,-11.719,-42.480,-29.785,-15.625,4.395
1688303751.024,-27.344,-22.949,-29.297,-14.648,-280.273
1688303751.028,-45.898,-22.461,-33.203,15.625,-20.996
1688303751.032,-40.039,-23.926,-38.574,4.883,49.316
1688303751.036,-19.531,-37.598,-45.410,-33.203,-142.578
1688303751.040,-20.508,-51.758,-40.527,-35.645,-255.371
1688303751.044,-25.391,-37.109,-25.879,-17.578,9.766
1688303751.048,-45.898,-29.785,-27.832,2.930,248.535
1688303751.051,-49.316,-31.738,-22.949,-6.836,104.004
1688303751.055,-21.973,-42.480,-13.672,-23.438,-58.594
1688303751.059,0.488,-39.062,-21.484,-29.297,30.762
1688303751.063,7.812,-18.066,-34.668,-17.578,146.484
1688303751.067,-13.672,-17.090,-37.598,1.465,-23.438
1688303751.083,-46.875,-17.090,-41.016,-8.301,-37.109
1688303751.087,-42.480,-5.859,-36.621,-43.945,-91.309
1688303751.091,-24.414,4.395,-30.273,-50.781,-223.145
1688303751.095,-11.230,-7.324,-60.547,-26.367,-228.027
1688303751.099,-23.926,-44.434,-46.875,-0.488,-19.531
1688303751.103,-39.062,-67.383,11.230,10.254,197.266
1688303751.107,-30.273,-48.828,-1.953,-17.090,40.527
1688303751.110,-20.020,-11.719,-36.621,-47.363,-196.289
1688303751.114,-21.484,-3.418,-15.625,-35.645,-93.750
1688303751.118,-28.809,-17.578,-5.859,6.836,389.160
1688303751.122,-38.086,-42.480,-14.160,15.137,370.117
1688303751.126,-51.270,-50.293,-16.602,-24.414,-95.703
1688303751.128,-40.039,-41.504,-24.902,-35.156,-174.805
1688303751.132,-26.367,-30.273,-41.992,-30.762,-127.930
1688303751.136,-38.086,-22.949,-36.621,-26.855,-181.641
1688303751.140,-55.664,-28.809,-23.438,-20.020,-53.223
1688303751.144,-46.875,-37.109,-31.250,-40.039,6.836
1688303751.148,-20.996,-50.781,-42.480,-56.641,-49.805
1688303751.152,-15.137,-57.129,-38.086,-49.805,-46.387
1688303751.155,-33.691,-49.805,-42.969,-30.762,-109.863
1688303751.159,-48.828,-53.223,-51.270,-14.160,176.270
1688303751.163,-35.156,-55.664,-37.598,-17.578,328.613
1688303751.167,-23.926,-36.621,-27.344,-42.480,-141.602
1688303751.171,-19.043,-21.484,-33.203,-48.340,-255.371
1688303751.174,-16.602,-16.113,-39.062,-19.043,-72.754
1688303751.178,-36.621,-21.973,-24.414,0.488,49.805
1688303751.182,-45.898,-28.809,-16.113,-24.414,-4.883
1688303751.186,-36.133,-38.574,-24.902,-61.523,-187.988
1688303751.190,-29.297,-49.316,-29.785,-51.270,-132.324
1688303751.194,-32.715,-32.715,-32.227,-17.090,17.578
1688303751.198,-54.688,-25.391,-34.668,-0.488,68.359
1688303751.201,-55.176,-28.320,-31.738,-16.113,-35.645
1688303751.205,-23.926,-41.992,-33.203,-30.273,205.566
1688303751.209,-15.137,-49.805,-38.086,-21.484,258.301
1688303751.213,-23.926,-29.297,-36.621,-17.090,-160.156
1688303751.217,-45.410,-28.320,-43.945,-16.113,-48.828
1688303751.218,-52.246,-40.527,-41.504,-20.020,-6.348
1688303751.222,-29.297,-44.434,-30.273,-38.574,-230.957
1688303751.226,-18.555,-36.621,-25.391,-47.363,-299.316
1688303751.230,-20.996,-31.250,-26.367,-23.438,-68.848
1688303751.234,-38.086,-33.203,-34.668,-10.254,38.574
1688303751.238,-56.641,-31.738,-37.598,-15.625,42.969
1688303751.242,-43.945,-30.762,-39.062,-42.969,-40.527
1688303751.245,-25.391,-43.457,-39.062,-48.340,15.137
1688303751.249,-20.508,-54.199,-36.133,-29.785,171.387
1688303751.253,-36.621,-43.457,-39.062,-33.203,-22.949
1688303751.257,-44.434,-31.250,-42.480,-27.344,-38.086
1688303751.261,-25.391,-21.484,-41.992,-32.715,-97.656
1688303751.263,-15.625,-25.879,-37.109,-51.758,-182.129
1688303751.267,-27.832,-39.062,-37.109,-44.922,-196.777
1688303751.271,-48.828,-37.598,-34.180,-15.137,-88.379
1688303751.275,-60.547,-31.738,-31.738,-15.625,43.945
1688303751.279,-49.805,-25.879,-29.785,-41.016,-18.555
1688303751.283,-25.391,-24.414,-28.809,-44.922,-94.727
1688303751.287,-21.484,-35.156,-36.133,-49.805,-115.723
1688303751.290,-38.574,-37.109,-38.574,-25.391,310.547
1688303751.294,-47.363,-28.809,-34.668,-3.418,477.051
1688303751.298,-34.180,-20.996,-32.715,-33.691,22.461
1688303751.302,-16.602,-30.273,-30.762,-44.922,-141.113
1688303751.306,-12.207,-35.156,-41.992,-39.551,-23.926
1688303751.308,-20.508,-31.250,-59.570,-20.020,-96.680
1688303751.312,-22.949,-55.176,-49.316,-0.488,-109.863
1688303751.316,-15.625,-52.734,-34.180,-25.391,-57.617
1688303751.320,-11.719,-9.766,-41.016,-51.758,-140.625
1688303751.324,0.977,8.789,-48.828,-53.711,-170.898
1688303751.328,-1.465,-6.348,-32.715,-33.691,-53.711
1688303751.332,-28.809,-27.832,-20.996,-13.184,322.266
1688303751.335,-24.902,-26.855,-13.184,-23.926,372.070
1688303751.339,-2.930,-50.293,-22.461,-37.598,-93.262
1688303751.343,-10.254,-72.754,-44.922,-33.203,-203.125
1688303751.347,-28.809,-34.668,-40.527,-19.531,-64.941
1688303751.351,-67.383,-10.254,-32.227,-9.277,24.902
1688303751.353,-77.637,-12.207,-25.879,-29.785,-56.152
1688303751.357,-44.434,-20.020,-22.461,-55.176,-145.996
1688303751.361,-27.344,-28.809,-25.879,-55.664,-150.391
1688303751.365,-32.227,-29.297,-32.227,-39.551,-116.211
1688303751.369,-48.828,-36.133,-40.039,-16.113,-31.738
1688303751.373,-41.016,-67.383,-46.875,-10.254,94.238
1688303751.377,-12.695,-96.680,-38.574,-31.738,270.996
1688303751.380,-26.367,-62.988,-36.133,-63.965,55.176
1688303751.384,-48.340,-10.254,-32.227,-64.453,-163.574
1688303751.388,-48.828,4.883,-24.414,-18.066,66.895
1688303751.392,-41.016,-33.203,-33.203,1.953,224.121
1688303751.396,-5.371,-51.270,-66.895,-18.066,38.574
1688303751.400,12.207,-23.438,-70.312,-28.320,-263.672
1688303751.404,-12.695,-13.184,-32.715,-27.832,-130.859
1688303751.408,-50.781,-5.859,-7.812,-24.414,89.844
1688303751.412,-61.523,-7.324,-1.465,-38.086,9.766
1688303751.416,-32.715,-26.367,-10.254,-53.711,-124.512
1688303751.420,-17.578,-31.738,-24.414,-49.805,9.766
1688303751.424,-13.672,-25.879,-36.133,-39.551,144.531
1688303751.427,-24.902,-47.363,-35.156,-14.160,-51.758
1688303751.431,-46.387,-57.617,-34.180,-10.742,-131.836
1688303751.435,-37.109,-40.527,-35.156,-28.320,19.043
1688303751.439,-9.277,-24.902,-31.738,-38.086,-18.555
1688303751.443,0.488,-16.113,-27.832,-40.039,-224.609
1688303751.458,-17.578,-22.949,-22.949,-9.766,-155.762
1688303751.462,-37.598,-19.531,-24.414,3.418,34.180
1688303751.466,-21.484,-18.555,-36.621,-29.297,42.969
1688303751.470,-1.465,-29.785,-47.363,-39.551,-175.293
1688303751.474,-4.395,-43.945,-37.109,-33.691,-202.148
1688303751.478,-22.949,-46.387,-31.250,-19.531,244.141
1688303751.482,-48.828,-30.762,-37.109,-8.301,354.980
1688303751.485,-36.133,-17.090,-28.809,-35.156,-27.832
1688303751.489,-10.742,-26.855,-25.391,-56.641,-98.633
1688303751.493,7.324,-44.922,-29.297,-38.086,216.309
1688303751.497,-6.348,-33.691,-30.762,-12.695,177.246
1688303751.501,-40.039,-15.137,-32.227,-6.836,-97.168
1688303751.503,-40.527,-8.301,-31.250,-29.785,-118.164
1688303751.507,-23.438,-9.277,-37.598,-54.199,-213.867
1688303751.511,-14.648,-22.949,-37.109,-55.664,-270.508
1688303751.515,-20.996,-35.645,-28.809,-28.320,-209.961
1688303751.519,-41.016,-52.734,-32.227,0.977,62.988
1688303751.523,-48.340,-46.387,-34.668,-20.020,167.480
1688303751.527,-21.973,-19.531,-23.438,-37.598,-14.160
1688303751.530,-12.207,-20.020,-26.367,-35.645,-223.145
1688303751.534,-21.484,-29.785,-41.016,-28.320,-24.414
1688303751.538,-48.828,-43.457,-41.992,-5.371,276.367
1688303751.542,-55.176,-50.781,-31.738,-8.301,13.184
1688303751.546,-24.902,-52.246,-25.391,-36.621,-169.922
1688303751.548,-15.137,-57.129,-28.809,-51.270,-203.125
1688303751.552,-20.508,-44.922,-37.109,-29.297,-153.320
1688303751.556,-40.527,-28.809,-44.434,-4.883,-91.797
1688303751.560,-63.965,-24.902,-49.316,-23.438,-36.133
1688303751.564,-50.293,-23.438,-37.109,-46.387,-82.031
1688303751.568,-24.414,-25.879,-24.902,-46.875,-96.191
1688303751.572,-8.789,-50.781,-35.645,-30.762,-35.645
1688303751.575,-16.602,-71.777,-49.316,2.930,35.645
1688303751.579,-34.668,-55.664,-44.434,21.973,438.477
1688303751.583,-33.203,-19.043,-34.668,-18.555,470.215
1688303751.587,-16.113,7.324,-27.344,-55.176,-114.746
1688303751.591,-10.742,6.836,-17.578,-42.480,-262.207
1688303751.593,-29.785,-4.883,-9.277,-21.484,-103.027
1688303751.597,-38.574,-16.113,-9.766,-13.672,-63.477
1688303751.601,-22.461,-20.996,-21.484,-29.785,-119.629
1688303751.605,-4.883,-21.973,-26.855,-42.969,-157.227
1688303751.609,-2.930,-19.531,-29.297,-23.438,-169.434
1688303751.613,-27.344,-29.785,-31.738,0.000,-68.359
1688303751.617,-47.363,-57.129,-27.832,-8.301,62.988
1688303751.620,-28.809,-54.199,-35.645,-33.203,164.062
1688303751.624,-20.508,-23.926,-41.992,-48.828,127.441
1688303751.628,-19.531,-24.414,-34.668,-30.762,-127.441
1688303751.632,-13.184,-34.180,-37.109,-5.371,-120.117
1688303751.636,-41.992,-20.020,-36.133,-3.418,120.117
1688303751.638,-34.668,-23.926,-28.809,-18.555,116.211
1688303751.642,-4.883,-44.434,-34.668,-33.203,-144.531
1688303751.646,-13.672,-43.457,-46.875,-38.574,-173.828
1688303751.650,-21.484,-16.113,-54.199,-14.160,-33.691
1688303751.654,-33.691,3.906,-39.551,17.090,45.410
1688303751.658,-35.645,-1.465,-28.320,-15.137,-4.883
1688303751.662,-11.230,-14.648,-31.738,-42.969,-49.316
1688303751.665,2.441,-16.602,-34.180,-30.273,-32.715
1688303751.669,-9.277,-24.902,-35.156,-15.625,23.926
1688303751.673,-27.344,-32.715,-29.785,5.371,74.707
1688303751.677,-17.090,-48.828,-34.180,2.930,28.809
1688303751.681,24.902,-74.219,-55.664,-1.465,275.391
1688303751.684,31.250,-57.129,-68.848,-5.859,168.945
1688303751.688,24.414,-57.617,-58.105,13.672,-175.781
1688303751.692,5.859,-20.508,-57.129,48.340,12.695
1688303751.696,-35.645,21.973,-46.875,-5.371,63.477
1688303751.700,-38.086,2.930,-8.301,-62.988,-86.426
1688303751.704,-26.855,-20.020,-1.953,-61.523,-104.980
1688303751.708,-27.344,-23.438,-13.672,-52.246,71.777
1688303751.711,-40.039,-2.930,-21.484,-19.043,276.367
1688303751.715,-39.551,4.395,-33.203,-10.742,12.207
1688303751.719,-6.348,-13.184,-40.039,-28.320,-182.129
1688303751.723,-0.488,-28.809,-39.062,-35.156,-162.109
1688303751.727,-7.324,-36.621,-41.016,-28.320,-142.578
1688303751.730,-17.090,-36.621,-38.574,-9.277,-78.613
1688303751.734,-31.738,-29.785,-32.227,-2.441,13.672
1688303751.738,-22.461,-24.414,-34.668,-23.926,13.672
1688303751.742,-15.625,-17.578,-36.133,-54.688,-162.598
1688303751.746,-10.742,-7.324,-35.645,-34.668,-240.723
1688303751.750,-19.043,-18.555,-34.668,-0.977,-18.555
1688303751.754,-42.969,-40.039,-35.156,1.465,450.195
1688303751.757,-27.344,-43.945,-36.133,-19.531,253.418
1688303751.761,3.906,-46.875,-35.645,-33.691,-250.977
1688303751.765,14.648,-46.387,-49.805,-21.484,-144.531
1688303751.769,0.977,-38.086,-45.410,2.441,75.684
1688303751.773,-40.527,-9.766,-28.320,3.906,43.457
1688303751.788,-37.109,8.301,-27.344,-23.438,-149.902
1688303751.792,-10.742,0.977,-26.855,-41.992,-102.051
1688303751.796,-14.160,-10.742,-32.227,-35.156,-65.918
1688303751.800,-30.762,-22.461,-45.410,-7.812,-141.602
1688303751.804,-50.293,-42.969,-41.504,2.930,-88.867
1688303751.808,-34.668,-53.223,-31.250,-10.742,129.883
1688303751.812,3.906,-41.016,-31.250,-20.508,185.059
1688303751.815,10.254,-62.500,-33.691,-25.391,-96.680
1688303751.819,-20.020,-52.734,-40.039,-15.137,-143.066
1688303751.823,-46.387,-6.836,-51.758,0.488,140.625
1688303751.827,-43.457,-8.301,-44.922,-26.367,155.762
1688303751.831,-32.715,1.953,-18.555,-53.223,-233.887
1688303751.833,-29.297,-3.418,-16.602,-60.059,-259.766
1688303751.837,-42.480,-24.902,-24.414,-48.828,-111.816
1688303751.841,-68.359,-31.250,-24.414,-22.461,-8.789
1688303751.845,-57.129,-28.320,-30.762,-35.156,-43.457
1688303751.849,-19.531,-34.180,-27.832,-52.246,-93.750
1688303751.853,-5.859,-57.129,-23.926,-46.387,6.836
1688303751.857,-7.812,-67.383,-27.832,-20.508,47.363
1688303751.860,-33.203,-55.176,-26.367,-7.324,65.430
1688303751.864,-45.898,-39.551,-46.875,-22.949,47.852
1688303751.868,-22.461,-12.207,-57.617,-44.922,240.234
1688303751.872,-20.508,1.953,-37.598,-60.547,266.113
1688303751.876,-36.133,-0.977,-28.320,-54.688,-84.473
1688303751.894,-55.664,-35.645,-21.973,-13.184,-119.629
1688303751.898,-53.223,-49.316,-26.367,1.953,-31.738
1688303751.902,-25.879,-20.020,-34.180,-28.809,-177.246
1688303751.906,-26.367,-20.508,-27.832,-42.480,-307.617
1688303751.910,-39.062,-19.043,-27.832,-44.434,-185.059
1688303751.914,-51.270,-5.859,-43.945,-24.902,13.184
1688303751.918,-66.895,-13.184,-43.457,-27.832,124.512
1688303751.921,-62.500,-20.020,-42.969,-65.430,-48.340
1688303751.925,-41.504,-26.855,-33.691,-62.500,-43.945
1688303751.929,-46.387,-38.086,-17.578,-55.176,104.492
1688303751.933,-60.547,-40.527,-11.230,-36.621,-17.090
1688303751.937,-64.453,-45.898,-14.160,-28.809,-24.414
1688303751.923,-50.781,-65.430,-21.484,-53.223,-51.270
1688303751.927,-25.391,-66.895,-32.227,-58.594,-167.480
1688303751.931,-27.832,-24.902,-37.109,-43.457,-218.750
1688303751.935,-44.922,0.977,-44.922,-15.137,-84.473
1688303751.939,-47.363,-7.324,-68.848,-6.348,75.684
1688303751.943,-12.695,-19.043,-59.082,-28.809,115.723
1688303751.947,11.719,-68.848,-23.438,-42.480,-82.520
1688303751.950,7.812,-106.934,-36.133,-24.902,-159.668
1688303751.954,28.809,-66.895,-58.105,36.621,156.738
1688303751.958,28.320,-15.625,-38.574,61.523,163.574
1688303751.962,-24.902,32.227,-14.160,-5.859,-135.742
1688303751.966,-60.059,31.250,0.977,-80.078,-127.441
1688303751.968,-61.523,-3.906,-11.230,-75.195,278.809
1688303751.972,-62.988,-15.137,-20.020,-48.340,346.191
1688303751.976,-70.312,-55.664,-31.250,-41.992,25.879
1688303751.980,-38.086,-106.445,-48.828,-31.738,-93.262
1688303751.984,-0.977,-51.758,-50.293,-29.785,-170.410
1688303751.988,-8.301,1.953,-61.035,-41.504,-208.984
1688303751.992,-36.133,5.371,-66.895,-43.945,-52.246
1688303751.995,-60.547,5.371,-18.066,-18.066,275.391
1688303751.999,-49.805,-44.434,9.277,-17.090,276.367
1688303752.003,-18.555,-133.789,-5.371,-38.574,-171.387
1688303752.007,41.992,-74.219,-88.379,14.160,-291.504
1688303752.011,143.555,-30.273,-115.723,145.020,-108.887
1688303752.015,105.957,-93.750,21.484,130.371,33.691
1688303752.019,24.902,18.555,-5.859,44.922,-32.227
1688303752.023,45.410,43.457,-44.922,42.969,-134.277
1688303752.027,-49.316,-118.164,27.832,-67.871,-87.402
1688303752.031,-109.375,-51.758,37.598,-108.398,-54.688
1688303752.035,-90.332,27.344,26.855,-43.945,67.871
1688303752.039,-126.465,-39.062,-27.344,-63.477,122.559
1688303752.042,-54.688,-98.145,-78.125,-43.457,181.152
1688303752.046,19.531,-80.566,-47.363,4.395,104.004
1688303752.050,20.996,-88.867,20.508,21.484,-143.066
1688303752.054,29.785,-146.973,2.930,62.988,3.418
1688303752.058,-5.859,-237.793,-37.598,61.523,149.414
1688303752.059,-20.996,-253.906,-62.012,20.508,-112.793
1688303752.063,25.879,-38.574,-53.711,30.273,-276.855
1688303752.067,-51.758,-44.434,-19.043,-37.109,-123.535
1688303752.071,-95.703,-118.164,3.906,-52.734,7.812
1688303752.075,-27.344,-150.879,-14.160,19.043,13.184
1688303752.079,-71.777,-120.117,-26.367,-51.758,-105.957
1688303752.083,-133.301,-128.906,-35.156,-120.605,-54.688
1688303752.086,-102.539,-202.637,-78.125,-68.359,166.992
1688303752.090,-117.676,-166.504,-77.637,-51.758,-32.715
1688303752.094,-126.465,-94.238,-73.242,-25.879,-124.023
1688303752.098,-62.500,-142.578,-70.312,10.254,-102.051
1688303752.102,-56.641,-185.059,-12.207,-20.508,-216.309
1688303752.103,-89.844,-119.629,19.043,-27.344,-303.711
1688303752.107,-71.777,-118.652,-28.809,39.062,-155.273
1688303752.111,-153.809,-75.195,-23.926,-17.578,12.695
1688303752.115,-160.645,-81.055,-32.715,-66.895,-72.266
1688303752.119,-93.750,-100.098,-77.148,-18.555,-181.152
1688303752.123,-160.645,16.602,-68.848,-66.895,-140.625
1688303752.127,-231.934,-0.488,-52.246,-104.492,252.441
1688303752.130,-193.848,-23.438,-4.395,-41.992,294.922
1688303752.134,-89.355,-200.684,25.391,17.578,-84.961
1688303752.138,-102.539,-225.098,-78.613,12.695,-186.035
1688303752.142,-185.059,83.984,-84.473,-44.922,21.484
1688303752.146,-258.301,87.891,-12.695,-127.930,-1.953
1688303752.149,-317.383,13.184,-35.156,-154.785,-119.141
1688303752.153,-314.941,7.324,-23.926,-148.438,-58.105
1688303752.157,-276.855,-14.160,-29.297,-150.391,-152.832
1688303752.161,-260.742,14.160,-47.852,-125.000,-224.121
1688303752.165,-234.863,-70.801,-68.848,-73.730,-158.203
1688303752.169,-209.473,-147.461,-118.164,-15.625,182.129
1688303752.173,-246.094,35.156,-97.168,-30.762,244.629
1688303752.176,-269.043,103.516,-63.477,-113.281,-106.445
1688303752.180,-285.156,56.152,-66.406,-154.297,-293.945
1688303752.184,-311.035,40.527,-26.855,-146.973,7.324
1688303752.188,-284.668,-2.930,-17.090,-108.887,306.152
1688303752.192,-239.258,-177.734,-5.371,-93.262,23.438
1688303752.208,-223.633,-53.223,-59.082,-114.258,-166.992
1688303752.212,-266.602,182.617,-113.770,-170.898,-148.438
1688303752.216,-203.613,61.523,-82.520,-119.141,-49.805
1688303752.220,-160.156,0.488,-85.938,-44.922,-8.789
1688303752.224,-273.926,75.195,-137.695,-124.512,34.180
1688303752.228,-240.234,78.125,-112.793,-160.156,97.168
1688303752.232,-163.574,79.590,-103.516,-97.656,-66.895
1688303752.235,-208.984,161.133,-123.535,-116.211,-187.500
1688303752.239,-259.766,179.688,-81.055,-143.066,29.297
1688303752.243,-268.066,108.887,-39.551,-147.949,440.430
1688303752.247,-244.629,89.355,-18.555,-167.969,227.539
1688303752.251,-187.500,63.477,-36.621,-128.906,-300.293
1688303752.253,-162.598,-22.949,-41.016,-88.867,-92.773
1688303752.257,-171.387,-48.828,-76.172,-48.828,160.156
1688303752.261,-202.148,105.469,-126.953,-30.762,9.277
1688303752.265,-240.723,204.590,-131.836,-83.984,-102.051
1688303752.269,-167.969,157.227,-91.309,-47.852,-132.812
1688303752.273,-119.629,71.777,-34.668,-30.273,-73.242
1688303752.277,-197.754,25.391,-79.102,-78.125,31.738
1688303752.280,-190.918,64.941,-81.543,-48.828,-18.555
1688303752.284,-140.625,23.438,-45.898,-41.504,81.055
1688303752.288,-75.684,-7.324,-96.680,-24.902,123.535
1688303752.292,-120.117,84.961,-73.730,-79.102,-195.801
1688303752.296,-214.844,106.445,-0.488,-130.859,-167.969
1688303752.298,-208.008,35.645,8.301,-95.703,11.719
1688303752.302,-159.668,17.090,-38.086,-83.984,-23.926
1688303752.306,-120.605,-75.684,-91.797,-101.562,-175.293
1688303752.310,-133.301,-173.828,-78.125,-122.559,-191.406
1688303752.314,-173.340,-64.453,-102.051,-117.188,-60.547
1688303752.318,-200.195,-3.418,-110.840,-96.191,90.332
1688303752.322,-176.270,-13.672,-46.875,-94.238,18.066
1688303752.325,-121.582,-83.008,-14.648,-95.703,-176.270
1688303752.329,-83.496,-136.230,-23.438,-67.871,167.969
1688303752.333,-115.234,17.578,-60.547,-50.781,280.762
1688303752.337,-145.508,160.156,-69.824,-33.203,-23.926
1688303752.341,-156.738,121.582,-49.805,-83.984,-14.160
1688303752.343,-125.977,58.594,-42.480,-108.398,-111.816
1688303752.347,-97.656,37.598,-39.551,-83.984,-270.508
1688303752.351,-120.117,54.688,-22.949,-81.055,-269.531
1688303752.355,-168.945,29.785,-40.039,-95.215,-20.508
1688303752.359,-91.309,-22.461,-82.031,-26.367,78.613
1688303752.363,-20.508,9.766,-65.430,15.137,-65.430
1688303752.367,-159.180,40.527,-28.320,-156.250,-89.844
1688303752.370,-222.168,7.324,-43.457,-209.961,86.914
1688303752.374,-170.898,3.906,-52.734,-111.816,369.629
1688303752.378,-162.109,-2.441,-36.621,-102.539,144.043
1688303752.382,-162.598,-55.176,-29.785,-170.410,-202.637
1688303752.386,-127.930,-69.824,-43.457,-159.180,-173.340
1688303752.388,-104.492,-55.664,-60.059,-124.512,-111.328
1688303752.392,-115.723,-51.270,-41.016,-94.238,-47.363
1688303752.396,-123.535,-56.152,-30.762,-71.289,46.875
1688303752.400,-105.469,-104.004,-38.086,-109.863,-56.641
1688303752.404,-80.566,-112.793,-45.410,-120.605,-204.590
1688303752.408,-41.992,-89.844,-79.590,-76.660,-133.789
1688303752.412,-33.203,-70.312,-113.770,-42.969,60.059
1688303752.415,-15.137,0.977,-63.477,26.855,447.266
1688303752.419,-49.316,48.340,-36.133,-40.527,322.754
1688303752.423,-142.578,-3.418,-70.312,-200.684,-115.723
1688303752.427,-137.207,-24.902,-45.410,-196.777,-81.543
1688303752.431,-120.605,-38.574,-37.109,-121.582,171.875
1688303752.433,-119.141,-32.715,-45.898,-89.844,109.863
1688303752.437,-68.359,-52.246,-60.059,-92.285,-159.668
1688303752.441,-8.789,-99.609,-54.199,-86.426,-183.594
1688303752.445,-4.395,-92.773,-54.688,-84.473,-192.871
1688303752.449,-24.902,-23.438,-81.055,-70.312,-135.742
1688303752.453,-46.875,50.293,-80.078,-44.922,-23.926
1688303752.457,-65.918,17.090,-85.938,-59.082,147.461
1688303752.460,-33.691,4.395,-72.754,-75.684,153.809
1688303752.464,-27.344,6.836,-32.227,-91.797,-198.730
1688303752.468,-71.289,-37.598,-29.297,-94.238,-215.820
1688303752.472,-74.707,-49.805,-39.062,-62.012,34.668
1688303752.476,-58.105,-48.828,-38.574,-76.172,69.336
1688303752.479,-39.062,-59.082,-48.828,-90.820,-186.035
1688303752.483,-29.297,-49.805,-61.035,-96.191,-263.184
1688303752.487,10.254,-126.465,-49.805,-50.781,-77.637
1688303752.491,2.930,-159.668,-42.969,5.859,58.105
1688303752.495,-58.105,-15.137,-63.477,-44.922,-27.832
1688303752.499,-42.969,43.457,-101.562,-87.402,-68.848
1688303752.503,-1.953,18.066,-93.262,-61.523,171.387
1688303752.506,-8.301,0.977,-78.125,-52.246,102.051
1688303752.510,-52.246,-22.461,-84.961,-68.359,-44.922
1688303752.514,-50.781,-42.969,-31.738,-79.102,90.332
1688303752.518,-32.715,-37.598,-17.090,-92.285,24.902
1688303752.522,-19.043,-68.848,-37.109,-88.379,-198.730
1688303752.525,2.441,-102.539,-39.551,-42.969,-173.828
1688303752.529,-13.672,-41.504,-46.875,-29.297,131.348
1688303752.533,-70.312,11.230,-57.617,-54.199,162.109
1688303752.537,-62.500,3.906,-53.223,-98.633,-132.324
1688303752.541,-20.020,-6.348,-52.734,-107.910,-205.566
1688303752.545,-11.719,-25.391,-71.289,-73.242,64.453
1688303752.549,-28.320,-27.344,-64.453,-40.527,257.324
1688303752.552,-45.898,-35.156,-64.941,-42.480,95.215
1688303752.556,-38.574,-53.223,-69.336,-80.566,-186.035
1688303752.560,-34.668,-44.922,-76.660,-91.797,-104.980
1688303752.564,-32.227,-14.160,-55.176,-55.664,15.137
1688303752.568,-50.781,-8.301,-34.180,-36.133,-85.449
1688303752.583,-62.500,-12.207,-42.480,-42.969,-13.672
1688303752.587,-33.203,-46.875,-45.410,-59.570,-76.172
1688303752.591,-4.395,-66.895,-44.434,-70.801,-220.215
1688303752.595,-4.395,-41.016,-36.133,-46.387,-166.992
1688303752.599,-26.855,-33.203,-36.133,-26.855,-54.199
1688303752.603,-66.895,-29.785,-53.711,-37.109,202.148
1688303752.607,-69.824,-24.414,-73.242,-61.523,165.039
1688303752.610,-40.527,-4.395,-72.754,-91.797,-221.191
1688303752.614,-27.344,-14.160,-52.246,-78.613,-61.035
1688303752.618,-33.203,-30.273,-74.707,-35.645,197.266
1688303752.622,-67.871,-28.809,-101.562,-29.297,26.855
1688303752.626,-40.039,-56.641,-66.895,-55.664,-200.195
1688303752.628,12.207,-84.473,-49.805,-67.383,-207.520
1688303752.632,9.766,-41.016,-48.340,-68.359,32.227
1688303752.636,-30.273,0.488,-42.480,-69.824,47.852
1688303752.640,-81.543,-8.789,-38.574,-71.777,33.691
1688303752.644,-59.082,-14.160,-56.641,-73.242,53.711
1688303752.648,-0.977,-12.695,-68.848,-50.781,-21.973
1688303752.652,11.230,-16.602,-45.898,-47.363,-21.484
1688303752.655,-13.184,-29.297,-41.016,-59.082,13.672
1688303752.659,-51.270,-48.828,-45.898,-62.500,166.016
1688303752.663,-60.059,-53.711,-52.734,-79.590,320.312
1688303752.667,-15.137,-49.316,-49.805,-81.055,-57.129
1688303752.671,29.297,-72.754,-55.664,-70.312,-262.695
1688303752.674,-1.465,-80.078,-73.730,-51.270,-95.703
1688303752.678,-54.688,-48.340,-52.246,-31.250,-31.250
1688303752.682,-60.059,-24.414,-38.574,-63.965,-77.637
1688303752.686,-17.578,-26.855,-45.410,-91.797,-141.113
1688303752.690,16.602,-19.531,-61.523,-44.922,-134.277
1688303752.694,38.574,-37.109,-57.617,0.488,-56.152
1688303752.698,-0.488,-79.590,-41.504,-3.418,64.453
1688303752.701,-72.266,-70.312,-37.598,-49.316,-20.020
1688303752.705,-42.480,-59.082,-35.156,-90.332,230.957
1688303752.709,-4.883,-45.898,-45.898,-88.867,348.633
1688303752.713,-15.625,-29.785,-44.434,-66.895,-140.137
1688303752.717,-34.668,-41.016,-33.203,-40.527,-83.496
1688303752.718,-49.316,-63.477,-40.039,-46.387,82.031
1688303752.722,-29.297,-72.754,-42.480,-61.523,-160.645
1688303752.726,13.184,-75.684,-38.086,-58.594,-301.270
1688303752.730,12.695,-71.289,-37.109,-47.363,-75.684
1688303752.734,-8.301,-73.242,-43.457,-29.785,68.359
1688303752.738,-33.691,-86.914,-39.062,-50.293,-30.762
1688303752.742,-23.926,-70.801,-28.320,-67.871,-80.566
1688303752.745,17.090,-58.594,-33.691,-61.523,40.039
1688303752.749,22.461,-58.594,-46.387,-37.109,156.250
1688303752.753,3.906,-60.547,-46.875,-14.648,-14.160
1688303752.757,-26.367,-76.172,-42.480,-30.762,-49.316
1688303752.761,-16.113,-67.383,-40.527,-66.406,11.719
1688303752.764,12.695,-65.918,-37.598,-60.059,-131.836
1688303752.768,12.695,-71.777,-30.273,-61.523,-197.754
1688303752.772,-4.395,-61.035,-20.996,-63.965,-62.012
1688303752.776,-36.133,-60.547,-22.949,-50.781,11.230
1688303752.780,-21.973,-58.594,-26.855,-68.359,-88.379
1688303752.784,29.297,-62.500,-25.879,-58.594,-97.656
1688303752.788,42.969,-62.988,-28.320,-40.039,22.461
1688303752.791,27.832,-83.984,-28.320,-39.551,226.562
1688303752.795,-9.766,-101.074,-29.785,-43.457,213.379
1688303752.799,-0.488,-82.031,-35.645,-66.895,-110.352
1688303752.803,46.387,-81.543,-36.133,-73.242,-180.664
1688303752.807,64.941,-66.406,-34.668,-38.574,-53.711
1688303752.810,48.340,-30.273,-36.133,-22.949,-56.152
1688303752.814,11.230,-35.645,-40.527,-49.316,-66.895
1688303752.818,46.387,-44.922,-46.387,-59.082,35.156
1688303752.822,98.633,-50.781,-43.457,-48.828,138.672
1688303752.826,87.402,-43.945,-28.320,-32.227,-72.754
1688303752.830,78.613,6.348,-18.066,1.465,-90.820
1688303752.834,34.180,7.812,-23.438,-7.324,237.793
1688303752.837,9.766,-18.555,-17.090,-20.996,331.543
1688303752.841,46.387,-21.484,-12.207,-33.691,-52.734
1688303752.845,74.707,-23.438,-20.996,-41.504,-260.742
1688303752.849,65.430,-8.301,-36.133,-26.367,-115.723
1688303752.853,28.809,1.465,-56.641,-13.184,-88.867
1688303752.853,10.254,-17.090,-57.129,-38.574,-216.309
1688303752.857,34.668,-27.832,-45.410,-58.594,-250.000
1688303752.861,74.219,-19.531,-28.320,-39.062,-180.664
1688303752.865,79.590,-16.113,-8.789,-8.789,-64.941
1688303752.869,47.363,-31.250,-8.789,2.930,-0.977
1688303752.873,17.090,-47.852,-20.996,-34.180,48.828
1688303752.877,29.785,-54.199,-30.273,-54.199,305.176
1688303752.880,65.918,-40.527,-32.227,-29.297,228.027
1688303752.884,76.660,-37.598,-28.809,-17.578,-61.523
1688303752.888,55.664,-52.246,-28.809,-9.766,68.359
1688303752.892,11.719,-41.016,-32.715,-17.090,149.902
1688303752.896,15.137,-34.180,-41.016,-50.781,-129.883
1688303752.899,40.527,-21.973,-47.852,-46.875,-297.852
1688303752.903,42.969,-10.742,-45.410,-23.438,-145.020
1688303752.907,7.324,-17.578,-38.574,5.371,-74.707
1688303752.911,-32.715,-28.320,-37.109,-5.371,-121.094
1688303752.915,1.953,-32.227,-35.156,-41.992,-244.141
1688303752.919,38.574,-33.203,-29.297,-42.969,-51.758
1688303752.923,51.758,-43.945,-23.926,-24.902,181.152
1688303752.926,16.602,-58.105,-29.297,-5.371,-5.859
1688303752.930,-32.715,-42.969,-23.926,3.906,-104.004
1688303752.934,-8.789,-28.809,-15.137,-12.695,18.555
1688303752.938,25.879,-31.250,-29.297,-30.273,55.664
1688303752.942,36.133,-13.184,-36.621,-17.578,-128.418
1688303752.959,14.648,-13.672,-36.133,13.184,-69.336
1688303752.963,-31.250,-31.738,-33.203,-6.836,102.539
1688303752.967,-8.789,-42.969,-22.461,-24.414,-0.488
1688303752.971,41.992,-27.832,-22.949,-21.484,-214.844
1688303752.975,48.340,-11.719,-28.320,-10.742,-103.516
1688303752.979,30.273,-19.531,-26.855,15.625,97.656
1688303752.983,-17.578,-23.926,-21.973,-0.977,150.391
1688303752.986,-14.648,-18.555,-20.996,-19.531,8.301
1688303752.990,43.945,-41.016,-21.973,-34.668,-160.645
1688303752.994,70.312,-49.805,-31.738,-43.945,260.742
1688303752.998,43.457,-39.062,-32.227,-12.695,474.121
1688303753.002,-16.113,-12.695,-25.391,1.465,50.293
1688303753.004,-30.762,16.602,-20.020,-45.410,-54.688
1688303753.008,-13.184,0.488,-20.996,-79.590,-82.520
1688303753.012,17.090,5.371,-36.621,-54.199,-210.938
1688303753.016,35.156,-1.953,-29.297,-13.184,-188.477
1688303753.020,-23.926,-41.016,-21.484,-25.391,108.398
1688303753.024,-68.359,-59.082,-28.809,-36.621,243.164
1688303753.028,-58.105,-62.012,-27.344,-47.852,14.160
1688303753.031,-44.922,-61.035,-14.648,-82.031,-228.027
1688303753.035,-39.062,-63.965,-5.859,-61.035,-30.273
1688303753.039,-65.918,-62.012,-17.090,-24.414,271.973
1688303753.043,-70.801,-57.129,-26.367,-33.203,46.875
1688303753.047,-58.105,-67.383,-3.418,-65.918,-123.535
1688303753.063,-43.457,-56.152,-1.465,-83.496,-101.074
1688303753.067,-34.180,-50.781,-21.484,-82.031,-115.723
1688303753.071,-54.199,-56.641,-25.391,-41.992,-89.844
1688303753.075,-54.688,-56.152,-15.625,-1.953,40.527
1688303753.079,-25.879,-55.664,-17.578,-33.691,-44.434
1688303753.083,-10.254,-49.805,-18.066,-78.613,-136.719
1688303753.087,-16.602,-56.641,-13.672,-64.453,-44.434
1688303753.090,-49.316,-47.852,-20.020,-29.297,-39.551
1688303753.094,-67.871,-44.922,-27.832,-5.371,366.211
1688303753.098,-21.484,-46.875,-32.715,-19.531,358.887
1688303753.102,10.742,-35.156,-29.785,-49.316,-263.672
1688303753.106,14.648,-46.387,-31.250,-33.203,-233.398
1688303753.095,-4.883,-60.547,-34.180,-3.418,-8.301
1688303753.099,-47.363,-65.918,-45.410,0.488,189.941
1688303753.103,-27.832,-53.711,-33.203,-36.133,134.277
1688303753.107,10.742,-37.598,-14.648,-50.293,2.930
1688303753.111,22.949,-38.574,-25.391,-37.109,-28.809
1688303753.115,26.855,-39.551,-22.461,3.418,-70.801
1688303753.119,-22.461,-49.805,-11.230,19.043,95.215
1688303753.122,-35.156,-55.664,-22.949,-24.414,97.168
1688303753.126,-0.488,-37.598,-35.645,-66.406,-77.148
1688303753.130,7.324,-29.785,-25.391,-66.895,-167.969
1688303753.134,-7.812,-36.133,-21.973,-22.949,-151.855
1688303753.138,-26.367,-53.223,-25.879,16.602,220.215
1688303753.138,-10.254,-61.523,-34.180,14.160,344.727
1688303753.142,14.648,-46.875,-48.340,-32.715,-134.277
1688303753.146,19.043,-44.434,-46.387,-53.711,-246.582
1688303753.150,11.230,-40.039,-30.273,-10.742,-61.035
1688303753.154,-7.812,-44.434,-21.484,32.715,109.863
1688303753.158,-7.324,-44.434,-30.273,14.648,100.098
1688303753.162,23.926,-39.062,-32.715,-18.555,-53.223
1688303753.165,32.715,-66.895,-33.203,-21.973,125.488
1688303753.169,28.809,-57.617,-50.293,7.324,278.809
1688303753.173,-9.277,-18.066,-53.223,37.109,80.078
1688303753.177,-24.902,-20.020,-24.902,27.344,97.656
1688303753.181,-6.348,-13.672,-27.344,-22.461,94.727
1688303753.183,2.930,-0.977,-59.570,-45.410,-221.191
1688303753.187,19.043,-3.418,-33.203,-19.531,-266.113
1688303753.191,-14.648,-29.297,-6.836,0.488,-8.789
1688303753.195,-48.340,-58.594,-20.020,-21.484,31.250
1688303753.199,-26.367,-72.754,-12.207,-39.062,-153.809
1688303753.203,-18.555,-78.125,-1.953,-46.387,-261.230
1688303753.207,-25.391,-79.590,-1.953,-32.715,4.395
1688303753.210,-53.223,-86.426,-16.602,-7.812,413.574
1688303753.214,-78.613,-75.195,-26.855,-21.973,213.379
1688303753.218,-44.922,-64.941,-10.254,-26.367,-142.578
1688303753.222,-8.789,-79.590,-8.301,-35.645,-259.766
1688303753.226,-3.418,-74.219,-31.250,-44.922,-263.672
1688303753.243,-29.785,-62.500,-26.367,-23.438,-136.719
1688303753.247,-62.012,-68.848,-6.836,-9.277,-18.555
1688303753.251,-31.250,-56.641,-14.160,-13.184,-3.906
1688303753.255,-4.395,-45.410,-21.973,-39.062,-87.402
1688303753.259,-9.277,-55.664,-29.785,-23.438,-184.082
1688303753.263,-23.926,-72.754,-36.621,20.020,-38.574
1688303753.267,-36.621,-108.398,-42.480,26.367,408.203
1688303753.270,-26.367,-101.562,-53.223,7.812,245.605
1688303753.274,-15.137,-36.621,-47.363,-31.738,-218.750
1688303753.278,-7.324,-36.621,-12.207,-61.035,-138.184
1688303753.282,-30.762,-49.316,12.207,-28.809,141.602
1688303753.286,-83.008,-34.668,-0.977,-13.672,141.113
1688303753.274,-67.871,-34.180,-17.578,-40.527,-80.566
1688303753.278,-20.020,-43.945,-20.996,-32.715,-178.223
1688303753.282,-13.184,-49.316,-27.832,-27.832,-199.707
1688303753.286,-30.762,-60.547,-38.574,-13.184,-148.926
1688303753.290,-56.152,-60.059,-33.691,2.930,-10.742
1688303753.294,-48.828,-54.199,-41.016,-15.137,95.215
1688303753.298,-16.113,-70.801,-48.828,-46.875,30.762
1688303753.301,17.090,-87.891,-45.410,-48.340,-123.535
1688303753.305,-1.465,-63.965,-46.387,-25.391,-193.359
1688303753.309,-61.523,-40.527,-38.574,-9.277,170.898
1688303753.313,-63.477,-44.922,-29.785,-45.410,323.242
1688303753.317,-29.297,-43.457,-29.785,-84.473,-55.664
1688303753.333,-13.184,-41.504,-29.785,-53.223,-206.055
1688303753.337,-13.672,-40.039,-30.273,-12.207,-80.566
1688303753.341,-34.668,-36.133,-28.809,-18.555,70.801
1688303753.345,-48.828,-37.598,-34.180,-39.062,-33.203
1688303753.349,-31.738,-40.527,-45.410,-65.430,-168.457
1688303753.353,1.953,-61.035,-28.320,-57.129,-127.930
1688303753.357,4.883,-83.008,-15.625,-20.508,-73.242
1688303753.360,-30.762,-50.781,-29.297,-0.488,-42.969
1688303753.364,-57.617,-21.973,-40.527,-5.371,-3.906
1688303753.368,-26.367,-40.039,-40.527,-36.133,208.008
1688303753.372,4.883,-40.527,-42.480,-48.340,121.094
1688303753.376,-17.090,-27.832,-34.668,-45.410,-198.730
1688303753.380,-41.992,-24.902,-24.414,-6.348,-67.383
1688303753.384,-48.340,-27.344,-22.461,-8.789,85.938
1688303753.388,-52.246,-37.598,-22.461,-51.270,6.836
1688303753.392,-27.344,-57.617,-31.250,-56.641,-248.047
1688303753.396,-8.789,-55.176,-40.527,-30.762,-98.145
1688303753.400,-32.715,-45.898,-40.527,-4.395,278.320
1688303753.404,-68.359,-45.410,-41.016,-4.395,261.230
1688303753.407,-35.645,-37.109,-24.414,-14.160,-30.762
1688303753.411,20.996,-58.105,-11.230,-19.043,-75.684
1688303753.415,5.371,-47.363,-15.137,-47.852,62.988
1688303753.419,-37.109,-14.648,-31.738,-39.551,-114.258
1688303753.423,-51.270,-30.273,-64.453,-7.324,-64.941
1688303753.423,-35.156,-39.551,-56.641,-31.738,-32.715
1688303753.427,-32.715,-30.273,-20.508,-57.129,-187.500
1688303753.431,-31.738,-27.832,-10.254,-58.594,-268.555
1688303753.435,-32.227,-35.156,-10.742,-18.066,-143.555
1688303753.439,-53.223,-52.734,-16.602,10.742,132.324
1688303753.443,-45.898,-47.852,-31.738,-23.438,125.000
1688303753.447,-11.719,-39.551,-34.180,-49.805,-118.652
1688303753.450,-23.926,-51.758,-41.016,-60.547,-169.922
1688303753.454,-35.156,-66.895,-48.340,-30.273,257.812
1688303753.458,-50.293,-58.594,-52.734,-1.465,541.992
1688303753.462,-72.266,-46.387,-44.434,-30.273,114.746
1688303753.466,-36.621,-49.316,-25.879,-47.852,-180.664
1688303753.468,10.742,-41.992,-30.762,-29.785,-242.188
1688303753.472,-14.648,-29.297,-40.527,-32.227,-238.770
1688303753.476,-79.102,-21.973,-33.691,-24.902,-52.246
1688303753.480,-71.289,-32.227,-20.996,-26.855,23.438
1688303753.484,-23.438,-38.086,-16.113,-55.176,-142.578
1688303753.488,-15.137,-39.551,-21.484,-59.570,-184.570
1688303753.492,-25.879,-39.062,-27.832,-14.648,-38.086
1688303753.495,-35.156,-31.250,-21.973,20.996,244.141
1688303753.499,-39.551,-25.879,-30.762,-6.348,510.254
1688303753.503,-18.066,-11.719,-46.875,-46.875,100.586
1688303753.507,6.348,-8.301,-33.203,-68.848,-246.094
1688303753.511,5.859,-15.137,-20.508,-27.832,-164.062
1688303753.513,-37.109,-11.230,-41.504,12.207,-20.508
1688303753.517,-57.129,-19.043,-42.480,-15.625,-8.789
1688303753.521,-25.391,-44.922,-18.066,-30.273,-125.000
1688303753.525,-6.836,-49.316,-9.766,-49.805,-187.988
1688303753.529,-4.395,-35.645,-14.160,-44.434,-166.992
1688303753.533,-27.344,-29.785,-24.414,2.441,11.230
1688303753.537,-46.387,-15.137,-22.461,1.465,139.160
1688303753.540,-20.508,-4.883,-30.762,-35.645,242.188
1688303753.544,4.883,-7.812,-42.480,-54.199,119.629
1688303753.548,3.906,-4.883,-52.246,-28.320,-106.934
1688303753.552,-11.719,3.418,-55.176,2.441,65.430
1688303753.556,-21.973,10.254,-19.531,10.742,224.609
1688303753.558,12.207,-15.625,-1.465,-29.297,-38.574
1688303753.562,43.457,-41.016,-24.414,-60.059,-349.609
1688303753.566,27.344,-13.184,-34.668,-41.504,-224.609
1688303753.570,-17.578,0.488,-19.043,0.977,105.957
1688303753.574,-43.945,0.000,-21.973,22.949,128.906
1688303753.578,-15.625,-4.883,-42.480,-17.578,-33.203
1688303753.582,9.277,-16.113,-25.391,-50.293,74.707
1688303753.585,-10.742,-16.602,-15.137,-40.039,153.809
1688303753.589,-37.598,-3.418,-19.531,-14.160,-76.172
1688303753.593,-58.105,-8.789,-13.672,-0.977,-3.418
1688303753.597,-45.410,-23.438,-20.996,-9.766,33.691
1688303753.601,-7.812,-32.227,-35.156,-33.691,-93.262
1688303753.620,-2.930,-25.879,-43.457,-48.828,-154.297
1688303753.624,-27.832,-22.461,-33.203,-19.531,-178.711
1688303753.628,-47.363,-37.109,-30.762,15.137,73.730
1688303753.632,-27.344,-20.508,-43.457,-26.855,58.594
1688303753.636,9.277,-13.672,-42.969,-54.688,-236.328
1688303753.640,-1.953,-15.625,-34.180,-46.875,-251.953
1688303753.644,-34.668,-21.484,-31.738,-24.902,173.828
1688303753.647,-66.895,-17.578,-26.855,-13.672,288.086
1688303753.651,-59.570,-12.207,-23.438,-23.438,7.324
1688303753.655,-31.738,-27.344,-26.367,-47.852,-24.414
1688303753.659,-22.949,-21.484,-23.926,-65.430,-20.020
1688303753.663,-61.523,-19.043,-24.414,-62.012,-66.895
1688303753.664,-97.656,-25.879,-19.531,-43.457,-57.617
1688303753.668,-67.383,-16.602,-17.578,-20.996,11.230
1688303753.672,-13.184,-8.789,-25.879,-21.484,-28.320
1688303753.676,-3.418,-21.484,-32.227,-39.551,-155.762
1688303753.680,-9.766,-17.578,-27.832,-41.992,-169.922
1688303753.684,-34.180,-10.742,-34.668,-21.484,140.137
1688303753.688,-77.637,-16.602,-37.109,-28.809,250.977
1688303753.691,-57.129,-9.766,-29.785,-56.152,-49.805
1688303753.695,-20.996,-11.719,-28.320,-61.035,-268.555
1688303753.699,-20.020,-26.855,-28.320,-18.066,-60.547
1688303753.703,-39.062,-31.250,-32.227,0.488,319.824
1688303753.707,-51.270,-29.297,-33.691,-18.066,114.746
1688303753.708,-18.066,-28.809,-37.109,-17.578,-174.805
1688303753.712,23.926,-20.996,-40.527,-16.602,-221.191
1688303753.716,17.090,-5.371,-35.645,-13.672,-170.410
1688303753.720,-27.344,0.488,-34.668,4.395,-58.594
1688303753.724,-52.246,-8.301,-36.133,-4.883,22.461
1688303753.728,-23.926,-20.996,-27.344,-27.344,38.574
1688303753.732,10.742,-17.578,-13.184,-38.574,25.879
1688303753.735,5.859,-20.508,-24.902,-48.340,-7.324
1688303753.739,-34.668,-16.113,-27.344,-19.531,28.320
1688303753.743,-47.363,-15.137,-26.367,-5.371,365.234
1688303753.747,-1.953,-18.066,-46.387,-37.109,224.609
1688303753.751,41.016,-15.137,-36.133,-41.992,-321.777
1688303753.753,56.641,-13.672,-24.414,-31.738,-187.500
1688303753.757,33.691,-21.484,-29.297,-14.648,160.645
1688303753.761,-41.504,-40.039,-31.250,-5.859,86.914
1688303753.765,-78.613,-32.227,-35.156,-12.207,-115.723
1688303753.769,-46.387,-20.996,-29.297,-21.973,-156.250
1688303753.773,0.488,-20.508,-22.461,-12.695,-137.695
1688303753.777,-18.066,-13.672,-35.156,1.465,-4.883
1688303753.780,-64.453,-2.930,-22.461,6.348,69.336
1688303753.784,-58.105,-9.277,-15.137,0.488,73.242
1688303753.788,-31.738,-29.785,-31.738,-38.086,188.965
1688303753.792,-28.320,-25.879,-21.973,-45.410,-101.074
1688303753.796,-29.297,-20.508,-15.625,5.859,-241.211
1688303753.798,-40.527,-25.391,-29.297,-2.930,26.367
1688303753.802,-31.250,-32.227,-40.527,-47.852,-23.926
1688303753.806,-6.348,-39.551,-43.945,-54.199,-267.090
1688303753.810,3.418,-23.926,-30.273,-49.316,-266.602
1688303753.814,-8.789,-13.672,-18.066,-29.297,-73.730
1688303753.818,-47.363,-17.578,-25.879,-21.484,54.199
1688303753.822,-55.176,-27.344,-33.203,-36.621,24.902
1688303753.825,-20.020,-35.645,-40.039,-46.387,-173.828
1688303753.829,-4.395,-31.738,-41.016,-32.715,46.387
1688303753.833,-12.695,-11.719,-38.086,4.395,273.926
1688303753.837,-31.738,7.324,-47.363,15.137,10.742
1688303753.841,-58.105,-20.508,-38.574,-14.648,-20.508
1688303753.843,-32.227,-46.387,-16.602,-59.570,-62.988
1688303753.847,-5.371,-46.387,-17.578,-61.035,-254.883
1688303753.851,-9.766,-34.180,-19.043,-23.926,-245.117
1688303753.855,-40.039,-33.691,-6.348,-3.418,-38.574
1688303753.859,-78.125,-37.598,-14.648,-19.531,50.293
1688303753.863,-59.570,-29.785,-37.598,-51.758,23.438
1688303753.867,-14.160,-32.715,-38.086,-78.613,-119.141
1688303753.870,-8.789,-39.551,-24.414,-51.758,-40.039
1688303753.874,-39.062,-35.156,-33.203,-12.207,215.332
1688303753.878,-64.941,-33.203,-52.734,-17.090,31.738
1688303753.882,-33.203,-49.805,-51.270,-33.203,-208.984
1688303753.886,2.441,-61.523,-29.297,-47.852,-306.641
1688303753.889,-0.488,-51.758,-15.625,-40.527,-229.492
1688303753.893,-38.574,-38.574,-16.602,-16.602,-153.809
1688303753.897,-74.707,-32.715,-22.461,-21.484,-92.285
1688303753.901,-42.969,-23.926,-30.273,-52.734,2.441
1688303753.905,-4.395,-23.926,-38.574,-55.176,-62.988
1688303753.909,19.531,-39.551,-44.434,-36.621,-180.176
1688303753.913,-2.441,-35.645,-26.367,-2.930,-5.859
1688303753.916,-53.223,-9.766,-12.207,9.766,334.473
1688303753.920,-33.203,-11.230,-31.738,-5.371,242.188
1688303753.924,-10.254,-46.875,-47.363,-44.434,-142.578
1688303753.928,-14.160,-49.316,-29.785,-59.570,-141.113
1688303753.932,-33.203,-25.879,-15.625,-33.691,73.730
1688303753.933,-62.500,-20.020,-43.457,-18.066,106.445
1688303753.937,-47.363,-30.273,-55.664,-32.227,-29.785
1688303753.941,-15.137,-55.664,-25.879,-60.059,-1.953
1688303753.945,3.418,-51.270,-15.625,-49.805,16.113
1688303753.949,-22.949,-14.160,-15.625,-21.973,-61.523
1688303753.953,-72.266,-12.207,-30.273,-19.531,69.336
1688303753.957,-66.895,-27.832,-48.340,-20.020,273.926
1688303753.960,-25.879,-34.180,-44.434,-51.270,260.742
1688303753.964,-13.672,-33.203,-52.734,-55.664,-166.992
1688303753.968,-26.367,-34.668,-42.480,-26.855,-243.652
1688303753.972,-58.105,-29.785,-23.926,-13.184,-3.418
1688303753.976,-53.711,-26.855,-13.184,-20.508,-29.297
1688303753.978,-24.902,-35.156,-12.695,-50.781,-179.199
1688303753.982,-6.348,-37.109,-27.832,-48.340,-162.598
1688303753.986,2.441,-35.156,-61.523,-16.113,-83.008
1688303753.990,-40.039,-26.367,-58.105,-20.508,41.016
1688303753.994,-68.359,-31.250,-20.508,-31.738,42.969
1688303753.998,-32.227,-33.691,-24.414,-56.641,-56.641
1688303754.002,-3.418,-20.996,-40.039,-54.199,125.000
1688303754.005,-13.672,-10.742,-39.062,-30.273,124.512
1688303754.009,-42.969,-28.809,-33.691,-31.250,-17.090
1688303754.013,-70.312,-53.711,-31.250,-31.250,21.484
1688303754.017,-46.875,-49.316,-29.785,-31.738,167.969
1688303754.021,-7.324,-41.504,-31.250,-44.434,59.570
1688303754.024,-12.695,-38.086,-43.457,-37.598,-163.574
1688303754.028,-40.039,-20.508,-44.922,-9.766,16.113
1688303754.032,-57.129,-19.531,-23.926,-13.672,61.035
1688303754.036,-40.527,-34.668,-30.273,-47.363,-147.461
1688303754.040,-17.578,-22.949,-42.969,-68.359,-306.641
1688303754.044,-26.855,-13.184,-23.438,-42.480,11.719
1688303754.048,-57.129,-24.414,-26.367,-37.598,264.648
1688303754.051,-80.566,-33.691,-42.480,-49.805,91.309
1688303754.055,-62.500,-35.156,-33.203,-54.688,-139.160
1688303754.059,-14.648,-31.250,-29.297,-67.383,-110.840
1688303754.063,8.789,-29.785,-35.156,-43.945,34.668
1688303754.067,-27.344,-29.785,-37.598,-18.555,-97.168
1688303754.083,-75.195,-34.668,-34.668,-36.133,-51.270
1688303754.087,-59.570,-34.180,-25.391,-55.176,-83.984
1688303754.091,-20.020,-28.809,-16.113,-74.219,-190.918
1688303754.095,8.789,-15.137,-23.926,-44.922,-198.730
1688303754.099,-3.906,-37.598,-41.992,14.648,-60.547
1688303754.103,-64.453,-66.406,-48.828,-5.371,104.492
1688303754.107,-73.242,-53.711,-41.992,-53.223,92.773
1688303754.110,-33.203,-31.738,-18.066,-60.059,-103.027
1688303754.114,-15.625,-7.324,-10.254,-53.223,-162.109
1688303754.118,-28.809,-16.113,-20.508,-27.344,280.762
1688303754.122,-58.594,-22.949,-38.574,-0.488,457.031
1688303754.126,-49.805,-42.480,-49.805,-21.484,0.000
1688303754.128,-17.090,-59.570,-39.062,-51.270,-179.688
1688303754.132,3.418,-42.969,-25.879,-51.270,-102.051
1688303754.136,-24.902,-28.320,-23.926,-28.320,-78.125
1688303754.140,-71.289,-22.949,-25.391,-8.301,16.602
1688303754.144,-57.129,-17.578,-33.691,-3.906,36.133
1688303754.148,-18.555,-32.715,-35.156,-15.137,-84.961
1688303754.152,5.371,-41.016,-27.344,-31.738,-165.527
1688303754.155,-1.465,-24.414,-29.297,-29.785,-194.824
1688303754.159,-41.016,-21.484,-42.969,5.859,111.816
1688303754.163,-55.664,-33.203,-41.016,0.488,327.148
1688303754.167,-27.832,-36.133,-22.949,-62.012,-87.891
1688303754.171,1.465,-27.832,-8.301,-61.523,-263.184
1688303754.173,-4.883,-38.086,-12.695,-30.273,-137.207
1688303754.177,-31.738,-47.363,-21.973,-16.602,16.602
1688303754.181,-42.969,-41.504,-30.762,-17.578,26.367
1688303754.185,-34.180,-35.645,-37.598,-35.156,-109.375
1688303754.189,-11.719,-31.250,-42.969,-57.129,-128.418
1688303754.193,-9.277,-30.273,-53.711,-51.758,-42.480
1688303754.197,-33.203,-19.043,-56.152,-32.227,129.883
1688303754.200,-62.500,-14.160,-39.062,-20.020,111.816
1688303754.204,-31.250,-28.320,-14.648,-34.668,237.793
1688303754.208,13.184,-22.461,-10.254,-33.203,273.926
1688303754.212,14.648,-2.930,-17.090,-24.414,-99.121
1688303754.216,-22.461,-25.391,-23.438,-9.277,-25.879
1688303754.218,-64.941,-41.504,-24.902,0.488,-4.883
1688303754.222,-42.969,-30.762,-24.414,-39.551,-214.355
1688303754.226,-19.043,-26.855,-30.762,-54.688,-304.688
1688303754.230,-5.371,-33.691,-29.297,-37.109,-78.125
1688303754.234,-28.809,-40.039,-28.809,-14.160,145.508
1688303754.238,-60.059,-35.645,-36.621,-2.441,60.059
1688303754.242,-34.180,-38.086,-41.992,-27.832,-101.074
1688303754.245,9.766,-41.504,-43.457,-38.086,-30.273
1688303754.249,17.090,-46.387,-43.457,-25.879,139.160
1688303754.253,-10.254,-55.664,-56.641,8.789,-48.340
1688303754.257,-32.227,-37.598,-42.480,29.785,-81.543
1688303754.261,-23.438,-7.324,-19.043,-20.996,-53.223
1688303754.263,-3.906,-1.465,-22.461,-62.500,-195.312
1688303754.267,-9.277,-8.789,-23.926,-54.199,-300.781
1688303754.271,-28.809,-16.602,-22.949,-38.574,-146.484
1688303754.275,-68.359,-25.391,-23.926,-19.043,62.500
1688303754.279,-64.453,-35.156,-43.457,-21.973,58.105
1688303754.283,-4.883,-35.645,-39.062,-42.480,-32.227
1688303754.287,14.160,-41.016,-28.809,-32.715,-62.988
1688303754.290,-11.719,-57.129,-36.621,-7.812,340.332
1688303754.294,-48.340,-51.758,-30.273,6.836,484.863
1688303754.298,-48.828,-33.203,-25.391,-40.039,15.625
1688303754.302,-19.531,-36.133,-37.598,-62.500,-183.594
1688303754.306,9.766,-30.273,-38.574,-46.875,-81.543
1688303754.308,-0.488,-15.625,-22.461,-27.832,-114.258
1688303754.312,-45.898,-20.508,-25.879,-5.371,-94.727
1688303754.316,-49.805,-20.020,-29.785,-11.719,15.625
1688303754.320,-23.438,-19.531,-27.344,-42.969,-88.379
1688303754.324,18.066,-17.090,-32.715,-36.133,-248.047
1688303754.328,38.086,-21.484,-32.227,-4.395,-139.160
1688303754.332,-10.742,-32.715,-25.391,3.906,243.164
1688303754.335,-46.875,-42.969,-28.809,-17.578,368.164
1688303754.339,-20.996,-30.762,-27.832,-68.359,-3.906
1688303754.343,8.301,-22.461,-27.344,-66.895,-216.309
1688303754.347,6.348,-20.020,-27.832,-41.016,-68.848
1688303754.351,-40.039,-20.508,-27.832,-30.762,112.305
1688303754.353,-77.148,-34.180,-25.391,-13.184,56.152
1688303754.357,-35.645,-39.062,-34.180,-28.320,-126.465
1688303754.361,3.418,-39.551,-43.457,-41.016,-231.445
1688303754.365,-1.953,-26.855,-31.250,-40.527,-170.410
1688303754.369,-41.504,-19.531,-25.391,-28.809,-39.062
1688303754.373,-73.730,-25.391,-24.414,-2.930,88.867
1688303754.377,-36.621,-28.809,-22.949,-23.926,215.332
1688303754.380,0.488,-28.809,-33.203,-61.035,4.883
1688303754.384,3.906,-29.785,-39.551,-37.598,-135.742
1688303754.388,-21.484,-32.227,-34.668,-6.836,90.820
1688303754.392,-62.988,-31.738,-34.180,-3.906,95.215
1688303754.396,-48.828,-38.086,-34.668,-31.250,-99.609
1688303754.399,-5.371,-43.457,-37.598,-58.105,-288.574
1688303754.403,12.695,-40.039,-34.668,-43.457,-161.133
1688303754.407,-18.555,-47.852,-28.809,5.371,263.184
1688303754.411,-63.965,-45.898,-27.832,5.371,224.121
1688303754.415,-46.875,-28.320,-36.133,-33.691,-134.277
1688303754.419,0.000,-15.625,-49.316,-54.688,-14.648
1688303754.423,17.578,-10.742,-39.062,-61.523,121.582
1688303754.426,-10.254,-14.160,-25.391,-44.434,-19.043
1688303754.430,-45.898,-39.551,-25.391,-12.695,-33.203
1688303754.434,-22.949,-33.691,-18.555,4.883,-12.207
1688303754.438,-6.836,-20.508,-30.273,-42.480,-65.918
1688303754.442,-5.371,-25.391,-37.598,-59.570,-253.906
1688303754.445,-20.996,-21.973,-28.809,-29.785,-197.754
1688303754.449,-62.500,-29.785,-27.344,-13.184,87.402
1688303754.453,-63.965,-37.598,-35.156,-20.996,47.363
1688303754.457,-26.367,-22.461,-55.176,-41.992,-218.750
1688303754.461,4.395,-9.766,-44.434,-50.781,-224.121
1688303754.465,-0.977,-16.602,-26.367,-30.273,195.312
1688303754.469,-46.875,-26.367,-29.785,-12.695,334.473
1688303754.472,-56.641,-20.996,-28.320,-28.809,44.922
1688303754.476,-10.254,-28.320,-33.203,-49.316,-107.910
1688303754.480,12.695,-34.668,-36.621,-37.109,-49.805
1688303754.484,-6.836,-18.555,-30.762,-12.695,-100.586
1688303754.488,-34.180,-9.277,-40.039,0.977,-99.609
1688303754.504,-49.316,-15.137,-44.922,3.418,52.246
1688303754.508,-22.949,-25.391,-28.320,-43.457,-4.883
1688303754.512,12.207,-20.996,-17.578,-62.988,-188.965
1688303754.516,10.254,-3.418,-19.043,-37.109,-234.375
1688303754.520,-37.109,0.000,-19.531,-7.324,19.043
1688303754.524,-62.500,-17.578,-23.438,-0.977,275.879
1688303754.528,-9.766,-9.766,-30.273,-15.625,24.902
1688303754.531,19.531,2.441,-37.109,-31.250,-291.016
1688303754.535,0.000,-9.766,-35.156,-36.621,-63.477
1688303754.539,-35.645,-22.461,-29.297,-11.230,216.797
1688303754.543,-62.012,-16.113,-30.273,-21.484,19.043
1688303754.547,-38.086,-13.672,-28.320,-56.152,-115.723
1688303754.563,-7.324,-20.020,-34.668,-60.059,-177.246
1688303754.567,7.812,-17.578,-47.363,-37.109,-147.461
1688303754.571,-24.902,-19.043,-48.828,-9.277,-40.039
1688303754.575,-68.359,-22.949,-41.016,0.000,18.555
1688303754.579,-41.992,-20.020,-34.668,-28.809,32.227
1688303754.583,0.488,-8.301,-29.785,-48.828,-45.898
1688303754.587,-3.418,-4.883,-35.645,-40.527,-133.789
1688303754.590,-33.691,-1.953,-53.223,-30.273,-1.953
1688303754.594,-63.965,-24.414,-40.039,1.465,461.914
1688303754.598,-54.199,-54.199,-20.996,-11.719,535.645
1688303754.602,-33.691,-38.574,-29.297,-41.992,-57.617
1688303754.606,-18.066,-19.043,-31.250,-31.250,-210.449
1688303754.593,-25.391,-17.090,-32.715,-5.371,-31.738
1688303754.597,-71.289,-14.648,-35.156,-6.348,-51.270
1688303754.601,-60.059,-15.625,-41.016,-51.270,-143.555
1688303754.605,0.977,-28.809,-41.504,-69.824,-214.844
1688303754.609,15.137,-36.621,-30.273,-43.945,-224.609
1688303754.613,-13.184,-36.621,-22.461,-12.207,-128.906
1688303754.617,-49.805,-21.973,-24.414,-7.812,68.848
1688303754.620,-38.086,-12.695,-36.621,-38.086,81.543
1688303754.624,-13.184,-13.184,-35.645,-71.289,-44.434
1688303754.628,-22.949,-13.672,-32.715,-69.336,-167.480
1688303754.632,-39.551,-24.902,-42.969,-48.828,-184.082
1688303754.636,-58.105,-31.738,-36.621,-18.555,136.230
1688303754.638,-80.078,-40.527,-15.625,-20.996,357.422
1688303754.642,-65.430,-40.039,-10.254,-69.336,-79.590
1688303754.646,-37.598,-34.180,-11.230,-57.129,-287.598
1688303754.650,-34.180,-31.250,-8.789,-27.344,-104.004
1688303754.654,-58.105,-37.109,-30.273,-17.090,-5.859
1688303754.658,-63.477,-47.852,-46.387,-6.836,13.184
1688303754.662,-32.715,-57.617,-36.621,-37.598,25.879
1688303754.665,-11.719,-59.082,-35.645,-53.223,140.625
1688303754.669,-5.371,-41.992,-25.879,-23.438,142.578
1688303754.673,-27.832,-27.832,-15.137,0.977,32.227
1688303754.677,-66.406,-21.973,-18.066,-7.812,41.504
1688303754.681,-26.367,-31.738,-14.648,-22.949,217.285
1688303754.684,13.184,-18.066,-24.414,-15.625,-48.340
1688303754.688,2.441,-4.395,-35.645,-24.414,-346.680
1688303754.692,-32.715,-30.273,-27.832,-16.602,-85.449
1688303754.696,-63.965,-40.039,-27.832,-15.137,106.445
1688303754.700,-38.574,-55.664,-40.039,-50.293,-97.656
1688303754.704,7.324,-77.148,-41.504,-51.758,-291.016
1688303754.708,-5.859,-53.711,-27.344,-43.945,-27.832
1688303754.711,-62.500,-20.996,-20.508,-28.320,277.344
1688303754.715,-84.961,-5.859,-19.043,-16.602,117.676
1688303754.719,-56.641,-24.414,-23.438,-25.391,-98.145
1688303754.723,-23.438,-28.320,-24.902,-63.477,-247.559
1688303754.727,-10.742,-16.602,-15.137,-68.359,-266.113
1688303754.730,-30.273,-20.508,-25.391,-20.996,-165.039
1688303754.734,-61.523,-32.715,-39.551,-6.348,90.332
1688303754.738,-42.969,-39.551,-25.879,-28.809,156.738
1688303754.742,9.766,-32.227,-14.160,-58.594,-113.281
1688303754.746,16.602,-44.434,-28.809,-56.641,-243.652
1688303754.750,-26.367,-53.223,-37.109,-20.996,-115.723
1688303754.754,-67.383,-58.594,-29.297,-15.137,430.664
1688303754.757,-46.387,-67.383,-36.133,-35.645,485.352
1688303754.761,-2.441,-46.387,-46.387,-62.988,-182.617
1688303754.765,-3.906,-21.484,-40.527,-65.430,-294.922
1688303754.769,-33.203,-16.113,-27.832,-17.578,-15.137
1688303754.773,-94.727,-20.996,-23.438,-5.859,65.918
1688303754.774,-94.238,-25.879,-18.555,-36.133,-2.930
1688303754.778,-51.758,-43.457,-12.695,-74.707,-98.633
1688303754.782,-40.527,-56.152,-24.902,-76.660,-199.707
1688303754.786,-34.180,-41.504,-31.738,-42.480,-151.855
1688303754.790,-66.895,-38.086,-23.438,-12.695,-2.441
1688303754.794,-63.477,-45.898,-19.531,-23.438,214.355
1688303754.798,-22.949,-54.688,-29.785,-49.316,325.195
1688303754.801,-6.348,-55.664,-31.738,-38.086,-96.191
1688303754.805,-10.254,-47.852,-30.762,-39.551,-312.500
1688303754.809,-47.852,-32.227,-28.809,-12.695,89.355
1688303754.813,-53.711,-15.137,-21.973,-2.930,234.863
1688303754.817,-34.180,-14.160,-18.555,-43.457,-129.395
1688303754.848,6.836,-33.203,-24.414,-52.246,-282.715
1688303754.852,11.719,-52.246,-49.805,-28.320,-191.406
1688303754.856,-46.875,-29.785,-43.457,-13.672,-23.926
1688303754.860,-63.965,-11.230,-18.066,-8.789,12.207
1688303754.864,-18.555,-13.672,-7.324,-8.789,-46.387
1688303754.868,-8.301,-17.090,-3.418,-53.223,-89.844
1688303754.872,-17.578,-19.043,-16.602,-55.176,-83.984
1688303754.875,-36.133,-17.578,-25.391,-20.020,42.969
1688303754.879,-80.566,-27.344,-17.578,-21.973,73.730
1688303754.883,-47.852,-27.832,-20.020,-47.852,250.488
1688303754.887,-6.836,-37.109,-28.809,-76.172,228.027
1688303754.891,-3.906,-19.043,-39.062,-45.898,-184.570
1688303754.879,-40.039,-3.906,-25.879,-20.508,-114.746
1688303754.883,-102.539,-21.484,-40.039,-52.246,191.895
1688303754.887,-85.938,-11.230,-112.305,-65.430,1.953
1688303754.891,-58.594,-4.883,-83.008,-105.469,-271.973
1688303754.895,-73.730,-12.695,1.465,-137.207,-192.383
1688303754.899,-114.746,-17.578,18.555,-148.438,-19.043
1688303754.903,-163.574,-13.184,37.109,-126.465,93.262
1688303754.906,-150.879,6.348,22.949,-128.418,-12.695
1688303754.910,-106.445,20.508,-12.207,-157.715,-87.891
1688303754.914,-84.473,-5.371,-37.109,-138.184,-40.527
1688303754.918,-96.680,-21.973,-38.086,-102.539,-52.734
1688303754.922,-125.977,-12.695,-15.137,-89.355,-82.031
1688303754.923,-98.145,-17.578,-13.184,-93.750,109.375
1688303754.927,-64.941,-28.320,-15.625,-105.469,218.262
1688303754.931,-50.293,-28.320,-6.836,-99.121,-208.008
1688303754.935,-42.480,-15.625,-14.648,-52.246,-276.855
1688303754.939,-65.430,-10.742,-39.062,-19.043,19.043
1688303754.943,-74.707,-28.320,-58.105,-30.762,105.957
1688303754.947,-38.574,-27.832,-60.547,-56.641,-94.238
1688303754.950,-10.742,-22.461,-46.387,-56.641,-193.359
1688303754.954,-17.578,-35.645,-23.926,-19.531,257.812
1688303754.958,-33.203,-41.504,-32.715,8.789,454.102
1688303754.962,-36.621,-41.016,-42.480,-9.277,12.207
1688303754.966,-16.602,-37.598,-33.203,-50.781,-91.797
1688303754.968,2.930,-37.109,-34.668,-50.293,-67.383
1688303754.972,12.695,-42.480,-33.203,-13.672,-183.594
1688303754.976,-8.789,-58.105,-38.086,24.902,-104.980
1688303754.980,-36.133,-58.594,-52.734,11.230,-6.836
1688303754.984,-11.230,-34.180,-48.340,-15.625,-107.910
1688303754.988,22.949,-20.996,-39.062,-13.184,-203.125
1688303754.992,30.762,-23.438,-48.340,-16.113,-120.117
1688303754.995,-15.137,-35.645,-45.898,7.812,161.133
1688303754.999,-34.668,-43.457,-43.945,28.809,331.543
1688303755.003,-2.930,-32.227,-40.039,-11.719,-25.391
1688303755.007,26.855,-25.391,-35.645,-30.762,-247.559
1688303755.011,19.043,-27.344,-47.363,-18.555,-173.340
1688303755.014,-20.508,-35.645,-38.086,15.137,-21.973
1688303755.018,-39.551,-38.574,-31.250,41.992,93.750
1688303755.022,-21.973,-41.504,-36.621,-6.836,16.602
1688303755.026,10.254,-51.758,-38.086,-17.090,-62.988
1688303755.030,10.742,-52.246,-28.320,11.719,-123.047
1688303755.034,-20.020,-47.363,-19.043,23.926,-44.434
1688303755.038,-41.504,-36.621,-19.043,35.156,173.828
1688303755.041,-10.742,-31.250,-26.367,21.973,340.332
1688303755.045,16.602,-42.480,-34.180,7.324,207.520
1688303755.049,-3.418,-37.598,-33.691,1.465,-173.828
1688303755.053,-19.531,-43.457,-39.551,15.137,-130.371
1688303755.057,-45.410,-51.270,-52.246,37.598,130.859
1688303755.058,-42.480,-40.527,-46.875,2.930,-36.621
1688303755.062,-9.277,-54.199,-28.320,-23.438,-296.875
1688303755.066,20.508,-50.293,-21.484,-1.465,-230.957
1688303755.070,20.996,-26.367,-22.461,13.184,-103.027
1688303755.074,-16.113,-23.926,-23.926,0.000,74.707
1688303755.078,-18.066,-25.391,-29.297,-17.090,86.914
1688303755.082,-0.977,-24.414,-32.715,-39.551,83.496
1688303755.085,3.418,-32.227,-41.504,-45.898,271.973
1688303755.089,-10.742,-15.137,-50.781,-30.273,16.113
1688303755.093,-25.879,-2.930,-51.758,-16.113,-92.773
1688303755.097,-23.926,-4.395,-50.293,-2.930,11.230
1688303755.101,-8.301,-2.930,-50.293,-39.551,-168.945
1688303755.103,8.789,-1.953,-53.711,-52.734,-316.406
1688303755.107,8.301,-7.324,-51.270,-17.090,-215.820
1688303755.111,-16.113,-14.648,-49.805,0.488,30.273
1688303755.115,-35.645,-20.508,-48.340,7.324,76.660
1688303755.119,-7.324,-28.320,-43.945,-35.156,-102.051
1688303755.123,13.672,-30.273,-48.340,-63.965,-77.148
1688303755.127,16.113,-31.738,-43.457,-13.672,208.008
1688303755.130,4.395,-31.738,-37.109,28.809,244.141
1688303755.134,-7.812,-37.598,-40.527,28.809,94.727
1688303755.138,-3.906,-36.621,-45.898,-32.715,-70.312
1688303755.142,30.273,-19.043,-48.828,-65.918,22.949
1688303755.146,32.715,-0.977,-41.992,-36.621,35.156
1688303755.148,-29.785,-3.906,-31.738,0.977,-110.352
1688303755.152,-53.223,-20.996,-31.738,12.695,30.273
1688303755.156,-22.949,-20.508,-36.133,-14.648,-59.082
1688303755.160,15.625,-30.762,-41.016,-33.691,-219.727
1688303755.164,9.766,-43.457,-42.480,-34.180,-231.445
1688303755.168,-26.855,-42.969,-32.715,6.836,129.395
1688303755.172,-40.039,-31.738,-32.715,32.227,373.047
1688303755.175,-27.344,-28.809,-33.203,-23.926,28.809
1688303755.179,6.836,-28.809,-28.809,-53.711,-285.156
1688303755.183,31.738,-22.461,-27.832,-29.785,-58.594
1688303755.187,-18.555,-54.199,-30.273,7.812,272.461
1688303755.191,-57.129,-80.566,-43.945,20.508,106.445
1688303755.208,-44.922,-44.922,-45.410,-20.996,-71.777
1688303755.212,-29.785,-25.391,-24.414,-52.734,-198.730
1688303755.216,-9.277,-21.484,-21.484,-36.621,-216.797
1688303755.220,-21.973,-30.762,-23.926,-0.488,-115.723
1688303755.224,-51.758,-44.434,-5.371,21.973,35.156
1688303755.228,-39.062,-29.297,-11.719,-17.578,118.652
1688303755.232,-23.926,-20.508,-20.996,-58.594,1.953
1688303755.235,-4.883,-24.414,-19.043,-41.992,-205.566
1688303755.239,-5.859,-35.156,-21.973,-7.812,-96.680
1688303755.243,-43.945,-37.598,-31.738,36.621,459.473
1688303755.247,-50.781,-26.855,-34.668,21.484,396.484
1688303755.251,-13.672,-26.855,-20.508,-33.691,-147.949
1688303755.253,-19.043,-39.062,-20.020,-28.809,-154.297
1688303755.257,-42.480,-29.785,-29.785,-20.020,-12.695
1688303755.261,-62.012,-18.555,-30.273,-2.441,-31.250
1688303755.265,-65.430,-26.855,-30.273,4.883,-80.078
1688303755.269,-35.156,-36.133,-39.062,-44.922,-110.840
1688303755.273,6.836,-31.250,-36.621,-66.406,-134.277
1688303755.277,-7.812,-27.832,-28.320,-33.691,-46.387
1688303755.280,-51.270,-30.273,-22.949,-3.418,18.555
1688303755.284,-50.293,-53.223,-19.043,6.836,177.734
1688303755.288,-20.508,-63.965,-22.461,-24.902,235.840
1688303755.292,-13.184,-38.086,-32.227,-55.176,-99.609
1688303755.296,-27.344,-28.809,-34.668,-18.555,-185.059
1688303755.299,-42.480,-32.227,-29.297,21.484,-39.551
1688303755.303,-48.340,-27.832,-28.320,-8.301,-55.176
1688303755.307,-25.391,-20.508,-28.320,-43.945,-175.293
1688303755.311,-10.254,-21.484,-33.203,-50.781,-217.285
1688303755.315,-12.695,-20.996,-33.203,-51.270,-109.375
1688303755.319,-58.105,-23.438,-26.855,-22.949,77.148
1688303755.323,-80.078,-27.344,-21.973,-17.578,175.781
1688303755.326,-28.320,-21.973,-24.902,-64.453,-36.133
1688303755.330,8.789,-29.297,-42.969,-68.848,77.148
1688303755.334,-9.277,-29.297,-46.875,-38.574,143.555
1688303755.338,-52.246,-20.020,-28.809,-24.902,-150.879
1688303755.342,-67.871,-24.902,-20.508,-18.555,2.930
1688303755.343,-32.715,-35.645,-20.508,-32.227,140.625
1688303755.347,-9.766,-36.133,-30.762,-52.734,-129.883
1688303755.351,-19.531,-26.855,-40.039,-26.855,-275.391
1688303755.355,-41.016,-23.926,-43.945,10.742,-16.113
1688303755.359,-54.688,-20.020,-23.926,10.742,117.676
1688303755.363,-28.320,-15.625,-3.418,-25.879,-17.090
1688303755.367,2.441,-13.184,-6.836,-47.363,-98.633
1688303755.370,1.953,-21.484,-13.672,-17.578,29.785
1688303755.374,-30.762,-31.250,-20.508,16.113,297.852
1688303755.378,-60.059,-25.391,-25.879,22.949,143.555
1688303755.382,-39.551,-29.785,-24.414,-23.438,-133.789
1688303755.386,3.418,-34.180,-30.273,-59.082,-199.707
1688303755.389,10.254,-39.551,-27.344,-50.781,-270.020
1688303755.393,-18.555,-31.250,-25.879,-15.137,-195.801
1688303755.397,-49.316,-13.184,-29.297,12.695,-3.418
1688303755.401,-38.086,-12.695,-28.809,-27.832,7.812
1688303755.405,-9.277,-26.367,-31.250,-74.707,-218.262
1688303755.409,-2.930,-29.785,-37.598,-44.922,-262.207
1688303755.413,-22.461,-22.461,-41.504,2.930,-45.410
1688303755.416,-52.734,-40.039,-30.273,29.297,429.199
1688303755.420,-38.574,-41.992,-26.855,-14.648,581.543
1688303755.424,-17.578,-20.508,-34.668,-63.965,-30.762
1688303755.428,-20.508,-19.043,-37.598,-54.688,-232.910
1688303755.432,-31.738,-19.043,-28.809,-32.227,-18.066
1688303755.433,-62.500,-11.230,-27.832,-11.719,-48.340
1688303755.437,-68.359,-19.531,-30.762,-17.578,-104.980
1688303755.441,-32.227,-41.016,-29.297,-38.086,-105.469
1688303755.445,2.441,-54.199,-25.879,-41.992,-183.594
1688303755.449,-21.973,-54.688,-27.344,-41.504,-212.402
1688303755.453,-60.547,-47.852,-35.645,-19.043,-8.789
1688303755.457,-62.012,-43.457,-34.180,-3.906,271.484
1688303755.460,-46.387,-30.273,-37.109,-49.316,208.008
1688303755.464,-23.926,-11.719,-51.270,-63.965,-181.152
1688303755.468,-19.043,-10.254,-49.805,-52.246,-223.145
1688303755.472,-52.734,-27.344,-35.645,-41.992,81.055
1688303755.476,-68.359,-38.086,-28.320,-29.785,118.652
1688303755.478,-39.551,-31.250,-36.621,-65.918,-128.418
1688303755.482,-15.137,-37.598,-36.133,-70.312,-246.582
1688303755.486,-16.602,-57.129,-28.809,-35.156,-159.668
