timestamps,TP9,AF7,AF8,TP10,Right AUX
1689185418.909,40.039,-70.801,-7.812,34.668,-84.961
1689185418.913,42.969,-64.941,-3.418,48.340,-168.945
1689185418.917,-15.625,-67.871,-2.441,49.805,-123.535
1689185418.921,-33.691,-61.035,-11.230,26.855,-85.938
1689185418.925,-6.348,-50.293,-19.043,22.461,-155.273
1689185418.929,6.836,-49.805,-19.531,5.859,-79.590
1689185418.933,7.324,-51.270,-16.602,-2.441,146.484
1689185418.936,-18.066,-46.875,-12.695,13.672,13.672
1689185418.940,-7.324,-40.527,-12.695,28.320,-159.180
1689185418.944,9.277,-37.598,-17.578,3.906,-152.344
1689185418.948,1.465,-38.574,-23.438,36.133,95.703
1689185418.952,-3.906,-41.992,-22.949,34.668,479.980
1689185418.954,-18.555,-41.992,-20.020,-18.066,136.719
1689185418.958,-27.344,-43.457,-25.391,-17.578,-252.930
1689185418.962,-8.789,-39.551,-32.715,8.301,-183.105
1689185418.966,0.488,-30.762,-28.320,42.480,-140.137
1689185418.970,38.086,-27.344,-26.855,49.316,-165.527
1689185418.974,45.410,-31.250,-27.832,57.617,-86.914
1689185418.978,-34.180,-37.598,-22.949,-28.809,99.609
1689185418.981,-89.355,-36.621,-19.531,-85.938,26.855
1689185418.985,-37.109,-33.691,-22.461,-23.926,-181.152
1689185418.989,-7.324,-32.227,-27.832,-29.297,-146.484
1689185418.993,-57.129,-36.621,-22.949,-26.855,-24.902
1689185418.997,-62.988,-36.621,-18.555,-20.020,-64.453
1689185418.999,-2.441,-30.273,-25.879,-1.465,-197.266
1689185419.003,10.254,-31.250,-31.738,-13.184,-59.082
1689185419.007,-25.879,-31.250,-21.973,-4.883,89.355
1689185419.011,-19.531,-31.738,-24.902,0.000,-53.711
1689185419.015,-0.488,-26.367,-33.691,2.441,-191.406
1689185419.019,-8.789,-27.344,-26.855,5.859,89.355
1689185419.023,3.906,-37.109,-26.367,-2.441,315.918
1689185419.026,-17.578,-33.691,-25.391,-5.371,28.809
1689185419.030,-47.363,-27.832,-25.879,-38.086,-164.062
1689185419.034,-50.781,-29.785,-34.668,-51.758,-53.711
1689185419.038,-21.973,-34.668,-37.598,1.953,107.910
1689185419.042,-11.230,-36.621,-38.574,31.250,-21.484
1689185419.059,-11.230,-36.133,-40.527,-23.926,-104.492
1689185419.063,-37.109,-38.086,-33.203,-62.500,125.977
1689185419.067,-40.039,-36.133,-34.180,-47.363,179.199
1689185419.071,-20.508,-38.086,-39.062,-45.410,-110.352
1689185419.075,-26.367,-40.527,-32.715,-51.758,-158.691
1689185419.079,-36.621,-40.039,-33.691,-42.480,26.855
1689185419.083,-28.320,-39.062,-39.062,-7.324,98.633
1689185419.086,-20.020,-34.668,-42.480,-17.090,-86.914
1689185419.090,-36.621,-34.180,-42.480,-56.152,-140.137
1689185419.094,-22.949,-37.598,-44.434,-52.246,108.887
1689185419.098,8.301,-36.133,-51.270,-27.832,86.426
1689185419.102,-19.043,-39.551,-48.340,-15.137,-86.914
1689185419.119,-41.992,-46.387,-42.969,-25.391,-76.172
1689185419.123,-32.715,-41.992,-39.062,-31.738,-99.121
1689185419.127,-34.180,-40.527,-37.598,-11.719,-112.305
1689185419.131,-19.531,-41.992,-45.410,-6.836,-116.211
1689185419.135,-2.441,-41.504,-52.246,-12.207,99.609
1689185419.139,-27.344,-41.992,-42.969,-24.414,240.723
1689185419.143,-37.109,-38.574,-30.273,-55.176,-18.066
1689185419.146,-22.949,-37.109,-33.203,-67.871,-154.785
1689185419.150,-39.551,-38.574,-41.016,-58.105,53.223
1689185419.154,-39.551,-35.156,-39.551,-16.602,227.051
1689185419.158,-41.016,-36.133,-36.133,-23.438,-8.301
1689185419.162,-44.922,-37.598,-38.086,-63.965,-238.770
1689185419.149,-30.762,-37.109,-41.504,-74.219,-89.844
1689185419.153,-35.156,-34.180,-42.480,-48.828,-1.953
1689185419.157,-28.320,-32.227,-42.969,-43.457,-206.055
1689185419.161,4.883,-30.762,-38.574,-28.320,-223.633
1689185419.165,-6.348,-29.297,-42.969,-8.301,-162.109
1689185419.169,-26.855,-34.180,-48.340,-42.480,-93.750
1689185419.173,-30.762,-35.156,-39.551,-50.293,-79.102
1689185419.176,-48.828,-31.250,-30.762,-30.273,69.824
1689185419.180,-57.617,-31.738,-28.320,-48.828,110.352
1689185419.184,-48.828,-28.809,-29.297,-48.828,-132.324
1689185419.188,-30.273,-28.320,-30.762,-43.945,-193.848
1689185419.192,1.465,-32.227,-33.691,-36.133,-74.707
1689185419.194,25.879,-30.273,-34.180,-40.039,315.918
1689185419.198,14.648,-29.785,-36.133,-22.461,290.527
1689185419.202,-27.344,-31.250,-36.621,-29.297,-110.840
1689185419.206,-50.293,-30.762,-30.762,-66.406,-142.578
1689185419.210,-52.246,-30.762,-33.203,-68.848,-101.562
1689185419.214,-63.965,-46.387,-34.668,-68.359,32.715
1689185419.218,-68.848,-54.199,-33.691,-67.383,39.062
1689185419.221,-61.035,-26.367,-50.293,-66.895,20.996
1689185419.225,-54.688,-14.160,-57.617,-82.520,170.898
1689185419.229,-60.059,-19.531,-49.805,-96.191,-34.668
1689185419.233,-56.641,-15.625,-54.199,-89.844,-175.781
1689185419.237,-61.523,-14.160,-57.129,-55.176,115.723
1689185419.239,-85.449,-13.184,-59.570,-93.262,208.496
1689185419.243,-116.699,-13.672,-68.359,-149.414,-138.184
1689185419.247,-123.535,-13.184,-69.824,-121.582,-169.434
1689185419.251,-104.980,-17.090,-60.547,-136.230,-75.195
1689185419.255,-113.281,-22.461,-55.664,-142.090,-115.234
1689185419.259,-130.371,-19.043,-56.152,-142.090,-93.262
1689185419.263,-126.953,-20.508,-50.293,-133.301,-58.594
1689185419.266,-83.008,-25.391,-53.711,-114.746,223.633
1689185419.270,-62.012,-28.320,-55.176,-100.586,204.590
1689185419.274,-54.688,-26.855,-43.945,-80.566,-122.559
1689185419.278,-66.895,-20.020,-58.105,-112.793,-149.902
1689185419.282,-145.996,-20.020,-73.242,-132.812,-89.844
1689185419.299,-113.770,-28.320,-57.617,-115.723,-97.168
1689185419.303,-71.289,-29.785,-48.340,-88.379,-186.035
1689185419.307,-69.824,-26.855,-41.016,-74.219,-20.508
1689185419.311,-62.012,-30.762,-37.109,-94.727,70.312
1689185419.315,-74.707,-36.133,-37.109,-90.820,-139.160
1689185419.319,-48.340,-32.715,-35.645,-67.871,-153.809
1689185419.323,-20.508,-27.344,-47.363,-53.711,152.832
1689185419.326,-25.879,-27.344,-46.387,-63.965,321.289
1689185419.330,-39.551,-30.762,-35.645,-92.773,-11.719
1689185419.334,-76.172,-35.156,-34.180,-88.379,-201.172
1689185419.338,-83.496,-35.156,-32.715,-54.688,-4.395
1689185419.342,-47.363,-34.180,-35.156,-27.344,36.621
1689185419.330,-32.227,-39.062,-37.598,-17.578,-107.422
1689185419.334,-36.133,-36.133,-33.203,-6.836,-104.980
1689185419.338,-37.109,-27.344,-33.203,-48.340,117.188
1689185419.342,-7.812,-22.461,-34.668,-69.336,72.754
1689185419.346,-6.836,-23.926,-32.715,-36.621,-154.297
1689185419.350,-28.809,-31.738,-28.809,-25.391,-2.930
1689185419.354,-41.504,-28.320,-29.785,-52.734,146.484
1689185419.357,-71.777,-26.367,-33.691,-63.477,3.418
1689185419.361,-35.645,-28.809,-32.227,-9.277,-173.340
1689185419.365,-1.953,-25.879,-36.133,9.766,-101.074
1689185419.369,-20.996,-34.668,-53.711,-80.566,253.906
1689185419.373,-29.297,-38.086,-48.828,-61.523,166.504
1689185419.374,-43.945,-37.598,-29.785,-18.555,-208.984
1689185419.378,-64.941,-42.480,-32.227,-60.059,-172.363
1689185419.382,-21.973,-43.457,-33.691,-22.461,-109.863
1689185419.386,10.742,-37.598,-28.320,5.371,-84.961
1689185419.390,-41.992,-32.715,-24.414,-18.066,-102.051
1689185419.394,-50.781,-34.180,-21.484,-25.391,0.977
1689185419.398,-37.109,-38.574,-26.367,-28.320,326.660
1689185419.401,-0.488,-32.715,-30.273,-34.180,123.047
1689185419.405,20.996,-30.273,-37.109,-32.227,-170.410
1689185419.409,-13.672,-39.551,-38.574,-21.973,-109.863
1689185419.413,-30.762,-44.922,-26.855,-26.367,6.348
1689185419.417,-8.301,-50.293,-16.602,3.418,-66.406
1689185419.434,6.348,-31.738,-25.879,13.672,-194.824
1689185419.438,-37.109,-9.277,-37.598,-14.648,34.668
1689185419.442,-55.176,-17.090,-34.668,-28.320,93.750
1689185419.446,-59.570,-27.344,-36.621,-55.176,-156.250
1689185419.450,-98.633,-26.855,-49.805,-83.984,-143.066
1689185419.454,-82.520,-23.926,-60.547,-104.004,56.152
1689185419.458,-93.262,-23.438,-54.199,-123.535,88.867
1689185419.461,-130.371,-19.531,-49.805,-130.859,-8.301
1689185419.465,-116.211,-10.742,-56.641,-154.785,-104.004
1689185419.469,-104.492,-9.766,-58.105,-162.109,160.645
1689185419.473,-146.973,-19.531,-55.176,-169.922,220.215
1689185419.477,-148.438,-28.809,-42.969,-141.602,-120.117
1689185419.479,-115.723,-29.297,-37.109,-111.816,-50.781
1689185419.483,-120.605,-24.902,-50.781,-118.652,-11.719
1689185419.487,-107.422,-24.902,-60.547,-118.164,-166.992
1689185419.491,-95.703,-24.414,-50.293,-111.328,-155.273
1689185419.495,-77.148,-32.715,-45.898,-118.164,-2.441
1689185419.499,-89.355,-40.039,-53.223,-134.766,65.918
1689185419.503,-102.539,-33.203,-51.758,-141.602,50.781
1689185419.506,-78.613,-36.133,-43.457,-121.094,-58.594
1689185419.510,-24.902,-36.621,-25.879,-65.430,43.945
1689185419.514,-14.648,-33.691,-21.484,-19.531,381.836
1689185419.518,-23.926,-38.086,-27.832,-33.691,172.852
1689185419.522,-34.180,-36.621,-26.367,-73.242,-153.809
1689185419.524,-34.668,-32.715,-28.320,-79.590,-34.180
1689185419.528,7.812,-25.391,-31.738,-71.289,39.062
1689185419.532,-1.465,-25.391,-32.715,-39.551,-172.363
1689185419.536,-16.113,-37.598,-32.227,-34.180,-130.371
1689185419.540,-18.066,-39.551,-26.367,-32.715,-32.227
1689185419.544,-59.082,-34.180,-26.367,-58.594,-84.961
1689185419.548,-83.496,-34.180,-30.762,-80.078,-75.195
1689185419.551,-47.852,-35.645,-26.855,-60.547,-9.277
1689185419.555,-20.508,-37.109,-31.250,-46.387,208.984
1689185419.559,-15.625,-37.109,-31.250,-35.645,184.082
1689185419.563,19.043,-29.785,-23.438,-33.203,-175.781
1689185419.567,7.324,-27.344,-25.391,-46.387,-131.836
1689185419.569,-33.691,-32.227,-28.320,-36.621,11.719
1689185419.573,-45.410,-33.691,-21.973,-8.301,-68.359
1689185419.577,-60.059,-34.668,-24.414,-53.223,-126.953
1689185419.581,-48.340,-30.273,-32.715,-80.566,-88.867
1689185419.585,-31.738,-30.762,-30.762,-58.105,-80.078
1689185419.589,-36.133,-29.785,-24.902,-48.828,2.930
1689185419.593,-1.465,-25.879,-22.949,-12.695,37.109
1689185419.596,-14.648,-29.297,-28.809,-18.555,95.215
1689185419.600,-41.016,-29.785,-33.203,-56.641,187.500
1689185419.604,-24.414,-28.320,-24.902,-70.312,-68.359
1689185419.608,-38.086,-31.250,-17.578,-35.156,-124.023
1689185419.612,-17.578,-27.832,-23.926,-23.926,117.188
1689185419.615,7.324,-25.391,-25.879,-63.965,93.262
1689185419.619,-57.129,-28.809,-20.996,-73.730,-202.637
1689185419.623,-84.961,-24.902,-27.832,-53.711,-141.113
1689185419.627,-36.133,-28.320,-33.203,-21.973,10.742
1689185419.631,18.555,-26.367,-31.250,4.883,-23.926
1689185419.635,21.973,-19.531,-34.180,-24.414,-21.484
1689185419.639,-25.879,-16.602,-27.832,-48.340,-44.434
1689185419.642,-77.148,-18.066,-25.879,-47.852,117.188
1689185419.646,-38.574,-22.461,-45.898,-14.648,103.516
1689185419.650,31.738,-24.414,-52.246,12.207,-174.316
1689185419.654,-21.973,-32.715,-40.039,-41.504,-91.797
1689185419.658,-55.176,-37.109,-24.414,-79.590,-47.363
1689185419.659,-19.043,-31.738,-14.160,-82.031,-204.102
1689185419.663,-55.664,-28.809,-17.578,-67.871,-207.520
1689185419.667,-55.176,-32.227,-27.344,-4.883,-10.254
1689185419.671,-15.137,-30.273,-26.367,41.016,0.488
1689185419.675,-47.852,-31.738,-23.926,-46.387,-67.383
1689185419.679,-61.035,-32.715,-28.320,-125.977,1.953
1689185419.683,-25.879,-31.738,-27.832,-83.496,165.527
1689185419.686,-19.043,-36.133,-26.367,-10.254,462.402
1689185419.690,-16.113,-35.156,-33.691,-25.879,163.086
1689185419.694,-30.762,-35.156,-32.715,-73.730,-219.727
1689185419.698,-56.152,-36.621,-22.949,-70.312,-67.383
1689185419.702,-57.617,-30.762,-29.297,-76.172,-38.086
1689185419.704,-23.438,-31.250,-34.668,-29.297,-137.695
1689185419.708,9.766,-32.227,-32.715,18.555,-124.512
1689185419.712,-1.953,-31.738,-31.250,-63.477,-28.809
1689185419.716,-33.691,-34.668,-18.066,-132.324,-36.133
1689185419.720,-77.637,-34.668,-17.090,-121.582,-178.711
1689185419.724,-76.172,-32.227,-26.855,-43.457,-141.113
1689185419.728,-44.922,-30.762,-25.879,-14.648,256.348
1689185419.731,-47.363,-28.809,-26.855,-56.641,323.242
1689185419.735,-62.988,-32.227,-27.344,-72.754,-171.387
1689185419.739,-41.504,-32.227,-22.949,-70.312,-215.332
1689185419.743,-19.043,-28.809,-19.531,-47.852,5.371
1689185419.747,-4.395,-32.227,-17.578,-23.438,-25.391
1689185419.749,-7.812,-29.785,-19.531,-28.809,-164.551
1689185419.753,-77.148,-27.344,-20.996,-71.777,-157.715
1689185419.757,-92.285,-32.227,-21.484,-86.914,-135.742
1689185419.761,-37.598,-26.855,-26.855,-53.711,-149.902
1689185419.765,-11.719,-21.484,-21.973,-8.301,-132.812
1689185419.769,-34.180,-29.785,-18.066,-25.879,131.836
1689185419.773,-64.453,-34.668,-23.926,-70.801,250.000
1689185419.776,-80.078,-34.668,-27.344,-79.590,-88.867
1689185419.780,-32.715,-30.273,-24.414,-60.059,-235.352
1689185419.784,2.441,-27.832,-24.414,-25.391,115.234
1689185419.788,-30.273,-30.273,-23.438,-21.484,361.816
1689185419.792,-45.410,-28.320,-25.391,-39.551,36.133
1689185419.809,-57.129,-24.414,-31.250,-62.012,-173.828
1689185419.813,-50.781,-27.344,-31.250,-52.734,61.523
1689185419.817,-28.809,-29.785,-26.367,-24.414,224.121
1689185419.821,-20.020,-28.809,-29.297,-57.617,-82.520
1689185419.825,-32.227,-23.926,-32.227,-86.914,-117.676
1689185419.829,-47.852,-24.414,-30.762,-73.730,31.738
1689185419.833,-36.621,-28.809,-26.367,-44.922,-60.547
1689185419.836,-25.391,-26.855,-20.020,-38.086,-158.691
1689185419.840,-30.762,-33.691,-19.531,-19.531,-122.070
1689185419.844,-40.527,-36.133,-23.926,-40.527,93.750
1689185419.848,-54.688,-28.809,-24.902,-83.984,7.812
1689185419.852,-27.832,-27.344,-24.414,-74.219,-246.094
1689185419.854,-0.488,-27.344,-25.391,-12.695,-69.824
1689185419.858,-32.715,-32.227,-26.367,-9.277,70.312
1689185419.862,-66.406,-34.668,-30.273,-48.340,-50.293
1689185419.866,-71.777,-31.250,-26.855,-23.438,-101.562
1689185419.870,-49.316,-27.832,-24.414,-11.719,-18.066
1689185419.874,-6.348,-26.367,-25.391,-23.926,95.703
1689185419.878,7.324,-23.438,-30.273,-36.621,64.453
1689185419.881,-16.602,-24.902,-30.762,-59.570,-75.684
1689185419.885,-65.918,-28.320,-25.879,-47.852,-70.801
1689185419.889,-59.570,-30.762,-25.391,-3.418,-23.926
1689185419.893,-1.465,-32.227,-30.762,-16.113,9.277
1689185419.897,-8.789,-32.227,-36.621,-64.941,-26.855
1689185419.899,-59.570,-35.156,-34.668,-45.410,109.863
1689185419.903,-59.570,-35.156,-39.062,-40.039,250.000
1689185419.907,-41.504,-31.250,-39.551,-52.734,-20.996
1689185419.911,-23.438,-30.762,-35.156,-16.113,-111.816
1689185419.915,-2.930,-32.227,-31.250,34.180,25.879
1689185419.919,-5.371,-30.273,-34.668,1.953,85.449
1689185419.923,-26.367,-32.227,-44.922,-49.805,-33.203
1689185419.926,-37.109,-33.203,-41.016,-61.523,-96.191
1689185419.930,-44.434,-33.203,-36.133,-63.477,152.344
1689185419.934,-57.617,-33.691,-32.715,-26.367,234.863
1689185419.938,-19.531,-26.855,-31.738,-15.137,-51.270
1689185419.942,-26.367,-26.855,-34.180,-49.805,-100.098
1689185419.944,-33.203,-25.391,-33.203,-41.016,-76.172
1689185419.948,19.531,-19.531,-35.645,7.324,-112.305
1689185419.952,8.301,-20.508,-38.574,10.742,-62.012
1689185419.956,-43.457,-29.785,-40.039,-28.809,37.598
1689185419.960,-66.406,-33.203,-39.062,-47.852,-17.090
1689185419.964,-62.500,-30.273,-40.527,-56.152,-135.742
1689185419.968,-45.410,-30.273,-44.922,-48.340,-56.641
1689185419.971,0.488,-33.203,-41.992,1.953,263.672
1689185419.975,-2.441,-33.203,-36.133,15.625,469.238
1689185419.979,-51.758,-34.180,-34.668,-6.348,93.750
1689185419.983,-54.199,-35.156,-34.180,-29.785,-133.789
1689185419.987,-11.230,-34.180,-30.273,-24.902,103.027
1689185419.989,12.695,-36.621,-35.156,-10.742,90.332
1689185419.993,13.672,-35.645,-35.156,4.395,-114.746
1689185419.997,-20.508,-31.250,-29.785,-1.465,-170.898
1689185420.001,-65.430,-29.785,-38.574,-33.203,-149.902
1689185420.005,-70.312,-31.250,-48.340,-13.672,-126.465
1689185420.009,-34.180,-31.738,-39.062,-20.508,-41.992
1689185420.013,-11.230,-33.203,-30.762,-51.270,22.949
1689185420.016,-45.410,-37.109,-30.273,-16.113,296.875
1689185420.020,-27.832,-37.109,-33.691,-20.508,294.922
1689185420.024,-4.395,-35.156,-35.645,-32.715,-187.988
1689185420.028,-33.691,-34.668,-32.227,-1.465,-166.992
1689185420.032,-20.508,-35.645,-29.297,-2.930,-61.035
1689185420.034,-8.789,-34.668,-32.715,-1.465,-163.086
1689185420.038,-28.809,-30.273,-38.086,-42.969,-196.777
1689185420.042,-44.434,-28.809,-35.156,-82.520,-110.352
1689185420.046,-25.879,-27.832,-27.832,-15.625,-44.922
1689185420.050,-14.160,-30.762,-28.809,-22.949,-45.898
1689185420.054,-32.227,-32.715,-30.273,-59.082,-97.656
1689185420.058,-40.039,-28.320,-28.320,-57.617,69.336
1689185420.061,-33.203,-29.297,-27.344,-23.926,224.121
1689185420.065,-11.230,-29.297,-23.926,27.832,-19.043
1689185420.069,7.324,-25.879,-28.320,-1.465,-87.891
1689185420.073,-53.223,-31.738,-34.180,-76.660,20.996
1689185420.077,-88.379,-40.039,-33.691,-79.590,-18.066
1689185420.079,-64.453,-37.598,-33.203,-55.176,-120.117
1689185420.083,-41.992,-34.668,-31.738,-25.391,-169.922
1689185420.087,-21.973,-36.133,-22.949,-0.977,88.379
1689185420.091,-29.297,-36.133,-23.438,-3.906,152.832
1689185420.095,-42.480,-37.109,-31.738,-26.855,-152.832
1689185420.099,-10.254,-30.762,-36.621,-51.270,-86.426
1689185420.103,7.324,-27.832,-37.109,-65.430,295.898
1689185420.106,-2.930,-30.273,-35.645,-38.086,266.602
1689185420.110,-45.410,-27.832,-31.250,-20.996,-132.324
1689185420.114,-48.828,-23.438,-25.391,-20.996,-160.645
1689185420.118,-10.742,-17.578,-26.367,-17.090,-146.484
1689185420.122,-0.488,-18.066,-29.297,-36.133,-181.152
1689185420.125,-39.062,-20.020,-37.109,-41.504,-101.562
1689185420.129,-72.266,-25.391,-37.109,-40.527,46.875
1689185420.133,-56.152,-28.320,-28.809,-22.461,61.035
1689185420.137,-10.254,-26.855,-30.762,-39.551,-100.586
1689185420.141,20.996,-22.461,-26.367,-61.523,-195.312
1689185420.145,-23.926,-22.461,-20.996,-13.672,22.949
1689185420.149,-35.156,-26.855,-23.438,-17.090,250.000
1689185420.152,-67.383,-35.645,-23.438,-37.598,-23.438
1689185420.156,-82.031,-36.621,-24.902,-77.148,-232.422
1689185420.160,-16.113,-28.320,-30.762,-62.012,-10.742
1689185420.164,19.043,-30.762,-37.109,-30.273,177.246
1689185420.168,-31.250,-36.133,-35.645,-46.875,64.941
1689185420.184,-57.129,-29.785,-24.414,-50.781,-97.656
1689185420.188,-52.246,-27.832,-26.367,-68.848,71.289
1689185420.192,-48.828,-31.250,-31.738,-69.824,117.676
1689185420.196,-34.180,-28.320,-30.273,-19.531,-66.895
1689185420.200,-3.906,-27.832,-33.203,6.836,-56.152
1689185420.204,-34.180,-32.715,-32.227,-11.230,204.590
1689185420.208,-79.102,-29.297,-31.250,-50.293,233.398
1689185420.211,-42.480,-28.320,-31.250,-69.336,-176.270
1689185420.215,0.488,-24.414,-29.785,-29.785,-147.461
1689185420.219,-17.578,-25.391,-28.809,-7.812,0.488
1689185420.223,-20.020,-33.691,-28.320,-8.789,-107.422
1689185420.227,-24.902,-33.691,-33.203,-45.898,-227.539
1689185420.229,-66.895,-38.574,-33.691,-74.707,-152.832
1689185420.233,-59.570,-36.621,-24.902,-38.086,-58.594
1689185420.237,-39.551,-37.598,-23.438,-27.344,-90.820
1689185420.241,-47.852,-39.551,-28.809,-46.875,-137.695
1689185420.245,-46.875,-27.832,-30.273,-48.340,-82.031
1689185420.249,-56.641,-22.461,-31.738,-78.613,-5.859
1689185420.253,-43.945,-26.855,-34.668,-63.477,7.812
1689185420.256,-35.645,-30.273,-29.297,-28.320,25.879
1689185420.260,-56.152,-31.250,-30.762,-41.504,119.629
1689185420.264,-73.242,-34.180,-37.598,-80.566,292.969
1689185420.268,-69.824,-34.180,-34.180,-61.523,114.258
1689185420.272,-33.691,-30.762,-33.203,-34.668,-106.934
1689185420.274,-21.973,-32.227,-38.574,-52.734,43.457
1689185420.278,-54.688,-39.551,-41.016,-60.059,66.895
1689185420.282,-54.199,-35.645,-35.156,-82.520,-192.383
1689185420.286,-62.988,-29.297,-31.250,-53.711,-299.316
1689185420.290,-62.500,-34.180,-29.785,-23.926,-220.703
1689185420.294,-10.254,-35.645,-28.320,-19.043,-33.691
1689185420.298,0.977,-31.738,-31.738,-45.898,29.785
1689185420.301,-35.156,-31.250,-34.180,-61.035,-160.156
1689185420.305,-66.895,-32.227,-28.809,11.719,39.062
1689185420.309,-53.711,-31.738,-28.809,-22.461,200.684
1689185420.313,-16.602,-30.273,-34.180,-78.125,-132.324
1689185420.317,-13.672,-33.691,-28.809,-56.641,-149.902
1689185420.319,-51.758,-30.273,-25.391,-44.434,-121.094
1689185420.323,-60.547,-21.484,-35.156,-44.922,-230.957
1689185420.327,-19.043,-24.902,-39.551,-39.551,-216.797
1689185420.331,-13.672,-30.273,-40.527,-44.922,-33.203
1689185420.335,-1.465,-33.203,-39.062,-29.297,-0.977
1689185420.339,-27.832,-37.598,-38.574,-27.832,-36.133
1689185420.343,-77.148,-40.527,-40.039,-53.711,-76.172
1689185420.346,-59.570,-39.062,-37.598,-39.551,81.055
1689185420.350,-3.418,-35.645,-35.645,-24.414,242.188
1689185420.354,2.441,-32.715,-40.527,-24.902,1.465
1689185420.358,-43.457,-32.227,-45.410,-63.477,-90.332
1689185420.362,-69.336,-32.715,-41.992,-85.449,180.664
1689185420.364,-44.922,-34.668,-44.434,-56.641,267.090
1689185420.368,-27.344,-35.156,-50.781,-37.598,-57.129
1689185420.372,-14.160,-33.203,-40.039,-13.184,-135.742
1689185420.376,3.906,-31.738,-26.855,-2.930,-55.664
1689185420.380,-27.832,-37.598,-29.297,-41.992,-100.586
1689185420.384,-66.895,-43.945,-35.645,-86.914,-161.621
1689185420.388,-69.824,-41.504,-34.668,-71.777,-78.125
1689185420.391,-49.316,-33.691,-35.156,-50.781,250.000
1689185420.395,-64.453,-32.227,-37.598,-67.383,189.941
1689185420.399,-47.363,-30.273,-35.156,-66.895,-228.027
1689185420.403,-5.371,-24.414,-28.809,-39.551,-217.773
1689185420.407,-11.719,-32.715,-28.320,0.000,-116.211
1689185420.410,-13.672,-38.086,-28.809,28.320,-93.750
1689185420.414,-55.176,-32.715,-25.879,8.301,-43.945
1689185420.418,-108.398,-31.250,-30.273,-60.547,-17.090
1689185420.422,-71.289,-35.645,-34.180,-87.402,-14.648
1689185420.426,-19.043,-33.691,-32.715,-58.105,-95.215
1689185420.430,4.883,-26.367,-33.691,-21.973,-103.516
1689185420.434,22.461,-27.832,-37.598,-18.066,109.375
1689185420.437,-4.883,-32.227,-35.645,-28.320,240.234
1689185420.441,-64.453,-34.668,-31.250,-22.461,-104.004
1689185420.445,-45.898,-37.109,-29.785,-17.090,-199.707
1689185420.449,-24.414,-39.551,-34.180,-36.133,46.875
1689185420.453,-42.480,-36.621,-38.086,-43.945,78.613
1689185420.454,-63.477,-33.691,-32.715,-47.363,-121.094
1689185420.458,-60.059,-39.551,-27.344,-38.574,-192.383
1689185420.462,-13.672,-39.551,-29.297,-20.996,-84.473
1689185420.466,8.301,-32.715,-25.879,9.766,20.996
1689185420.470,-21.484,-31.738,-25.879,6.348,-64.941
1689185420.474,-51.758,-29.297,-29.297,-54.688,-116.211
1689185420.478,-52.734,-23.926,-24.902,-51.270,148.926
1689185420.481,-56.641,-25.391,-27.832,-12.695,158.203
1689185420.485,-62.012,-24.902,-26.367,-31.738,-111.816
1689185420.489,-48.828,-22.949,-22.949,-56.152,-94.727
1689185420.493,-28.320,-28.809,-27.344,-56.641,72.754
1689185420.497,-17.578,-26.367,-32.227,-74.219,-32.227
1689185420.499,-20.508,-27.344,-31.250,-38.574,-222.168
1689185420.503,-25.879,-33.691,-28.320,8.301,-111.328
1689185420.507,-26.367,-37.109,-33.203,-17.090,-29.785
1689185420.511,6.836,-33.203,-36.133,-41.016,-62.500
1689185420.515,4.883,-26.855,-34.180,-29.297,-116.211
1689185420.519,-25.879,-26.855,-35.645,-15.625,22.949
1689185420.523,-31.738,-29.785,-36.133,-27.832,116.699
1689185420.526,-37.598,-32.227,-31.250,-31.250,96.191
1689185420.530,-58.105,-35.156,-23.438,-36.133,-22.949
1689185420.534,-59.570,-27.344,-22.461,-50.293,22.461
1689185420.538,-34.180,-24.414,-25.391,-48.340,315.430
1689185420.542,-10.742,-25.879,-24.902,-5.859,48.340
1689185420.559,4.395,-27.344,-19.043,15.625,-115.723
1689185420.563,9.277,-25.879,-30.273,-18.066,-13.184
1689185420.567,18.066,-17.090,-53.223,-13.672,-77.148
1689185420.571,14.160,-21.973,-43.457,-1.465,-250.977
1689185420.575,-29.785,-39.062,-18.066,-26.855,-174.805
1689185420.579,-51.758,-43.457,-8.301,-19.531,49.316
1689185420.583,-43.945,-44.434,-5.371,-0.977,66.895
1689185420.586,-43.945,-46.387,-0.977,-4.395,-121.582
1689185420.590,-16.602,-50.781,-4.883,-3.418,-97.168
1689185420.594,18.066,-55.664,-7.324,16.113,139.160
1689185420.598,40.527,-58.105,-8.301,30.273,44.922
1689185420.602,32.715,-60.059,-1.953,37.109,-107.910
1689185420.604,-34.180,-64.453,7.324,36.621,-101.562
1689185420.608,-41.504,-66.895,1.953,16.602,-23.438
1689185420.612,5.371,-66.895,0.977,47.363,-93.262
1689185420.616,21.484,-66.406,6.348,66.895,-116.211
1689185420.620,34.668,-58.594,5.859,68.848,-25.879
1689185420.624,33.691,-52.246,4.883,59.082,10.254
1689185420.628,9.277,-50.293,5.371,27.832,-3.906
1689185420.631,18.066,-42.969,0.977,52.734,-75.684
1689185420.635,32.715,-41.016,-1.953,84.473,82.031
1689185420.639,29.785,-40.527,-4.395,77.148,298.828
1689185420.643,39.062,-31.738,-7.812,51.758,54.199
1689185420.647,15.625,-30.273,-10.742,-7.324,-133.301
1689185420.649,8.301,-32.227,-17.090,-23.926,110.840
1689185420.653,23.926,-31.738,-20.508,23.438,258.789
1689185420.657,-5.371,-36.621,-19.043,15.625,-63.965
1689185420.661,-5.371,-40.039,-17.090,-11.719,-158.203
1689185420.665,4.395,-37.598,-13.672,-14.648,-99.121
1689185420.669,-32.227,-35.156,-15.625,-9.277,-90.820
1689185420.673,-23.926,-33.203,-15.625,14.648,-20.020
1689185420.676,-16.113,-31.738,-15.625,27.832,-51.270
1689185420.680,-11.719,-26.367,-24.414,-21.484,158.203
1689185420.684,-6.348,-28.809,-27.344,-60.059,164.062
1689185420.688,3.418,-29.297,-24.414,-32.715,-124.023
1689185420.692,4.395,-30.762,-20.996,-14.160,-20.020
1689185420.695,-18.555,-42.480,-21.973,-0.488,21.484
1689185420.699,-19.043,-40.527,-24.902,-3.906,-4.883
1689185420.703,-26.367,-28.320,-17.578,-18.066,-57.617
1689185420.707,-16.602,-27.832,-14.648,-31.250,-20.020
1689185420.711,17.090,-31.738,-19.531,-33.203,135.254
1689185420.715,-7.324,-32.715,-17.578,-39.062,137.207
1689185420.719,-42.969,-30.762,-18.555,-43.945,133.301
1689185420.722,-43.945,-31.250,-28.809,-38.086,200.684
1689185420.726,-18.555,-34.668,-30.273,-18.555,172.852
1689185420.730,-2.441,-29.297,-26.855,-10.742,-75.684
1689185420.734,-38.086,-24.414,-26.855,-29.785,-84.473
1689185420.738,-55.176,-27.832,-25.391,-28.809,176.270
1689185420.739,-36.133,-29.785,-23.926,-34.180,75.684
1689185420.743,-69.336,-30.762,-25.391,-68.359,-203.125
1689185420.747,-40.527,-29.785,-32.227,-49.805,-168.945
1689185420.751,-6.836,-34.180,-31.738,-11.230,-25.391
1689185420.755,-18.555,-33.203,-27.832,-29.297,35.156
1689185420.759,-7.812,-31.738,-26.367,-61.035,-39.551
1689185420.763,-26.367,-32.227,-29.785,-74.219,-79.102
1689185420.766,-31.738,-32.715,-31.250,-56.641,159.668
1689185420.770,-15.625,-31.738,-31.738,-13.184,266.113
1689185420.774,-28.809,-35.156,-32.227,17.578,-65.430
1689185420.778,-47.363,-38.086,-35.156,-26.367,-120.605
1689185420.782,-47.363,-34.668,-30.762,-57.617,-130.859
1689185420.784,-14.160,-28.320,-28.320,-61.523,-217.773
1689185420.788,-5.859,-25.879,-33.203,-62.988,-124.512
1689185420.792,-13.672,-28.320,-32.227,-24.414,1.465
1689185420.796,-30.762,-25.879,-27.832,-43.945,-25.391
1689185420.800,-47.852,-32.227,-25.879,-85.938,-166.992
1689185420.804,-45.898,-38.086,-26.855,-70.801,-110.840
1689185420.808,-19.043,-29.785,-27.344,-42.969,198.242
1689185420.811,-4.883,-25.879,-27.832,-30.273,415.039
1689185420.815,-15.137,-29.785,-31.738,-56.152,80.078
1689185420.819,-14.160,-29.297,-33.203,-64.453,-220.215
1689185420.823,-13.672,-29.785,-32.715,-32.227,-7.812
1689185420.827,-28.809,-36.133,-35.645,-20.508,110.840
1689185420.829,-28.320,-35.645,-34.180,-10.254,-28.809
1689185420.833,-49.805,-37.109,-28.320,-27.832,-114.258
1689185420.837,-64.453,-38.574,-26.855,-47.852,29.297
1689185420.841,-28.320,-35.156,-28.809,-34.180,60.059
1689185420.845,2.930,-30.762,-27.344,-20.508,-189.941
1689185420.849,-0.977,-30.762,-28.320,-21.484,-136.719
1689185420.853,-12.695,-32.715,-32.227,-40.039,217.285
1689185420.856,-11.230,-31.738,-32.715,-40.527,141.113
1689185420.860,-18.555,-31.738,-33.691,-31.250,-250.977
1689185420.864,-5.371,-31.738,-27.832,-34.668,-162.598
1689185420.868,23.926,-29.785,-25.391,-18.066,1.953
1689185420.872,6.836,-32.715,-26.855,9.277,-91.797
1689185420.889,-29.297,-38.574,-23.926,3.906,-226.562
1689185420.893,-49.316,-41.016,-20.996,-17.578,-170.410
1689185420.897,-32.227,-39.062,-18.066,-20.508,-73.242
1689185420.901,5.859,-37.109,-20.508,23.438,-48.340
1689185420.905,4.395,-37.598,-22.461,58.594,-65.918
1689185420.909,-17.578,-37.109,-27.832,5.859,71.777
1689185420.913,-28.320,-34.180,-31.250,-45.898,151.855
1689185420.916,-5.371,-34.180,-26.855,-27.344,-41.992
1689185420.920,25.391,-29.297,-25.391,3.418,-115.234
1689185420.924,14.160,-25.879,-23.438,4.883,91.309
1689185420.928,-2.441,-27.832,-21.484,-6.348,170.410
1689185420.932,2.441,-25.879,-27.832,-38.086,-23.926
1689185420.934,17.090,-27.344,-33.691,-31.738,-125.977
1689185420.938,10.254,-32.227,-21.484,11.230,68.359
1689185420.942,-19.531,-33.203,-20.508,12.695,232.910
1689185420.946,-21.973,-30.273,-32.715,-20.020,-98.145
1689185420.950,-34.668,-31.250,-37.109,-44.434,-214.844
1689185420.954,-29.785,-28.320,-34.668,-28.809,-3.418
1689185420.958,-18.555,-28.320,-27.832,-3.418,106.445
1689185420.961,-16.602,-31.738,-25.879,1.465,-45.898
1689185420.965,-21.973,-30.762,-29.785,-15.625,-170.898
1689185420.969,-29.297,-31.738,-35.645,-38.086,62.012
1689185420.973,-2.930,-33.691,-43.457,-21.973,92.773
1689185420.977,9.277,-30.762,-39.551,4.395,-123.047
1689185420.979,42.480,-21.973,-35.156,-15.625,-36.133
1689185420.983,24.414,-25.391,-33.203,-24.902,1.465
1689185420.987,-50.293,-30.762,-32.227,-25.879,-96.191
1689185420.991,-38.574,-29.297,-29.297,-20.508,-196.289
1689185420.995,8.301,-31.738,-25.391,-14.160,-33.203
1689185420.999,-3.906,-33.691,-30.273,-42.480,179.688
1689185421.003,-59.082,-36.133,-33.691,-51.758,45.898
1689185421.006,-63.477,-37.598,-28.809,-54.199,-162.598
1689185421.010,-23.926,-37.109,-24.902,-34.668,6.348
1689185421.014,-4.883,-35.645,-27.344,-12.695,253.418
1689185421.018,-8.789,-31.250,-33.203,-39.062,90.820
1689185421.022,0.000,-28.809,-34.668,-53.223,-56.152
1689185421.024,-15.137,-32.227,-35.156,-36.133,7.324
1689185421.028,-15.625,-33.691,-37.109,-31.250,7.324
1689185421.032,4.395,-31.250,-34.180,-5.859,-150.391
1689185421.036,-13.672,-36.621,-32.715,8.301,-119.141
1689185421.040,-34.180,-41.016,-41.504,-47.363,-8.301
1689185421.044,-63.477,-35.645,-40.527,-71.777,10.742
1689185421.048,-56.152,-34.180,-35.156,-86.914,-56.152
1689185421.051,-14.648,-31.738,-37.598,-71.289,-143.555
1689185421.055,2.441,-33.203,-29.297,5.371,131.836
1689185421.059,-25.879,-38.574,-22.461,40.527,259.766
1689185421.063,-38.574,-35.645,-27.344,-16.602,-178.223
1689185421.067,-23.438,-32.227,-35.645,-57.617,-226.562
1689185421.069,7.812,-34.180,-36.133,-36.621,-99.121
1689185421.073,2.930,-34.668,-35.645,-21.973,-31.738
1689185421.077,-56.152,-31.738,-35.645,-52.246,-46.387
1689185421.081,-69.824,-33.691,-35.645,-77.148,-62.500
1689185421.085,-60.059,-41.016,-36.621,-51.758,-63.477
1689185421.089,-18.555,-35.156,-33.203,-27.344,-35.156
1689185421.093,17.578,-31.250,-31.250,2.930,-15.137
1689185421.096,-5.859,-36.133,-29.785,24.902,136.719
1689185421.100,-34.180,-40.527,-30.273,15.137,385.254
1689185421.104,-52.246,-42.480,-32.715,-30.273,33.203
1689185421.108,-27.832,-39.062,-37.598,-46.875,-184.082
1689185421.112,30.273,-33.691,-40.527,-33.203,28.809
1689185421.114,7.324,-34.180,-37.598,-30.273,-22.949
1689185421.118,-49.316,-40.527,-34.668,-39.551,-169.434
1689185421.122,-57.129,-42.969,-34.668,-28.809,-164.062
1689185421.126,-35.645,-46.387,-36.133,-5.859,-27.832
1689185421.130,-16.602,-55.176,-36.133,26.367,8.789
1689185421.134,-0.488,-49.316,-36.621,29.297,-55.176
1689185421.138,-16.602,-40.039,-35.156,-11.230,-28.809
1689185421.141,-24.414,-38.574,-33.203,-45.898,186.523
1689185421.145,-1.465,-37.109,-37.598,-47.363,160.156
1689185421.149,-2.441,-42.969,-42.480,-46.387,-47.363
1689185421.153,-16.602,-44.922,-34.180,-34.668,3.418
1689185421.157,-18.066,-46.387,-34.180,-25.879,42.969
1689185421.162,-20.020,-49.316,-36.133,-66.406,-148.926
1689185421.166,-19.531,-49.805,-30.762,-45.898,-264.160
1689185421.170,-29.785,-48.340,-36.621,-6.348,-99.609
1689185421.174,-19.043,-43.457,-43.457,-20.996,-6.836
1689185421.178,-19.043,-41.992,-44.922,-38.086,-98.145
1689185421.182,-26.367,-47.363,-35.645,-49.805,-108.887
1689185421.186,-4.395,-48.340,-23.926,-20.020,120.117
1689185421.189,8.789,-44.434,-23.438,7.812,270.020
1689185421.193,9.766,-44.922,-27.344,11.230,-0.977
1689185421.197,-10.254,-46.875,-28.320,-31.738,-167.969
1689185421.201,-51.758,-51.270,-24.414,-59.570,-10.742
1689185421.205,-61.523,-54.199,-19.531,-37.598,34.180
1689185421.205,-42.969,-50.781,-29.297,-18.555,-71.289
1689185421.209,-8.789,-48.828,-35.645,0.000,-72.266
1689185421.213,-4.883,-47.852,-37.109,-4.395,2.441
1689185421.217,-20.020,-45.898,-40.039,-34.668,-82.031
1689185421.221,-6.836,-42.969,-31.738,-40.527,-164.062
1689185421.225,16.113,-38.086,-24.902,2.441,-67.383
1689185421.229,20.020,-40.039,-27.344,38.574,276.855
1689185421.232,-27.344,-47.363,-33.203,9.277,601.562
1689185421.236,-53.223,-42.480,-30.762,-26.367,131.836
1689185421.240,-31.250,-37.109,-31.738,-37.598,-232.910
1689185421.244,-1.465,-43.457,-33.691,-30.762,-145.508
1689185421.248,12.207,-55.664,-33.691,-14.160,-97.656
1689185421.264,-10.254,-48.340,-37.598,-26.367,-107.910
1689185421.268,-46.875,-31.738,-41.992,-48.828,-77.148
1689185421.272,-45.410,-32.227,-47.852,-65.918,-84.961
1689185421.276,-21.484,-38.086,-53.223,-62.988,-132.812
1689185421.280,-22.461,-36.133,-55.176,-27.344,-131.348
1689185421.284,-52.734,-29.297,-63.965,-48.828,97.168
1689185421.288,-45.410,-31.250,-65.918,-83.984,360.840
1689185421.291,-24.902,-27.832,-55.176,-66.895,-16.113
1689185421.295,-46.387,-29.297,-50.781,-67.871,-263.672
1689185421.299,-53.223,-34.180,-50.781,-55.176,-139.160
1689185421.303,-41.016,-32.227,-60.547,-52.246,-48.340
1689185421.307,-46.387,-30.762,-58.105,-87.402,-118.164
1689185421.309,-64.941,-34.668,-45.410,-92.773,-258.789
1689185421.313,-33.203,-33.691,-44.434,-66.895,-62.012
1689185421.317,-12.695,-34.180,-41.992,-37.109,38.086
1689185421.321,-5.859,-34.180,-46.387,-20.020,-180.176
1689185421.325,7.324,-32.715,-45.410,-21.484,-154.785
1689185421.329,-12.695,-35.645,-38.086,-41.504,1.465
1689185421.333,-45.898,-40.527,-40.039,-68.359,8.301
1689185421.336,-38.086,-40.039,-41.504,-50.293,-49.316
1689185421.340,-28.809,-32.715,-41.504,-21.973,-112.793
1689185421.344,-47.363,-35.156,-41.016,-33.203,139.160
1689185421.348,-52.734,-40.039,-46.387,-42.969,196.289
1689185421.352,-42.480,-38.574,-43.945,-29.785,-193.848
1689185421.354,-8.789,-39.551,-35.156,-24.414,-156.250
1689185421.358,6.836,-44.434,-38.574,-43.945,-17.090
1689185421.362,-13.184,-44.922,-40.039,-46.387,-67.871
1689185421.366,-14.160,-38.086,-35.645,-30.762,-156.738
1689185421.370,-29.297,-38.086,-37.109,-37.598,-118.164
1689185421.374,-7.324,-39.551,-32.715,-22.949,68.848
1689185421.378,10.254,-45.410,-30.762,-2.930,127.930
1689185421.381,-43.457,-47.363,-35.645,-16.113,-22.949
1689185421.385,-62.500,-48.340,-33.203,-21.973,3.906
1689185421.389,-34.180,-48.828,-31.250,-8.301,242.676
1689185421.393,10.742,-43.457,-38.574,-28.320,64.941
1689185421.397,0.977,-36.133,-38.086,-37.109,-148.926
1689185421.399,-13.672,-37.109,-34.180,-37.598,13.672
1689185421.403,-48.340,-52.246,-42.969,-66.406,10.742
1689185421.407,-73.242,-52.246,-43.457,-73.242,-261.230
1689185421.411,-46.875,-45.898,-34.668,-30.762,-241.699
1689185421.415,1.953,-47.852,-39.062,15.137,-96.680
1689185421.419,17.578,-50.293,-31.250,0.977,-40.527
1689185421.423,-25.879,-42.480,-21.973,-43.457,-96.680
1689185421.426,-43.945,-45.898,-25.879,-65.918,-166.016
1689185421.430,-30.762,-50.781,-27.832,-61.523,-39.062
1689185421.434,3.906,-39.551,-30.762,-23.438,95.215
1689185421.438,1.465,-41.992,-29.297,-2.441,34.668
1689185421.442,-35.156,-45.898,-29.297,-15.625,-49.805
1689185421.444,-65.918,-45.410,-35.156,-42.969,126.465
1689185421.448,-32.227,-46.387,-40.039,-33.691,65.430
1689185421.452,-4.395,-43.945,-38.086,-15.137,-128.418
1689185421.456,14.648,-36.133,-26.855,2.441,-73.242
1689185421.460,-4.395,-37.109,-21.973,-12.207,-69.336
1689185421.464,-26.367,-40.039,-26.855,-60.059,-103.516
1689185421.468,6.348,-34.180,-26.855,-52.734,-95.703
1689185421.471,5.371,-39.551,-24.414,-8.789,101.074
1689185421.475,-27.832,-49.316,-23.438,-10.254,280.273
1689185421.479,-47.363,-52.246,-25.391,-37.598,-22.949
1689185421.483,-36.133,-49.805,-35.156,-35.645,-190.430
1689185421.487,-27.832,-46.387,-35.645,-3.418,81.543
1689185421.489,-17.578,-45.410,-31.738,4.883,250.000
1689185421.493,-6.836,-41.504,-32.715,-24.414,4.883
1689185421.497,-20.996,-42.969,-25.879,-42.969,-106.445
1689185421.501,-25.879,-47.363,-26.855,-22.461,0.977
1689185421.505,-40.527,-43.945,-35.156,-18.555,5.371
1689185421.509,-14.648,-43.945,-32.715,-21.973,36.621
1689185421.513,-9.277,-46.387,-28.809,-17.578,107.422
1689185421.516,-45.898,-44.434,-30.762,-32.715,237.305
1689185421.520,-40.527,-40.039,-27.832,-31.738,133.301
1689185421.524,-27.832,-37.109,-23.926,-26.855,-181.152
1689185421.528,0.000,-35.645,-28.320,-20.020,-112.793
1689185421.532,14.160,-37.109,-31.738,-17.090,-20.020
1689185421.534,18.066,-37.109,-31.250,-2.930,-56.152
1689185421.538,-0.977,-39.551,-31.250,-11.719,-168.457
1689185421.542,-27.344,-44.434,-28.809,-42.480,-30.273
1689185421.546,-35.156,-46.875,-25.879,-27.344,82.031
1689185421.550,-41.504,-47.363,-20.020,-9.766,-46.387
1689185421.554,-35.156,-45.410,-21.973,-22.461,1.953
1689185421.558,-56.152,-49.805,-29.785,-52.246,149.414
1689185421.561,-70.801,-49.805,-39.062,-72.754,382.812
1689185421.565,-20.020,-45.898,-39.551,-40.039,131.836
1689185421.569,8.789,-50.781,-23.926,4.883,-172.363
1689185421.573,-1.953,-49.316,-18.555,0.000,-20.508
1689185421.577,-29.785,-43.457,-21.973,-24.902,-19.043
1689185421.579,-55.664,-40.527,-22.461,-49.316,-172.363
1689185421.583,-17.578,-41.992,-19.043,-30.273,-192.383
1689185421.587,20.996,-37.598,-14.160,4.883,-61.035
1689185421.591,0.488,-34.668,-19.043,-23.926,-0.977
1689185421.595,-31.250,-35.156,-23.926,-58.105,-158.691
1689185421.599,-37.109,-33.691,-17.090,-34.180,-151.367
1689185421.603,-15.137,-36.621,-17.090,-19.043,232.422
1689185421.606,-16.113,-35.645,-21.973,-18.555,242.188
1689185421.610,-19.043,-33.691,-20.020,-5.371,-119.629
1689185421.614,-0.977,-35.645,-22.461,-24.414,-160.645
1689185421.618,-29.785,-41.016,-24.414,-27.344,-27.344
1689185421.622,-44.434,-41.992,-18.555,-0.977,-64.941
1689185421.624,-5.371,-41.016,-16.602,-13.184,-155.273
1689185421.628,-9.277,-41.016,-22.949,-11.230,-86.914
1689185421.632,-5.859,-40.039,-27.344,-4.883,-77.148
1689185421.636,-28.320,-41.504,-25.391,-31.738,-159.180
1689185421.640,-41.016,-44.434,-28.320,-20.020,-209.473
1689185421.644,11.719,-42.480,-30.273,-20.020,-13.184
1689185421.648,-19.531,-39.551,-25.391,-14.648,221.680
1689185421.651,-47.363,-41.992,-24.902,-14.160,54.199
1689185421.655,-10.742,-38.086,-23.926,-4.395,-118.652
1689185421.659,-12.207,-36.133,-24.414,28.809,0.488
1689185421.663,-29.297,-42.969,-29.785,-3.906,312.500
1689185421.667,-10.254,-41.992,-33.203,-32.227,102.539
1689185421.684,-23.438,-41.992,-27.344,-17.578,-196.777
1689185421.688,-31.250,-41.016,-27.832,-52.734,-53.711
1689185421.692,-67.871,-40.039,-30.762,-63.965,-62.988
1689185421.696,-68.848,-44.922,-23.438,-61.035,-194.824
1689185421.700,-27.344,-41.992,-22.461,-46.387,-116.211
1689185421.704,-8.301,-40.527,-28.809,0.977,52.246
1689185421.708,-20.508,-45.410,-34.180,-1.465,32.715
1689185421.711,-32.715,-40.527,-38.086,-40.039,-93.750
1689185421.715,-16.602,-39.551,-40.039,-49.316,-138.672
1689185421.719,-3.906,-40.527,-40.039,-42.969,95.703
1689185421.723,18.066,-38.574,-36.621,-0.488,145.020
1689185421.727,-28.809,-40.039,-36.133,-16.113,-173.340
1689185421.729,-69.336,-42.480,-32.227,-63.477,-145.020
1689185421.733,-56.152,-46.875,-26.367,-21.484,10.254
1689185421.737,0.000,-43.457,-23.438,3.418,-65.918
1689185421.741,19.043,-39.062,-30.273,-22.461,-112.793
1689185421.745,-49.805,-37.598,-34.668,-42.480,-39.062
1689185421.749,-68.848,-41.016,-29.297,-61.035,41.504
1689185421.753,-38.574,-42.480,-39.062,-55.664,51.758
1689185421.756,-31.738,-39.551,-39.551,-17.090,-28.320
1689185421.760,-36.133,-41.992,-26.367,-21.484,90.820
1689185421.764,-49.316,-43.945,-21.973,-35.156,230.469
1689185421.768,-41.016,-42.969,-20.996,-22.461,6.348
1689185421.772,-17.090,-43.945,-17.090,3.418,-92.285
1689185421.774,-11.719,-45.410,-20.508,7.812,37.109
1689185421.778,-21.973,-41.992,-25.879,-3.418,64.941
1689185421.782,-43.945,-43.945,-26.855,-25.391,-107.910
1689185421.786,-46.875,-47.363,-24.902,-55.176,-173.340
1689185421.790,-34.668,-41.992,-23.438,-40.039,65.918
1689185421.794,-23.926,-39.062,-26.367,-21.973,215.332
1689185421.798,-9.766,-38.086,-26.855,-30.273,47.852
1689185421.801,-20.996,-36.621,-25.391,-42.969,-75.195
1689185421.805,-7.812,-33.203,-21.973,-45.410,85.938
1689185421.809,5.371,-35.156,-23.926,-17.578,100.586
1689185421.813,1.465,-37.598,-32.227,5.859,-154.297
1689185421.817,28.809,-31.738,-33.691,3.906,-123.047
1689185421.819,9.277,-44.434,-21.484,-19.043,-114.258
1689185421.823,-26.855,-59.082,-7.812,-47.363,-151.367
1689185421.827,-45.898,-54.199,-9.277,-31.250,-150.391
1689185421.831,-21.484,-48.340,-8.301,11.719,48.828
1689185421.835,6.836,-53.223,0.977,19.531,119.629
1689185421.839,-15.625,-61.035,-2.930,0.977,0.488
1689185421.843,-37.598,-62.012,-9.277,-13.184,-88.379
1689185421.846,-15.625,-57.617,-7.324,-11.719,-33.691
1689185421.850,15.137,-51.758,-12.207,2.930,152.344
1689185421.854,-11.230,-52.734,-9.766,6.348,-46.387
1689185421.858,-9.766,-52.246,-11.230,-19.531,-151.367
1689185421.862,-4.883,-49.316,-15.625,-27.832,96.680
1689185421.864,-32.227,-47.363,-19.531,-20.020,145.508
1689185421.868,-29.297,-49.316,-22.461,-12.207,-129.883
1689185421.872,-20.508,-58.594,-20.508,6.836,-170.410
1689185421.876,-26.855,-56.641,-25.391,0.977,-77.148
1689185421.880,-36.133,-51.758,-29.297,-9.766,-102.051
1689185421.884,-16.113,-46.387,-21.484,-1.953,-154.785
1689185421.888,14.160,-39.551,-14.648,-15.625,-147.461
1689185421.891,0.488,-39.062,-20.508,-45.898,186.035
1689185421.895,-24.414,-36.621,-20.508,-50.293,293.457
1689185421.899,-30.762,-38.086,-12.207,-22.461,-156.250
1689185421.903,-23.926,-36.133,-12.695,-23.926,-219.727
1689185421.907,-35.156,-33.691,-19.043,-41.504,-105.469
1689185421.909,-33.203,-36.621,-20.020,-27.344,-113.281
1689185421.913,-9.277,-37.598,-20.996,-16.602,-141.602
1689185421.917,-16.602,-39.551,-30.762,-41.992,-104.980
1689185421.921,-11.230,-38.574,-29.297,-46.875,-62.988
1689185421.925,5.859,-38.086,-28.320,-16.113,-129.395
1689185421.929,8.789,-34.668,-30.762,13.184,-14.648
1689185421.933,-3.906,-33.691,-30.273,-4.883,203.125
1689185421.936,0.488,-37.598,-29.297,-19.043,270.020
1689185421.940,-24.902,-37.109,-26.367,-15.625,57.617
1689185421.944,-50.293,-37.598,-27.344,-41.016,-184.570
1689185421.948,-22.461,-33.203,-30.762,-26.367,149.902
1689185421.952,-4.883,-29.785,-29.297,3.906,404.297
1689185421.955,-14.160,-35.156,-26.855,0.977,-75.195
1689185421.959,-26.367,-32.227,-33.203,-26.367,-261.719
1689185421.963,-29.297,-31.250,-38.086,-26.855,-207.520
1689185421.967,3.906,-22.949,-47.852,3.906,-146.973
1689185421.971,51.758,-20.996,-40.039,35.645,-82.520
1689185421.975,21.973,-39.062,-13.672,13.184,-95.215
1689185421.979,-43.945,-45.898,-8.789,-10.742,192.383
1689185421.982,-56.152,-45.410,-8.789,-0.488,242.676
1689185421.986,-38.086,-53.711,-7.812,-10.742,-109.863
1689185421.990,-23.926,-62.012,-4.883,6.348,-116.699
1689185421.994,-48.828,-62.012,-1.465,12.695,-39.551
1689185421.998,-56.641,-62.500,2.930,-17.578,-75.684
1689185422.000,-52.734,-68.359,3.906,-27.344,-153.809
1689185422.004,-47.852,-75.195,6.836,20.020,-36.133
1689185422.008,-59.082,-80.078,12.207,32.715,109.375
1689185422.012,-62.500,-78.613,10.254,-12.695,-36.133
1689185422.016,-47.363,-79.102,14.160,-31.250,-215.820
1689185422.020,-34.668,-78.613,9.766,-10.742,-95.703
1689185422.024,-30.762,-76.660,0.488,13.672,298.340
1689185422.027,-27.344,-74.219,-2.930,6.348,161.621
1689185422.031,-21.973,-73.730,-4.395,-4.883,-156.738
1689185422.035,-46.387,-68.359,-2.930,7.324,-69.336
1689185422.039,-51.270,-62.012,-4.883,-11.719,-37.109
1689185422.043,-23.926,-59.570,-13.672,-28.320,-112.793
1689185422.059,14.648,-56.152,-10.254,3.418,-113.770
1689185422.063,-2.441,-53.223,-7.812,21.973,171.875
1689185422.067,-30.273,-54.199,-14.160,-7.324,273.438
1689185422.071,-26.367,-52.734,-29.297,-35.645,-75.195
1689185422.075,-33.203,-49.316,-29.785,-12.695,-212.402
1689185422.079,-36.133,-48.828,-20.020,6.348,138.672
1689185422.083,-36.621,-47.363,-20.508,1.953,312.500
1689185422.086,-19.043,-48.340,-20.020,-20.508,-19.043
1689185422.090,-21.484,-45.410,-22.949,-22.949,-185.059
1689185422.094,-42.480,-41.016,-23.926,1.465,-32.227
1689185422.098,-21.484,-43.457,-20.020,-9.277,-26.367
1689185422.102,3.906,-46.387,-21.484,-15.625,-200.684
1689185422.104,-25.391,-49.316,-24.902,-15.625,-138.184
1689185422.108,-56.152,-47.852,-27.832,-22.461,-91.309
1689185422.112,-15.137,-42.480,-24.414,-20.508,-148.438
1689185422.116,1.953,-41.016,-22.949,-35.645,-46.387
1689185422.120,-39.551,-44.922,-27.832,-32.227,124.023
1689185422.124,-40.039,-44.434,-26.855,-29.297,92.285
1689185422.128,-24.414,-43.945,-33.203,-31.738,-28.320
1689185422.131,-38.086,-44.922,-36.133,-17.578,-110.352
1689185422.135,-13.184,-43.945,-27.344,20.508,51.270
1689185422.139,-3.418,-43.945,-24.902,20.020,295.898
1689185422.143,-55.176,-45.410,-25.879,-8.301,103.027
1689185422.147,-70.312,-43.945,-21.973,-39.062,-138.672
1689185422.149,-62.988,-42.969,-19.043,-41.016,-48.340
1689185422.153,-52.734,-42.480,-30.273,-18.066,49.316
1689185422.157,-27.832,-36.621,-42.969,-29.297,-125.488
1689185422.161,-14.648,-32.227,-39.551,-31.250,-106.445
1689185422.165,-24.902,-32.227,-27.832,-32.715,-82.520
1689185422.169,-15.625,-34.668,-24.902,-20.508,-63.965
1689185422.173,-0.488,-42.969,-23.926,23.926,-38.574
1689185422.176,-14.160,-45.898,-24.902,26.855,-16.113
1689185422.180,-44.922,-40.527,-27.832,-0.488,269.043
1689185422.184,-63.965,-41.992,-30.762,-34.180,244.141
1689185422.188,-44.922,-43.945,-35.645,-56.152,-200.684
1689185422.192,-14.648,-37.598,-36.133,-26.855,-161.621
1689185422.194,-28.809,-35.645,-30.273,-10.742,-37.598
1689185422.198,-33.691,-36.133,-30.762,-40.039,-94.727
1689185422.202,-29.785,-32.715,-30.273,-42.480,-138.672
1689185422.206,-32.227,-31.738,-27.832,-36.621,-121.094
1689185422.210,-25.391,-33.691,-28.320,-35.645,-43.457
1689185422.214,-26.367,-29.785,-30.273,-23.438,29.297
1689185422.218,-30.273,-30.762,-26.367,-26.855,23.438
1689185422.221,-28.320,-33.203,-20.508,-27.344,74.219
1689185422.225,-33.203,-31.250,-24.902,-46.387,329.102
1689185422.229,-34.180,-30.273,-33.691,-24.902,116.699
1689185422.233,-31.738,-33.203,-32.227,38.086,-45.410
1689185422.237,-31.738,-34.668,-33.691,-11.230,214.844
1689185422.239,-47.363,-27.832,-31.250,-77.148,155.273
1689185422.243,-70.801,-30.273,-17.090,-64.941,-166.992
1689185422.247,-11.230,-35.156,-13.184,-13.184,-185.547
1689185422.251,2.930,-33.691,-16.602,18.066,-81.055
1689185422.255,-55.664,-33.691,-22.461,3.906,-29.297
1689185422.259,-61.523,-31.250,-21.973,-31.250,-15.137
1689185422.263,-60.059,-26.855,-17.090,-49.805,-88.379
1689185422.266,-34.668,-22.461,-22.949,-37.109,111.328
1689185422.270,-15.625,-22.949,-17.578,-4.395,200.195
1689185422.274,-18.066,-24.902,-13.184,21.484,-120.117
1689185422.278,-26.855,-28.809,-37.598,-34.180,-100.586
1689185422.282,-48.340,-25.879,-42.969,-79.102,55.664
1689185422.284,-48.828,-26.367,-27.344,-20.996,-44.922
1689185422.288,-11.719,-33.691,-24.414,13.184,-87.891
1689185422.292,-4.883,-28.320,-20.020,-20.996,-21.484
1689185422.296,-22.949,-24.902,-17.578,-36.133,1.465
1689185422.300,-22.461,-28.320,-20.996,-37.109,-109.863
1689185422.304,-24.902,-38.086,-10.254,-25.879,-86.426
1689185422.308,-2.441,-38.086,-4.883,-4.883,198.242
1689185422.311,-15.625,-18.066,-25.879,-14.648,304.688
1689185422.315,-38.086,-11.230,-41.504,-56.641,9.277
1689185422.319,-45.898,-13.672,-38.574,-70.312,-221.680
1689185422.323,-61.523,-10.254,-40.527,-58.105,-59.570
1689185422.327,-29.785,-2.930,-55.176,-50.781,2.441
1689185422.330,-12.207,1.953,-58.594,-21.973,-164.551
1689185422.334,-31.738,10.254,-57.129,-28.809,-147.461
1689185422.338,-40.527,12.207,-63.965,-65.918,4.395
1689185422.342,-34.668,12.207,-69.336,-80.078,15.137
1689185422.346,4.395,22.461,-70.801,-48.340,-135.254
1689185422.350,-7.812,7.812,-61.035,-8.301,-58.105
1689185422.354,-59.570,-6.836,-52.734,-26.367,276.855
1689185422.357,-73.242,-9.766,-56.152,-38.574,217.285
1689185422.361,-59.570,-9.277,-59.082,-62.012,-225.586
1689185422.365,-51.270,-9.766,-62.988,-67.871,-167.480
1689185422.369,-36.133,-19.043,-57.129,-55.664,-23.926
1689185422.373,-31.250,-20.508,-46.875,-63.477,-64.453
1689185422.374,-51.758,-14.648,-43.457,-54.199,-166.992
1689185422.378,-44.434,-8.301,-41.992,-32.227,-93.750
1689185422.382,-22.949,-9.766,-36.621,-30.273,-0.977
1689185422.386,0.977,-15.625,-37.109,-19.531,-19.531
1689185422.390,-8.301,-20.020,-34.180,-16.113,-8.789
1689185422.394,-40.039,-22.461,-26.855,-59.082,71.777
1689185422.398,-48.340,-22.949,-32.227,-57.129,375.488
1689185422.401,-47.852,-20.020,-33.203,-46.387,177.734
1689185422.405,-45.898,-17.090,-26.855,-51.758,-120.117
1689185422.409,-40.527,-18.066,-24.414,-30.762,-26.855
1689185422.413,-22.949,-14.648,-24.414,-24.902,56.152
1689185422.417,-31.250,-13.672,-22.949,-42.969,-17.090
1689185422.434,-9.766,-24.902,-26.855,-36.621,-217.285
1689185422.438,26.367,-23.438,-33.203,-20.996,29.785
1689185422.442,-9.766,-22.949,-28.809,-13.184,176.758
1689185422.446,-43.457,-28.320,-21.973,-19.531,-99.609
1689185422.450,-74.707,-27.832,-22.461,-45.410,-167.480
1689185422.454,-55.176,-28.809,-22.461,-38.086,-47.363
1689185422.458,-12.695,-25.879,-19.043,-28.809,19.531
1689185422.461,-4.883,-19.531,-18.555,-21.484,30.762
1689185422.465,-41.016,-23.438,-15.625,-25.879,-54.688
1689185422.469,-66.406,-26.855,-20.996,-52.734,119.141
1689185422.473,-65.918,-24.414,-30.273,-41.016,188.965
1689185422.477,-30.273,-22.461,-24.902,3.418,-136.230
1689185422.479,-22.461,-24.902,-21.484,6.348,-95.215
1689185422.483,-35.645,-21.973,-26.855,-3.906,-42.480
1689185422.487,-39.551,-15.625,-34.668,-21.973,-157.227
1689185422.491,-47.852,-20.020,-26.367,-85.938,-253.906
1689185422.495,-37.598,-24.414,-24.414,-75.684,-99.121
1689185422.499,-34.180,-23.926,-31.738,-67.383,38.086
1689185422.503,-38.574,-22.461,-26.367,-72.754,-21.484
1689185422.506,-39.551,-28.320,-19.043,-20.020,-117.676
1689185422.510,-23.438,-31.250,-23.926,-20.508,-39.062
1689185422.514,-30.762,-34.180,-31.250,-19.043,401.367
1689185422.518,-34.180,-41.992,-21.484,20.508,318.848
1689185422.522,-24.902,-18.555,-16.113,-28.809,-83.008
1689185422.524,-35.156,0.000,-28.320,-100.098,-18.555
1689185422.528,-19.043,-6.348,-33.203,-88.867,-13.672
1689185422.532,-53.223,-3.418,-36.621,-44.434,-204.102
1689185422.536,-62.500,-3.906,-44.922,-32.715,-120.117
1689185422.540,-43.457,-1.953,-46.875,-69.824,-49.316
1689185422.544,-62.988,-5.371,-52.246,-82.031,26.367
1689185422.548,-49.805,-13.184,-57.617,-56.641,-36.621
1689185422.551,-36.133,-8.789,-56.152,-74.707,-153.809
1689185422.555,-26.367,-5.859,-58.105,-83.984,132.324
1689185422.559,-16.113,-9.277,-55.664,-103.516,160.156
1689185422.563,-50.293,-11.719,-49.316,-109.375,-202.148
1689185422.567,-74.707,-12.695,-46.875,-96.680,-119.629
1689185422.569,-51.270,-16.113,-45.410,-75.684,57.617
1689185422.573,-33.203,-16.113,-43.945,-50.781,-60.059
1689185422.577,-46.387,-17.090,-40.039,-24.902,-177.734
1689185422.581,-56.641,-10.742,-33.203,-30.762,-137.695
1689185422.585,-28.809,-11.719,-29.785,-61.035,-83.008
1689185422.589,-14.160,-11.230,-34.668,-48.828,-45.410
1689185422.593,-18.555,-7.812,-37.109,-52.734,-12.695
1689185422.596,-17.090,-10.742,-32.227,-75.195,70.801
1689185422.600,-13.672,-13.184,-33.691,-84.961,144.531
1689185422.604,-45.898,-19.043,-38.574,-74.707,-35.156
1689185422.608,-66.406,-22.949,-30.762,-47.363,-139.648
1689185422.612,-29.785,-21.973,-25.391,-25.391,54.688
1689185422.615,-4.395,-17.090,-24.902,-34.180,192.383
1689185422.619,-48.340,-18.555,-21.973,-45.410,-39.062
1689185422.623,-70.312,-18.066,-30.273,-70.801,-110.352
1689185422.627,-26.855,-12.207,-31.738,-65.430,-33.203
1689185422.631,0.977,-15.625,-25.391,-23.926,-51.758
1689185422.635,-26.367,-18.555,-29.297,-19.043,-63.965
1689185422.639,-46.387,-15.625,-27.344,-27.832,-41.504
1689185422.642,-66.406,-20.020,-22.461,-28.320,138.184
1689185422.646,-40.039,-19.531,-27.344,-33.691,153.809
1689185422.650,12.207,-18.555,-38.574,-41.504,-126.953
1689185422.654,5.371,-19.043,-36.621,-46.875,-82.031
1689185422.658,-12.695,-19.043,-31.250,-50.293,-80.078
1689185422.659,-43.945,-23.926,-33.691,-33.203,-185.547
1689185422.663,-71.777,-25.391,-33.691,-74.219,-171.387
1689185422.667,-52.734,-25.391,-25.879,-49.805,-92.773
1689185422.671,-39.551,-25.879,-12.207,-8.789,-64.453
1689185422.675,-41.016,-25.391,-12.695,-36.133,-6.836
1689185422.679,-36.621,-21.484,-20.996,-62.012,-56.152
1689185422.683,-15.625,-20.020,-23.926,-63.965,-11.230
1689185422.686,11.230,-20.020,-26.367,-29.297,344.727
1689185422.690,-14.160,-21.973,-21.484,-6.836,210.449
1689185422.694,-41.992,-21.973,-18.066,-21.973,-104.004
1689185422.698,-58.105,-22.461,-19.531,-39.551,107.422
1689185422.702,-80.078,-24.414,-21.973,-53.711,148.926
1689185422.704,-41.504,-24.414,-30.762,-50.293,-73.242
1689185422.708,-23.438,-31.250,-26.855,-26.367,-79.102
1689185422.712,-48.828,-33.203,-16.602,-60.059,-52.246
1689185422.716,-57.129,-26.855,-20.508,-89.355,-104.004
1689185422.720,-65.430,-29.297,-27.832,-66.895,-162.109
1689185422.724,-41.992,-32.715,-34.668,-49.805,-147.949
1689185422.728,4.883,-24.902,-29.785,6.348,221.680
1689185422.731,-15.137,-22.949,-21.973,-30.273,362.305
1689185422.735,-70.801,-25.391,-29.297,-72.266,-102.539
1689185422.739,-67.871,-25.391,-30.762,-54.688,-248.047
1689185422.743,-38.574,-24.414,-30.762,-48.340,-80.078
1689185422.747,-17.090,-24.414,-31.738,-40.039,-50.293
1689185422.749,-17.578,-22.461,-25.879,-12.207,-137.695
1689185422.753,-4.395,-21.484,-23.438,-15.625,-114.258
1689185422.757,-35.645,-22.949,-26.855,-63.965,-131.836
1689185422.761,-55.664,-23.438,-26.367,-79.102,-166.504
1689185422.765,-41.504,-30.762,-22.949,-41.992,-113.281
1689185422.769,-25.391,-34.668,-16.602,-27.832,145.996
1689185422.773,-43.945,-30.762,-20.996,-26.367,319.336
1689185422.776,-83.496,-33.691,-33.203,-54.199,-1.465
1689185422.780,-64.941,-34.668,-31.738,-61.035,-182.617
1689185422.784,-19.043,-30.762,-30.273,-7.812,20.020
1689185422.788,2.930,-30.762,-26.855,-22.461,114.258
1689185422.792,-20.508,-27.832,-20.996,-44.434,-31.250
1689185422.809,-47.363,-24.414,-18.066,-62.988,-183.105
1689185422.813,-40.527,-23.438,-22.949,-57.129,14.648
1689185422.817,-40.039,-20.996,-21.973,-15.625,368.652
1689185422.821,1.953,-17.578,-22.461,2.441,41.016
1689185422.825,-9.766,-18.555,-22.461,-33.691,-183.594
1689185422.829,-69.336,-16.602,-20.508,-76.172,-2.441
1689185422.833,-49.316,-15.137,-26.367,-72.754,3.906
1689185422.836,-36.621,-21.484,-31.738,-35.156,-115.234
1689185422.840,-35.156,-19.531,-26.855,-43.945,-117.188
1689185422.844,-55.176,-21.973,-19.043,-68.848,132.812
1689185422.848,-68.359,-30.762,-12.695,-51.758,20.020
1689185422.852,-18.066,-20.996,-16.113,-29.297,-211.426
1689185422.842,-31.250,-8.301,-30.762,-43.945,-28.809
1689185422.846,-56.152,-7.324,-32.715,-34.668,61.523
1689185422.850,-41.504,-5.859,-29.297,-15.137,-92.773
1689185422.854,-48.828,-11.230,-32.715,-31.738,-211.426
1689185422.858,-32.715,-16.113,-39.062,-62.988,-166.016
1689185422.862,-28.809,-13.184,-42.480,-49.316,-43.945
1689185422.866,-42.969,-14.648,-46.875,-23.438,44.922
1689185422.869,-56.641,-19.531,-43.457,-25.391,-100.586
1689185422.873,-46.387,-20.508,-38.086,-74.219,-35.156
1689185422.877,-39.551,-21.484,-33.203,-103.516,162.109
1689185422.881,-45.410,-23.438,-34.180,-38.574,48.828
1689185422.885,-1.953,-21.484,-37.598,-4.395,-16.113
1689185422.900,-4.883,-19.531,-34.668,-32.715,2.441
1689185422.904,-60.547,-18.555,-27.832,-48.828,-41.016
1689185422.908,-62.500,-16.602,-24.414,-50.781,-117.188
1689185422.912,-44.922,-13.672,-29.785,-48.340,-187.988
1689185422.916,-48.340,-16.602,-30.273,-46.387,112.305
1689185422.920,-43.457,-21.973,-32.715,-53.711,368.164
1689185422.924,-20.996,-19.043,-36.621,-45.898,14.160
1689185422.927,14.160,-18.555,-32.227,-39.062,-166.504
1689185422.931,-9.766,-20.020,-29.785,-21.484,33.691
1689185422.935,-56.152,-20.508,-28.320,-13.184,31.250
1689185422.939,-78.125,-23.438,-42.480,-43.945,-207.520
1689185422.943,-81.055,-21.973,-48.828,-48.828,-134.277
1689185422.944,-46.387,-19.043,-30.762,-56.152,-79.590
1689185422.948,-7.324,-21.973,-37.109,-30.762,-146.973
1689185422.952,-32.715,-18.066,-53.223,-12.695,-197.754
1689185422.956,-50.781,-17.578,-35.156,-33.203,-142.578
1689185422.960,-52.246,-25.879,-15.625,-62.012,-34.668
1689185422.964,-41.504,-29.785,-13.672,-79.102,-79.102
1689185422.968,2.441,-26.367,-12.207,-60.547,-131.348
1689185422.971,0.977,-16.602,-15.137,-34.180,56.152
1689185422.975,-28.809,-16.602,-20.508,-11.719,316.895
1689185422.979,-48.340,-19.531,-21.484,-20.508,83.008
1689185422.983,-57.129,-15.625,-20.996,-65.918,-155.762
1689185422.987,-60.547,-20.508,-19.531,-64.453,62.012
1689185422.989,-55.664,-23.438,-19.043,-37.109,73.242
1689185422.993,-19.531,-19.043,-28.320,3.906,-150.391
1689185422.997,12.695,-20.508,-35.156,-28.809,-202.148
1689185423.001,-10.742,-18.066,-27.344,-71.289,-194.336
1689185423.005,-64.453,-20.996,-23.438,-21.973,-160.156
1689185423.009,-72.266,-27.344,-23.926,-46.387,-139.160
1689185423.013,-34.180,-21.973,-20.508,-45.898,-104.492
1689185423.016,-42.480,-25.879,-21.973,-38.086,272.949
1689185423.020,-35.156,-25.879,-29.297,-26.855,355.957
1689185423.024,-21.973,-24.414,-33.691,-8.789,-99.121
1689185423.028,-27.344,-30.762,-25.391,-17.090,-158.691
1689185423.032,-16.113,-24.902,-20.508,-21.484,-77.148
1689185423.034,-18.066,-17.090,-25.879,-52.246,-102.539
1689185423.038,-9.766,-16.113,-27.344,-83.496,-143.555
1689185423.042,-39.551,-20.508,-20.996,-70.312,-129.883
1689185423.046,-37.598,-26.367,-20.020,-37.598,-65.430
1689185423.050,-0.488,-22.949,-23.926,0.488,-81.055
1689185423.054,-5.859,-20.996,-20.020,-1.953,-44.434
1689185423.058,-54.199,-19.531,-19.531,-52.734,144.043
1689185423.061,-71.289,-18.066,-24.414,-63.477,227.539
1689185423.065,-50.293,-23.438,-25.879,-70.801,-46.875
1689185423.069,-41.992,-21.484,-25.879,-57.129,-187.012
1689185423.073,-30.273,-21.973,-21.973,-40.527,155.273
1689185423.077,-17.090,-28.320,-19.043,-49.805,272.461
1689185423.079,-27.832,-24.414,-22.461,-42.969,-135.742
1689185423.083,-59.570,-23.438,-33.691,-34.180,-169.922
1689185423.087,-33.203,-32.227,-35.645,-14.648,-43.457
1689185423.091,-33.203,-33.203,-33.691,-18.066,-84.961
1689185423.095,-41.992,-27.344,-34.180,-47.363,-149.414
1689185423.099,-35.645,-23.438,-27.832,-68.359,-97.656
1689185423.103,-68.848,-25.391,-21.484,-67.383,183.594
1689185423.106,-52.246,-25.391,-24.902,-46.875,209.473
1689185423.110,-27.832,-20.508,-26.367,-61.523,-77.637
1689185423.114,-25.879,-18.066,-28.809,-61.523,-100.586
1689185423.118,-34.668,-15.625,-30.762,-23.438,-84.961
1689185423.122,-13.184,-16.113,-27.832,-16.602,-153.809
1689185423.125,-15.137,-16.113,-33.691,-50.781,-104.004
1689185423.129,-44.434,-24.902,-34.180,-62.988,5.859
1689185423.133,-59.570,-37.109,-27.344,-62.500,-30.762
1689185423.137,-64.941,-25.391,-28.809,-68.359,-116.699
1689185423.141,-29.297,-10.742,-40.527,-61.035,-157.715
1689185423.145,-15.625,-15.625,-36.621,-57.617,117.188
1689185423.149,-47.852,-28.809,-21.484,-42.480,428.223
1689185423.152,-52.734,-28.320,-20.508,-46.387,116.699
1689185423.156,-29.297,-22.949,-19.531,-50.293,-198.730
1689185423.160,-35.156,-23.438,-21.484,-22.949,-52.246
1689185423.164,-47.852,-21.484,-24.414,-59.082,127.441
1689185423.168,-25.879,-22.949,-22.949,-61.523,-65.918
1689185423.184,-22.461,-26.855,-27.344,-70.312,-160.645
1689185423.188,-46.387,-30.273,-24.902,-108.887,-30.762
1689185423.192,-88.379,-28.320,-21.484,-63.477,28.320
1689185423.196,-61.523,-23.438,-27.344,-17.090,-95.215
1689185423.200,-11.230,-21.973,-28.809,0.488,-172.852
1689185423.204,-23.438,-27.344,-33.203,-20.020,207.520
1689185423.208,-38.086,-27.832,-34.180,-62.500,368.652
1689185423.211,-35.645,-18.066,-28.809,-59.082,-119.629
1689185423.215,-44.434,-22.461,-26.367,-24.414,-184.570
1689185423.219,-14.160,-26.855,-33.203,-39.062,-36.133
1689185423.223,-5.371,-20.508,-38.574,-55.664,-87.402
1689185423.227,-27.344,-24.902,-26.367,-41.992,-182.129
1689185423.229,-61.035,-29.785,-23.926,-52.734,-158.203
1689185423.233,-77.637,-25.391,-32.227,-52.734,-91.309
1689185423.237,-51.270,-31.250,-26.855,-25.391,-109.375
1689185423.241,-31.250,-32.227,-30.273,-24.902,-125.977
1689185423.245,-32.227,-20.996,-33.203,-55.664,-77.148
1689185423.249,-38.574,-24.414,-28.809,-74.707,-71.289
1689185423.253,-26.367,-22.949,-27.344,-42.969,19.531
1689185423.256,-44.434,-17.090,-22.461,-15.137,27.832
1689185423.260,-45.410,-19.043,-16.113,-9.277,81.543
1689185423.264,-41.992,-19.531,-15.137,-65.918,345.703
1689185423.268,-57.617,-22.949,-30.273,-130.371,164.062
1689185423.272,-21.484,-18.066,-47.363,-75.684,-178.711
1689185423.274,5.371,-17.578,-38.574,-25.879,17.090
1689185423.278,-30.762,-32.715,-17.090,-19.043,101.074
1689185423.282,-49.316,-39.062,-7.812,5.859,-170.410
1689185423.286,-56.641,-35.645,-22.461,-29.297,-248.047
1689185423.290,-63.965,-41.016,-31.738,-88.867,-167.480
1689185423.294,-41.992,-48.340,-11.719,-52.246,41.016
1689185423.298,-29.297,-42.969,6.836,-16.602,75.684
1689185423.301,-38.086,-43.457,8.789,-23.438,-34.668
1689185423.305,-18.555,-51.270,0.488,-34.668,190.430
1689185423.309,-30.273,-52.246,-3.906,-21.484,285.645
1689185423.313,-45.410,-54.199,0.977,-9.277,-78.613
1689185423.317,-20.996,-52.246,0.488,25.879,-125.977
1689185423.319,-34.180,-45.898,-3.418,16.113,-49.805
1689185423.323,-52.246,-36.133,-2.930,-51.270,-143.555
1689185423.327,-20.996,-24.902,-15.137,-46.875,-230.469
1689185423.331,0.488,-21.484,-26.855,-8.301,-117.676
1689185423.335,-4.395,-23.926,-15.625,0.977,-12.207
1689185423.339,-13.672,-27.832,-7.812,-17.090,46.387
1689185423.343,-28.320,-35.156,-10.254,-28.320,-2.930
1689185423.346,-53.711,-36.133,-0.977,-14.160,-6.836
1689185423.350,-74.219,-31.250,-17.090,-11.719,163.086
1689185423.354,-49.316,-33.691,-34.180,-14.648,32.715
1689185423.358,0.000,-31.738,-4.883,-19.531,-78.613
1689185423.362,-16.113,-30.762,10.742,-64.941,114.746
1689185423.364,-65.430,-35.645,-13.184,-92.285,212.402
1689185423.368,-48.828,-28.809,-21.973,-69.336,-78.125
1689185423.372,-37.598,-23.926,-15.137,-61.523,-154.297
1689185423.376,-46.387,-20.996,-11.719,-53.223,-76.172
1689185423.380,-68.359,-24.902,-7.324,-25.879,-106.934
1689185423.384,-56.152,-27.832,-33.203,-4.883,-139.160
1689185423.388,-34.668,-24.902,-48.828,-31.738,-86.426
1689185423.391,-45.898,-27.832,-19.043,-59.570,186.035
1689185423.395,-46.387,-31.250,0.488,-81.055,172.852
1689185423.399,-36.621,-25.879,-5.859,-92.773,-145.508
1689185423.403,-22.949,-25.879,-9.766,-60.059,-108.398
1689185423.407,-50.781,-33.691,-14.160,-49.316,-23.438
1689185423.410,-58.594,-35.645,-24.902,-0.977,46.875
1689185423.414,-51.270,-27.344,-27.832,16.602,21.973
1689185423.418,-57.617,-28.320,-23.926,-43.457,-39.062
1689185423.422,-60.547,-28.809,-18.066,-57.617,32.715
1689185423.426,-51.270,-27.832,-16.602,-42.480,-41.504
1689185423.430,-58.594,-33.203,-22.461,-30.273,-34.180
1689185423.434,-40.039,-34.668,-20.020,-11.719,167.969
1689185423.437,-22.949,-27.832,-25.391,-28.809,317.383
1689185423.441,-41.016,-15.625,-22.949,-25.879,14.160
1689185423.445,-28.320,-26.367,-23.438,-19.531,-190.430
1689185423.449,-26.855,-22.949,-52.246,-52.246,47.852
1689185423.453,-28.809,-15.137,-41.504,-53.223,139.648
1689185423.454,-62.012,-37.109,-14.160,-62.500,-72.754
1689185423.458,-83.496,-36.621,-9.766,-78.125,-190.918
1689185423.462,-43.945,-23.926,-11.230,-50.781,-27.832
1689185423.466,-13.184,-20.020,-21.484,-15.625,107.422
1689185423.470,-18.555,-23.926,-30.762,-20.020,-26.855
1689185423.474,-37.598,-23.926,-18.555,-9.766,-22.949
1689185423.478,-72.266,-17.090,-22.461,-9.766,258.789
1689185423.481,-75.195,-17.578,-26.367,-76.660,247.070
1689185423.485,-18.066,-1.465,-4.395,-76.660,-121.094
1689185423.489,-44.434,-16.113,-29.785,-54.199,-149.414
1689185423.493,-95.703,-38.574,-45.898,-69.336,-108.398
1689185423.497,-92.773,-12.695,34.668,-56.641,-145.020
1689185423.499,-43.457,22.461,50.293,-40.527,-230.957
1689185423.503,-20.996,-14.648,-26.855,-53.711,-152.832
1689185423.507,-63.965,-53.711,-39.062,-43.945,-36.621
1689185423.511,-86.426,-39.062,-27.832,-67.383,-92.285
1689185423.515,-75.195,-31.738,-27.344,-93.262,-194.824
1689185423.519,-81.543,-20.020,-15.625,-90.820,-32.715
1689185423.523,-68.359,-16.113,-2.441,-83.496,183.594
1689185423.526,-56.152,1.465,5.371,-75.195,37.598
1689185423.530,-87.402,18.555,19.531,-99.609,-147.461
1689185423.534,-141.113,59.082,56.641,-135.254,-53.223
1689185423.538,-144.043,97.656,73.730,-131.836,152.832
1689185423.542,-91.309,104.492,69.336,-54.199,-41.504
1689185423.559,-61.035,127.441,87.402,-41.504,-166.016
1689185423.563,-77.637,164.062,96.680,-99.121,127.930
1689185423.567,-99.609,185.547,104.492,-110.840,262.695
1689185423.571,-80.078,187.988,110.840,-98.633,-114.746
1689185423.575,-23.438,188.477,92.773,-78.613,-187.500
1689185423.579,-31.738,225.098,88.379,-67.383,64.941
1689185423.583,-53.711,269.043,101.074,-75.195,100.098
1689185423.586,-55.664,286.133,105.957,-100.586,-70.312
1689185423.590,-81.055,297.852,114.258,-102.051,-144.531
1689185423.594,-91.309,318.359,125.000,-74.707,125.977
1689185423.598,-78.125,326.660,127.441,-62.988,235.840
1689185423.602,-40.039,312.012,104.492,-48.340,-111.328
1689185423.604,-30.273,313.965,83.496,-45.410,-148.438
1689185423.608,-59.570,307.617,80.078,-72.266,-141.602
1689185423.612,-62.500,292.480,76.172,-78.613,-187.500
1689185423.616,-34.668,280.273,72.754,-45.898,-139.648
1689185423.620,-20.508,249.512,44.922,-28.320,15.137
1689185423.624,-47.852,226.074,6.836,-58.594,62.012
1689185423.628,-67.871,212.402,3.418,-75.195,-38.086
1689185423.631,-59.570,188.477,13.672,-68.359,-122.070
1689185423.635,-23.926,168.457,2.930,-37.109,-12.695
1689185423.639,-15.137,159.180,-24.902,-18.066,233.887
1689185423.643,-21.484,143.555,-25.879,6.348,54.688
1689185423.647,-21.973,125.977,-26.367,-11.719,-126.465
1689185423.649,-46.387,116.699,-53.223,-53.711,78.613
1689185423.653,-51.270,107.422,-66.406,-55.176,192.383
1689185423.657,-19.531,93.262,-50.781,-65.918,-91.309
1689185423.661,-12.695,81.055,-45.410,-72.754,-150.391
1689185423.665,-42.480,69.824,-49.805,-45.410,-111.816
1689185423.669,-59.082,50.293,-51.270,-1.465,-105.957
1689185423.673,-29.297,41.016,-54.688,-6.348,5.371
1689185423.676,-16.113,45.898,-51.758,3.418,-3.418
1689185423.680,-47.852,40.039,-55.664,-18.066,153.809
1689185423.684,-12.695,28.320,-60.547,-35.645,144.043
1689185423.688,1.953,18.066,-66.895,-25.391,-205.078
1689185423.692,-47.363,10.742,-83.496,-22.949,-140.137
1689185423.694,-62.012,12.207,-76.660,-34.668,-16.113
1689185423.698,-48.828,6.348,-57.129,-44.434,-43.457
1689185423.702,-41.992,-10.254,-49.316,-34.180,-131.836
1689185423.706,-31.250,-4.883,-47.852,-7.324,-61.035
1689185423.710,-39.551,17.578,-57.617,-27.344,55.664
1689185423.714,-4.883,29.785,-68.848,-31.250,56.152
1689185423.718,43.945,22.949,-63.965,-12.207,43.945
1689185423.721,-10.742,15.625,-68.359,-34.668,90.820
1689185423.725,-46.387,17.090,-81.055,-51.270,178.711
1689185423.729,-43.457,20.996,-86.426,-50.781,-31.250
1689185423.733,-27.832,24.902,-88.867,-23.926,-40.039
1689185423.737,2.441,22.461,-78.125,-0.977,170.410
1689185423.739,-9.766,12.695,-66.895,-1.953,83.496
1689185423.743,-20.020,10.742,-65.430,-21.973,-155.762
1689185423.747,-20.508,14.160,-68.848,-37.598,-146.973
1689185423.751,-27.344,12.207,-67.383,-33.691,54.199
1689185423.755,-3.906,11.719,-65.918,-18.066,60.547
1689185423.759,7.324,12.695,-64.941,-24.902,-107.910
1689185423.763,-24.414,10.254,-61.523,-25.879,-104.980
1689185423.766,-9.277,4.883,-63.477,-15.137,196.777
1689185423.770,14.648,6.348,-59.570,-34.180,276.367
1689185423.774,-21.484,6.836,-58.594,-30.273,-111.328
1689185423.778,-41.504,5.859,-63.477,0.488,-194.824
1689185423.782,-49.805,5.859,-68.359,-12.207,-126.953
1689185423.784,-51.270,0.488,-83.496,-36.133,-148.438
1689185423.788,-25.391,-0.488,-100.586,-4.395,-184.570
1689185423.792,-2.930,1.465,-77.148,-11.719,-108.887
1689185423.796,-11.230,8.789,-37.598,-45.410,-49.316
1689185423.800,-58.105,9.766,-30.762,-66.895,-89.844
1689185423.804,-45.898,9.277,-34.180,-63.965,-84.961
1689185423.808,-2.441,6.836,-43.945,-20.508,35.156
1689185423.811,-35.156,-0.977,-51.270,-12.695,433.594
1689185423.815,-65.918,-2.930,-54.688,-50.781,317.383
1689185423.819,-38.086,-6.348,-61.523,-88.867,-120.605
1689185423.823,-40.039,0.977,-59.082,-67.383,-90.820
1689185423.827,-48.340,17.090,-41.992,-37.598,-53.711
1689185423.829,-10.254,2.930,-40.039,-39.551,-114.258
1689185423.833,-17.578,-8.301,-49.805,-39.551,-154.297
1689185423.837,-34.668,5.859,-57.617,-36.133,-79.102
1689185423.841,-20.020,1.465,-61.523,-24.414,-24.414
1689185423.845,-21.973,-5.859,-49.805,-42.969,-99.121
1689185423.849,-19.043,5.371,-41.504,-59.570,-29.785
1689185423.853,-13.184,8.301,-39.551,-30.762,337.402
1689185423.856,-25.391,12.207,-57.129,-21.973,342.285
1689185423.860,-57.129,17.578,-52.734,-71.777,-61.035
1689185423.864,-69.336,8.301,-27.344,-73.242,-137.695
1689185423.868,-47.363,4.395,-26.367,-29.297,-70.801
1689185423.872,-44.922,7.812,-30.273,-29.785,-78.613
1689185423.889,-41.016,7.324,-32.227,-41.504,-183.105
1689185423.893,-25.879,10.254,-29.785,-46.875,-191.895
1689185423.897,-16.113,9.766,-23.926,-28.809,-120.605
1689185423.901,7.324,7.812,-29.785,-18.066,-98.145
1689185423.905,-31.250,3.906,-34.180,-38.086,-62.012
1689185423.909,-66.406,-4.883,-34.668,-45.898,75.195
1689185423.913,-61.035,3.418,-38.574,-49.805,182.617
1689185423.916,-50.781,9.766,-42.480,-66.895,-20.020
1689185423.920,-47.363,9.766,-36.133,-41.504,-129.883
1689185423.924,-44.434,11.719,-27.832,-21.973,11.230
1689185423.928,-25.391,11.230,-25.391,-26.855,107.422
1689185423.932,-24.902,15.137,-31.250,-26.855,6.348
1689185423.920,-41.016,12.695,-50.293,-41.016,-184.570
1689185423.924,-33.691,8.789,-68.848,3.418,3.418
1689185423.928,-27.832,7.324,-54.199,1.953,219.727
1689185423.932,-38.086,2.930,-15.625,-54.688,-55.176
1689185423.936,-44.434,-0.977,-4.883,-66.895,-198.242
1689185423.940,-20.508,3.906,-14.648,-45.410,-17.090
1689185423.944,-4.395,9.277,-22.949,-18.555,145.020
1689185423.947,-40.039,6.836,-25.879,-46.875,31.250
1689185423.951,-61.035,6.836,-20.508,-76.172,-188.477
1689185423.955,-62.500,6.836,-26.855,-71.777,1.465
1689185423.959,-34.668,9.766,-35.156,-32.227,122.559
1689185423.963,-27.832,9.766,-34.180,-12.695,-125.977
1689185423.994,-21.973,3.418,-34.668,-23.438,-130.371
1689185423.998,-4.883,-1.465,-32.715,-32.715,-6.836
1689185424.002,-36.133,-2.930,-37.598,-35.156,-88.867
1689185424.006,-66.406,5.371,-37.109,-61.035,-229.492
1689185424.010,-50.293,3.418,-32.715,-56.152,-77.637
1689185424.014,-21.973,-3.418,-29.297,-17.578,198.242
1689185424.018,-44.922,-1.953,-22.949,-43.945,81.055
1689185424.021,-50.781,3.418,-22.949,-61.523,-140.625
1689185424.025,-48.340,1.465,-24.414,-52.734,-27.832
1689185424.029,-46.387,-8.301,-29.297,-41.992,170.898
1689185424.033,-26.367,-2.441,-48.340,-4.395,87.402
1689185424.037,-36.621,3.418,-52.246,-12.695,-21.973
1689185424.024,-59.082,5.371,-33.203,-60.059,73.730
1689185424.028,-61.523,-3.418,-34.180,-60.059,80.566
1689185424.032,-43.457,-10.742,-31.250,-30.273,-136.719
1689185424.036,-23.438,-0.977,-21.973,-21.973,-106.445
1689185424.040,-29.785,-0.977,-26.855,-44.434,42.480
1689185424.044,-36.621,-12.695,-38.574,-59.082,51.758
1689185424.048,-45.898,-10.742,-44.434,-63.965,-54.688
1689185424.051,-61.035,-5.859,-40.039,-49.316,-142.090
1689185424.055,-53.711,-8.301,-34.180,-41.992,-93.750
1689185424.059,-51.270,-7.812,-30.273,-54.688,-55.664
1689185424.063,-60.547,-7.324,-29.785,-65.430,-180.176
1689185424.067,-45.410,0.000,-35.645,-71.289,-215.332
1689185424.069,-27.832,-3.418,-38.086,-51.270,123.535
1689185424.073,-26.855,-11.230,-43.457,-43.945,187.012
1689185424.077,-17.090,-8.789,-56.152,-68.848,-105.957
1689185424.081,-52.734,-16.113,-59.082,-64.453,-87.891
1689185424.085,-82.031,-19.043,-45.898,-66.895,-98.145
1689185424.089,-55.176,-15.625,-43.945,-64.453,-47.363
1689185424.093,-32.715,-16.113,-52.734,-53.711,58.105
1689185424.096,-41.016,-15.137,-31.738,-37.598,189.453
1689185424.100,-59.570,-17.578,-11.719,-41.504,387.695
1689185424.104,-72.266,-17.578,-25.879,-86.914,95.703
1689185424.108,-41.504,-9.766,-47.363,-73.242,-202.148
1689185424.112,-16.602,-11.230,-46.387,-48.340,6.348
1689185424.114,-45.410,-20.020,-34.180,-41.992,146.484
1689185424.118,-61.035,-26.367,-23.926,-65.918,-119.629
1689185424.122,-72.754,-33.691,-18.555,-97.656,-238.281
1689185424.126,-107.910,-40.039,-21.973,-118.164,-153.809
1689185424.130,-104.004,-42.969,-20.996,-123.047,-79.590
1689185424.134,-107.422,-47.363,-13.672,-109.863,14.160
1689185424.138,-155.273,-51.758,-14.648,-106.934,14.648
1689185424.141,-161.621,-60.059,-21.973,-140.625,139.648
1689185424.145,-155.762,-64.453,-18.066,-172.852,180.176
1689185424.149,-127.930,-64.453,-10.742,-148.438,-59.082
1689185424.153,-125.977,-61.035,-15.137,-140.625,-115.234
1689185424.157,-112.793,-60.059,-19.531,-132.812,-29.297
1689185424.159,-101.562,-70.312,-23.438,-112.305,-84.961
1689185424.163,-106.445,-74.219,-29.297,-106.445,-165.527
1689185424.167,-83.496,-70.801,-43.457,-84.961,-104.980
1689185424.171,-71.777,-63.965,-53.711,-55.176,-3.418
1689185424.175,-51.758,-64.941,-43.945,-68.848,-37.598
1689185424.179,-58.594,-57.129,-45.898,-70.312,-77.637
1689185424.183,-57.617,-51.270,-40.527,-65.430,41.992
1689185424.186,-36.621,-58.105,-14.160,-54.688,235.840
1689185424.190,-39.551,-52.734,0.000,-65.430,59.082
1689185424.194,-26.855,-43.457,-7.324,-90.820,-164.062
1689185424.198,-59.570,-48.340,-20.020,-79.590,-56.641
1689185424.202,-93.750,-51.270,-15.625,-61.523,-2.930
1689185424.204,-77.637,-73.730,-20.508,-33.691,-82.520
1689185424.208,-48.828,-100.098,-44.434,-9.766,-125.488
1689185424.212,-47.363,-93.262,-51.270,-30.273,92.285
1689185424.216,-67.383,-84.961,-31.250,-68.848,141.602
1689185424.220,-65.430,-78.613,-14.648,-77.637,-172.363
1689185424.224,-40.039,-68.848,-14.648,-50.293,-215.332
1689185424.228,-28.809,-66.406,-20.996,-20.020,167.969
1689185424.231,-23.438,-57.129,-21.484,-6.836,273.438
1689185424.235,-15.137,-52.246,-27.344,-7.812,-120.117
1689185424.239,-19.531,-65.430,-37.109,-28.809,-165.039
1689185424.243,-40.039,-64.453,-45.410,-45.898,-66.406
1689185424.247,-51.758,-53.223,-43.457,-52.246,-65.430
1689185424.250,-41.504,-43.945,-38.574,-42.480,-110.840
1689185424.254,-67.871,-51.758,-50.293,-63.965,3.418
1689185424.258,-74.707,-44.434,-69.824,-77.637,87.891
1689185424.262,-29.785,-22.461,-62.500,-28.320,-54.688
1689185424.266,-16.602,-34.180,-25.391,-24.414,-102.539
1689185424.270,-37.598,-49.316,0.977,-29.297,103.516
1689185424.274,-68.359,-52.246,3.418,-57.617,328.125
1689185424.277,-95.215,-58.105,6.836,-64.453,51.270
1689185424.281,-89.355,-63.965,14.160,-43.457,-215.820
1689185424.285,-59.082,-66.895,16.113,-32.715,-99.121
1689185424.289,-42.969,-74.219,19.531,-25.391,30.762
1689185424.293,-46.875,-74.707,27.832,-43.457,-45.898
1689185424.309,-44.434,-74.219,30.273,-17.090,-187.012
1689185424.313,-53.223,-83.008,27.832,-12.207,-3.418
1689185424.317,-75.195,-83.984,29.785,-48.828,97.168
1689185424.321,-73.730,-83.008,32.715,-36.133,-106.934
1689185424.325,-76.660,-86.914,26.855,-23.438,-47.363
1689185424.329,-81.055,-83.008,23.926,-25.879,242.188
1689185424.333,-60.547,-69.336,28.320,-34.180,235.352
1689185424.336,-34.668,-60.547,23.926,-20.996,-117.188
1689185424.340,-35.156,-62.012,11.230,-12.207,-141.602
1689185424.344,-51.758,-62.500,10.742,-3.418,-1.465
1689185424.348,-44.922,-58.594,2.930,17.090,-91.309
1689185424.352,-28.809,-53.711,-14.160,-9.766,-226.074
1689185424.354,-30.762,-48.828,-15.137,-24.414,-81.055
1689185424.358,-10.254,-41.504,-13.672,-15.137,-4.395
1689185424.362,-30.762,-42.969,-21.484,-8.789,-85.449
1689185424.366,-45.898,-45.410,-22.461,-17.578,-128.906
1689185424.370,-26.367,-42.969,-5.859,-40.527,-61.035
1689185424.374,-15.625,-39.062,7.324,-15.137,73.730
1689185424.378,-35.156,-42.480,0.977,11.230,102.051
1689185424.381,-34.668,-40.039,-7.812,-19.531,19.043
1689185424.385,-34.180,-31.738,-6.348,-36.133,2.930
1689185424.389,-28.809,-28.809,-3.906,0.000,308.105
1689185424.393,-16.602,-35.156,-10.742,-6.348,276.855
1689185424.397,-3.906,-36.621,-26.855,-6.348,-29.297
1689185424.414,-10.742,-35.645,-30.273,-17.090,78.125
1689185424.418,-23.926,-28.809,-17.090,-27.344,57.129
1689185424.422,-42.969,-25.391,-11.230,-10.742,-200.195
1689185424.426,-74.707,-30.762,-17.578,-17.578,-210.938
1689185424.430,-70.312,-28.320,-23.926,-7.812,-107.910
1689185424.434,-55.664,-25.391,-27.344,-10.742,15.625
1689185424.438,-53.223,-25.391,-41.992,-44.434,-20.996
1689185424.441,-30.273,-24.414,-43.945,-41.992,-186.523
1689185424.445,-6.836,-22.949,-37.109,-14.648,16.602
1689185424.449,-15.137,-27.832,-35.645,-3.418,222.168
1689185424.453,-21.973,-22.461,-32.227,0.000,-53.223
1689185424.457,-16.602,-19.043,-29.785,-6.836,-116.699
1689185424.444,-36.133,-33.691,-12.695,-15.137,-32.227
1689185424.448,-64.453,-39.062,3.418,-30.762,-109.863
1689185424.452,-43.945,-36.621,-1.465,-30.762,-148.926
1689185424.456,-11.719,-38.574,-5.859,-3.906,-18.555
1689185424.460,-19.043,-42.480,3.906,3.906,12.207
1689185424.464,-50.293,-48.340,7.812,-21.484,-71.289
1689185424.468,-40.527,-53.711,3.418,-40.527,-84.961
1689185424.471,-29.297,-50.293,8.301,-15.137,29.297
1689185424.475,-8.301,-45.410,10.742,22.949,85.449
1689185424.479,-27.832,-45.410,3.418,8.789,-71.289
1689185424.483,-66.406,-44.922,-0.488,-16.602,-172.852
1689185424.487,-56.641,-43.945,-8.789,-44.434,68.848
1689185424.489,-45.410,-44.434,-11.719,-26.855,208.984
1689185424.493,-38.574,-42.969,-14.160,3.906,-56.641
1689185424.497,-23.438,-39.551,-14.160,-14.648,-200.195
1689185424.501,-28.809,-37.109,-9.277,-18.066,48.828
1689185424.505,-21.973,-33.691,-18.066,-18.555,274.414
1689185424.509,-14.160,-27.344,-28.320,-16.602,65.430
1689185424.513,-47.363,-26.855,-24.414,-13.672,-71.289
1689185424.516,-41.504,-30.273,-27.344,2.930,125.977
1689185424.520,-38.574,-30.273,-25.879,8.301,169.922
1689185424.524,-43.457,-25.879,-15.625,-36.133,-158.691
1689185424.528,-17.578,-24.414,-15.625,-31.738,-244.141
1689185424.532,16.602,-30.762,-13.672,-24.902,-139.160
1689185424.549,15.137,-31.250,-24.902,-19.043,-75.195
1689185424.553,-21.484,-29.297,-53.711,-27.832,-135.254
1689185424.557,-45.410,-30.762,-41.504,-41.016,-28.809
1689185424.561,-23.438,-31.250,-19.043,-25.391,80.566
1689185424.565,15.137,-31.250,-18.555,-19.531,-69.824
1689185424.569,-10.742,-26.855,-22.949,-28.320,-97.656
1689185424.573,-50.781,-25.391,-18.066,-34.668,65.430
1689185424.576,-67.383,-32.227,-16.113,-20.996,233.887
1689185424.580,-26.855,-36.133,-20.020,11.719,6.348
1689185424.584,19.043,-27.832,-23.926,0.488,-154.297
1689185424.588,-11.719,-25.879,-30.762,-10.254,86.426
1689185424.592,-28.809,-36.133,-37.598,-19.531,76.660
1689185424.579,-16.602,-34.668,-33.691,-41.016,-200.684
1689185424.583,-11.230,-32.227,-26.367,-32.227,-228.027
1689185424.587,-11.719,-32.715,-32.227,-8.789,-65.918
1689185424.591,-8.789,-34.180,-36.133,-10.254,2.930
1689185424.595,-15.625,-35.645,-38.086,-36.133,-134.277
1689185424.599,-23.926,-33.691,-37.598,-50.293,-128.906
1689185424.603,-51.758,-34.180,-36.133,-46.387,39.551
1689185424.606,-56.641,-34.668,-34.668,-6.348,96.680
1689185424.610,-42.480,-40.039,-37.598,-6.836,-41.016
1689185424.614,-51.758,-43.457,-32.715,-59.570,-191.406
1689185424.618,-51.270,-42.480,-23.926,-51.270,78.125
1689185424.622,-30.762,-38.574,-31.250,-26.855,153.320
1689185424.624,-23.438,-37.109,-42.969,-27.344,-190.430
1689185424.628,-19.531,-37.598,-31.250,-21.973,-148.926
1689185424.632,-3.418,-39.062,-19.531,-16.602,-54.199
1689185424.636,-26.855,-37.109,-26.855,-42.480,-125.000
1689185424.640,-49.805,-36.133,-28.809,-54.199,-177.734
1689185424.644,-38.574,-41.016,-23.926,-39.551,94.727
1689185424.648,-9.277,-39.551,-23.438,-23.438,319.336
1689185424.651,-16.602,-33.203,-28.320,-16.113,132.324
1689185424.655,-41.992,-36.133,-33.691,-5.859,-122.070
1689185424.659,-55.664,-39.551,-29.297,-13.672,-28.809
1689185424.663,-37.109,-40.527,-28.809,-19.531,356.934
1689185424.667,-27.832,-43.457,-26.367,-7.324,104.492
1689185424.684,-57.129,-40.527,-18.555,-26.367,-186.035
1689185424.688,-16.602,-52.246,-18.066,-27.832,-26.855
1689185424.692,20.020,-53.711,-28.320,-8.301,10.742
1689185424.696,22.461,-24.414,-41.504,3.418,-137.207
1689185424.700,44.922,-6.348,-48.828,9.766,-119.141
1689185424.704,13.184,-9.766,-59.570,11.230,57.617
1689185424.708,-39.551,-7.324,-67.871,-19.043,42.969
1689185424.711,-41.504,11.230,-78.613,-56.641,-163.574
1689185424.715,-39.551,16.602,-91.309,-63.477,-234.863
1689185424.719,-23.926,10.254,-100.586,-65.430,123.535
1689185424.723,-14.160,15.625,-108.398,-55.664,231.934
1689185424.727,-12.695,18.066,-114.746,-59.082,-159.668
1689185424.729,0.000,17.090,-117.188,-52.246,-147.949
1689185424.733,31.250,23.438,-115.234,-50.781,-17.090
1689185424.737,37.109,23.438,-112.305,-16.602,-40.039
1689185424.741,21.973,20.996,-116.211,7.324,-118.164
1689185424.745,21.973,21.973,-111.328,-8.301,-55.176
1689185424.749,29.297,20.996,-106.934,-33.691,46.387
1689185424.753,22.949,18.555,-111.816,-43.945,40.527
1689185424.756,6.348,16.602,-115.234,-31.250,-40.039
1689185424.760,0.977,7.812,-110.352,-39.062,20.020
1689185424.764,-0.488,0.000,-91.797,-41.992,240.723
1689185424.768,-5.371,-5.371,-80.566,-32.227,85.449
1689185424.772,7.812,-7.812,-80.078,-15.137,-177.246
1689185424.774,30.273,-9.277,-76.660,5.371,-8.789
1689185424.778,20.996,-14.160,-74.707,2.930,237.793
1689185424.782,5.371,-11.719,-69.336,-2.930,-86.914
1689185424.786,-11.230,-17.090,-62.500,-7.324,-215.332
1689185424.790,5.859,-20.020,-63.477,-13.672,-140.625
1689185424.794,18.066,-19.531,-60.059,-6.348,-104.980
1689185424.798,19.531,-22.949,-54.688,-5.371,-16.602
1689185424.801,18.066,-22.949,-57.617,-13.672,-97.168
1689185424.805,4.395,-28.809,-59.570,-7.812,70.801
1689185424.809,-9.766,-29.297,-52.246,6.348,149.902
1689185424.813,0.000,-34.180,-43.457,12.695,-125.488
1689185424.817,28.809,-32.715,-44.922,3.906,-38.086
1689185424.819,2.441,-38.086,-49.316,-0.977,-6.348
1689185424.823,-38.086,-48.828,-48.340,-19.043,-117.676
1689185424.827,-19.043,-43.457,-47.363,-37.109,-108.398
1689185424.831,22.949,-35.645,-51.758,-7.812,58.105
1689185424.835,15.137,-38.086,-50.293,5.859,124.023
1689185424.839,-20.508,-45.898,-41.992,-17.090,9.277
1689185424.843,-23.438,-43.945,-35.156,-25.391,-58.594
1689185424.846,-1.465,-45.410,-36.621,-7.324,-2.930
1689185424.850,-10.742,-52.734,-38.086,-4.395,183.594
1689185424.854,-7.324,-51.270,-37.598,-2.930,58.105
1689185424.858,-1.953,-59.082,-39.062,2.441,-66.895
1689185424.862,-23.438,-63.965,-27.832,-2.441,102.051
1689185424.864,-25.391,-58.105,-31.250,-15.625,56.152
1689185424.868,-28.809,-51.758,-42.480,-9.277,-165.039
1689185424.872,13.672,-39.551,-47.363,22.461,-124.023
1689185424.876,33.691,-30.762,-62.988,10.254,-24.414
1689185424.880,14.648,-28.320,-68.848,-17.090,-74.219
1689185424.884,-0.488,-26.367,-66.895,-39.062,-93.750
1689185424.888,8.789,-20.508,-71.777,-38.574,-35.645
1689185424.891,26.855,-17.578,-75.195,20.996,311.523
1689185424.895,26.855,-27.344,-69.336,57.129,416.992
1689185424.899,33.203,-29.785,-63.477,41.992,-55.176
1689185424.903,14.648,-32.227,-56.641,40.039,-233.887
1689185424.907,20.996,-34.668,-49.805,29.297,-193.359
1689185424.909,37.598,-30.273,-51.270,20.508,-197.266
1689185424.913,0.488,-30.762,-53.711,17.578,-147.461
1689185424.917,-28.809,-37.598,-55.664,-11.230,-62.500
1689185424.921,-27.344,-43.457,-49.316,-21.973,-91.797
1689185424.925,-21.484,-46.387,-46.387,2.930,-155.273
1689185424.929,-6.836,-47.852,-42.480,14.160,-83.008
1689185424.933,7.324,-41.992,-41.504,16.113,97.168
1689185424.936,-10.254,-46.387,-49.805,0.488,259.277
1689185424.940,-20.508,-50.781,-44.922,-14.648,30.762
1689185424.944,3.906,-44.922,-38.574,6.348,-236.328
1689185424.948,31.738,-48.828,-38.086,23.926,88.867
1689185424.952,12.207,-55.176,-43.457,22.949,364.746
1689185424.954,-27.832,-54.199,-52.246,-7.324,12.207
1689185424.958,-27.344,-54.199,-51.270,-22.461,-180.664
1689185424.962,-21.973,-50.781,-44.922,-25.879,-116.211
1689185424.966,-11.719,-46.875,-43.945,-9.766,-108.887
1689185424.970,7.324,-47.852,-34.668,28.320,-130.371
1689185424.974,-20.020,-50.293,-29.785,-3.906,-71.289
1689185424.978,-42.480,-61.523,-37.109,-26.855,279.785
1689185424.981,-35.156,-59.570,-43.945,-21.484,258.301
1689185424.985,-22.949,-47.363,-45.410,-20.996,-180.176
1689185424.989,6.836,-45.898,-44.434,19.531,-135.742
1689185424.993,11.230,-52.246,-45.898,22.949,41.016
1689185424.997,15.625,-48.340,-44.434,7.324,-96.680
1689185424.999,34.180,-49.316,-31.738,35.645,-251.465
1689185425.003,15.137,-54.199,-29.297,41.504,-130.859
1689185425.007,5.371,-50.293,-36.133,27.344,17.578
1689185425.011,20.020,-49.316,-31.738,34.180,-69.824
1689185425.015,43.457,-44.434,-31.738,40.039,-203.125
1689185425.019,42.480,-46.875,-35.645,26.855,-2.441
1689185425.023,32.227,-45.898,-25.879,43.945,197.266
1689185425.026,40.527,-41.016,-21.973,58.105,7.812
1689185425.030,32.227,-47.363,-24.902,52.734,-132.812
1689185425.034,40.527,-46.387,-26.367,53.223,14.160
1689185425.038,41.016,-43.457,-31.738,9.277,114.746
1689185425.042,-3.906,-46.387,-31.250,13.184,-125.488
1689185425.059,-21.484,-51.758,-36.133,42.969,-76.660
1689185425.063,5.859,-55.176,-39.062,25.879,213.867
1689185425.067,-10.742,-51.270,-37.109,-2.441,221.191
1689185425.071,-20.996,-48.340,-38.086,-23.438,-106.445
1689185425.075,-18.066,-52.734,-36.621,-2.930,-166.992
1689185425.079,4.883,-48.340,-33.691,24.902,24.414
1689185425.083,41.992,-45.898,-33.691,-3.418,77.148
1689185425.086,2.441,-51.758,-33.203,-25.879,-5.859
1689185425.090,5.371,-47.363,-38.086,-22.949,-143.066
1689185425.094,23.926,-47.363,-42.480,-13.184,75.684
1689185425.098,1.953,-46.875,-40.039,29.297,112.305
1689185425.102,-9.277,-39.062,-35.645,35.156,-137.695
1689185425.104,-18.555,-40.039,-34.180,-7.324,-116.211
1689185425.108,-18.066,-45.898,-28.809,-32.715,-134.277
1689185425.112,-20.020,-44.922,-19.531,-13.672,-172.852
1689185425.116,-9.766,-40.039,-15.625,-3.418,-74.219
1689185425.120,-1.465,-40.039,-16.602,-2.441,7.324
1689185425.124,11.230,-35.645,-19.043,-0.488,107.910
1689185425.128,0.000,-38.574,-20.996,-12.695,68.848
1689185425.131,-2.930,-40.527,-20.020,2.441,-153.809
1689185425.135,12.695,-37.598,-26.367,43.457,-61.035
1689185425.139,-12.207,-37.598,-34.668,5.859,197.754
1689185425.143,-21.484,-35.645,-34.180,-39.062,75.684
1689185425.147,-30.273,-38.574,-32.227,-43.945,-124.023
1689185425.149,-36.621,-46.387,-31.250,-43.945,-28.320
1689185425.153,-22.461,-48.828,-29.297,-3.418,60.547
1689185425.157,-1.953,-45.410,-41.016,2.930,-142.578
1689185425.161,1.953,-44.922,-47.852,-12.695,-166.992
1689185425.165,-28.809,-44.922,-39.551,-20.996,-136.719
1689185425.169,-26.855,-42.969,-30.273,-44.922,-116.211
1689185425.173,-12.207,-48.828,-26.367,-43.945,-84.961
1689185425.176,-14.160,-53.711,-29.297,-5.371,-9.766
1689185425.180,-17.578,-50.293,-23.926,19.043,250.977
1689185425.184,-19.043,-45.410,-22.949,-17.090,287.109
1689185425.188,-21.484,-43.945,-24.902,-16.113,-111.328
1689185425.192,-0.488,-43.457,-30.762,-5.859,-210.449
1689185425.194,8.301,-45.898,-41.016,-32.715,-116.699
1689185425.198,-23.438,-46.387,-42.969,-30.762,-128.906
1689185425.202,-55.664,-45.410,-44.434,-56.152,-207.520
1689185425.206,-68.848,-51.758,-41.992,-70.312,-159.668
1689185425.210,-41.504,-53.223,-36.621,-14.648,-102.539
1689185425.214,-0.488,-50.781,-38.574,-9.277,-41.016
1689185425.218,-15.137,-45.410,-36.621,-46.875,19.531
1689185425.221,-39.551,-47.363,-30.273,-59.082,12.207
1689185425.225,-36.133,-47.363,-28.320,-55.176,291.504
1689185425.229,-54.688,-44.922,-31.738,-60.547,179.688
1689185425.233,-44.434,-49.805,-33.203,-45.410,-66.895
1689185425.237,-15.137,-51.270,-29.785,-23.926,145.996
1689185425.254,-32.227,-45.410,-30.762,-43.945,126.465
1689185425.258,-38.086,-39.062,-30.762,-41.016,-144.531
1689185425.262,-24.902,-41.016,-27.344,-26.367,-146.484
1689185425.266,-27.832,-47.363,-30.273,-22.461,-73.730
1689185425.270,6.348,-50.293,-32.227,-10.742,-58.594
1689185425.274,15.137,-49.805,-28.320,3.906,-27.832
1689185425.278,-56.152,-48.340,-22.949,-26.855,-19.043
1689185425.281,-70.801,-47.363,-29.785,-58.105,187.500
1689185425.285,-52.246,-44.922,-34.180,-51.758,197.754
1689185425.289,-41.992,-46.875,-29.785,-45.410,-161.621
1689185425.293,-40.527,-46.875,-29.785,-61.523,-97.656
1689185425.297,-51.758,-42.480,-28.809,-83.496,21.973
1689185425.284,-27.344,-43.457,-23.926,-54.688,-141.113
1689185425.288,-12.207,-46.875,-24.414,-20.996,-197.754
1689185425.292,-12.695,-47.852,-28.809,-29.297,-109.863
1689185425.296,-37.109,-43.945,-25.879,-55.664,-88.379
1689185425.300,-69.336,-41.992,-21.973,-66.895,-109.863
1689185425.304,-55.176,-42.480,-23.438,-62.988,-35.645
1689185425.308,-41.016,-45.898,-30.762,-52.734,144.531
1689185425.311,-39.551,-44.922,-38.574,-62.988,128.418
1689185425.315,-52.734,-40.039,-35.156,-55.664,-81.055
1689185425.319,-50.293,-43.945,-36.133,-63.965,-173.340
1689185425.323,-18.555,-39.062,-52.734,-66.895,28.320
1689185425.327,-4.395,-38.086,-44.434,-17.090,452.148
1689185425.330,-10.254,-53.711,-13.672,1.465,277.344
1689185425.334,-30.273,-58.105,-6.348,-13.184,-66.406
1689185425.338,-38.086,-61.035,-7.812,-26.367,-18.555
1689185425.342,-28.320,-71.777,5.371,-25.391,-41.016
1689185425.346,-17.578,-81.055,17.578,-3.906,-132.812
1689185425.350,-5.371,-91.309,23.926,6.348,-15.137
1689185425.354,-31.738,-96.191,30.762,-20.508,257.324
1689185425.357,-60.547,-99.121,35.645,-39.062,239.258
1689185425.361,-39.062,-101.562,41.504,-21.484,-171.387
1689185425.365,-40.527,-103.027,48.340,-0.488,-211.914
1689185425.369,-42.480,-108.398,56.152,29.785,-147.949
1689185425.373,-2.930,-108.887,58.594,41.504,-147.949
1689185425.374,4.395,-103.516,49.316,42.969,-198.730
1689185425.378,-9.766,-98.633,39.551,21.484,-180.664
1689185425.382,-20.996,-94.727,29.785,-24.902,-99.121
1689185425.386,-26.855,-99.609,26.367,-23.438,-48.340
1689185425.390,-11.719,-109.863,29.297,-8.789,-20.508
1689185425.394,-3.418,-116.211,24.414,0.488,-12.207
1689185425.398,-11.719,-110.840,14.648,-17.578,365.723
1689185425.401,-43.945,-109.375,8.301,-24.902,230.957
1689185425.405,-49.805,-109.375,7.812,9.766,-231.445
1689185425.409,-37.598,-104.492,3.418,7.812,-44.922
1689185425.413,-65.430,-99.121,-4.395,-36.133,51.758
1689185425.417,-71.777,-92.285,-5.371,-59.082,-130.859
1689185425.434,-45.898,-88.379,-3.906,-64.941,-192.871
1689185425.438,-47.852,-82.520,-3.418,-40.039,20.996
1689185425.442,-34.180,-79.102,-8.301,-18.066,138.672
1689185425.446,-39.551,-75.195,-10.254,-25.391,-79.102
1689185425.450,-69.824,-74.219,-14.160,-52.246,-131.348
1689185425.454,-59.082,-71.777,-14.648,-37.598,6.836
1689185425.458,-35.645,-68.359,-5.859,-22.461,0.977
1689185425.461,-41.504,-69.336,-3.906,-25.879,-34.668
1689185425.465,-54.199,-66.895,-12.207,-27.344,-42.480
1689185425.469,-51.270,-62.012,-19.043,-41.016,182.617
1689185425.473,-40.039,-59.570,-20.996,-54.199,232.910
1689185425.477,-34.180,-55.176,-23.926,-58.105,-141.113
1689185425.479,-46.875,-58.105,-23.438,-29.785,-117.188
1689185425.483,-53.711,-62.012,-18.555,-2.441,-77.637
1689185425.487,-36.133,-56.152,-21.484,-35.156,-176.270
1689185425.491,-35.645,-52.246,-21.973,-59.082,-229.980
1689185425.495,-30.762,-49.316,-21.484,-55.664,-80.566
1689185425.499,-37.109,-49.805,-27.832,-47.363,145.020
1689185425.503,-57.129,-51.270,-29.785,-36.133,137.695
1689185425.506,-62.500,-57.129,-25.879,-54.688,-50.293
1689185425.510,-64.453,-52.734,-20.996,-69.336,-42.969
1689185425.514,-56.152,-44.434,-20.996,-58.105,370.605
1689185425.518,-44.922,-48.340,-23.438,-6.348,287.598
1689185425.522,-41.504,-49.316,-24.902,-0.488,-70.312
1689185425.524,-52.246,-47.852,-24.414,-38.574,-67.383
1689185425.528,-39.062,-44.434,-25.879,-43.457,-130.371
1689185425.532,-5.371,-44.434,-26.855,-46.387,-219.727
1689185425.536,-20.508,-45.410,-25.879,-36.621,-182.129
1689185425.540,-51.758,-44.922,-25.879,-39.062,72.266
1689185425.544,-41.992,-46.875,-28.809,-58.594,209.961
1689185425.548,-61.035,-44.434,-26.367,-63.477,-32.715
1689185425.551,-52.734,-37.598,-25.879,-43.945,-125.977
1689185425.555,-41.992,-40.527,-25.879,-19.043,-61.523
1689185425.559,-47.852,-44.434,-22.949,-5.859,-57.129
1689185425.563,-26.367,-44.434,-26.367,-34.180,-128.418
1689185425.567,-26.367,-42.969,-34.180,-55.176,-145.996
1689185425.569,-45.898,-44.434,-34.180,-54.688,129.395
1689185425.573,-63.965,-47.363,-23.926,-60.059,238.770
1689185425.577,-45.410,-41.992,-17.090,-43.945,-63.965
1689185425.581,-26.855,-36.621,-22.461,-40.039,-83.008
1689185425.585,-42.480,-38.574,-30.273,-48.340,-38.086
1689185425.589,-46.875,-39.551,-29.785,-44.434,-12.695
1689185425.593,-40.527,-40.527,-29.785,-10.742,-40.527
1689185425.596,-25.391,-38.574,-24.414,16.113,21.484
1689185425.600,-29.297,-36.133,-21.973,-4.395,199.707
1689185425.604,-45.410,-35.156,-27.832,-63.477,0.000
1689185425.608,-54.199,-30.273,-31.738,-82.520,-105.469
1689185425.612,-50.781,-30.273,-27.832,-62.012,137.207
1689185425.615,-41.992,-27.344,-23.438,-24.414,113.281
1689185425.619,-29.785,-27.832,-21.973,-20.508,-91.309
1689185425.623,-34.668,-28.809,-21.484,-68.848,-172.363
1689185425.627,-29.785,-27.344,-24.414,-58.105,-73.730
1689185425.631,-22.461,-32.227,-22.461,-23.926,12.695
1689185425.635,-18.066,-33.203,-20.996,-25.879,-7.324
1689185425.639,-29.785,-31.250,-23.438,-35.156,-3.906
1689185425.642,-52.734,-29.297,-27.832,-42.480,165.039
1689185425.646,-41.992,-23.438,-24.414,-49.805,147.461
1689185425.650,-25.879,-20.508,-17.578,-25.879,-200.195
1689185425.654,-15.137,-25.391,-16.113,8.301,-156.250
1689185425.658,-24.902,-29.297,-15.137,-4.395,-50.781
1689185425.659,-33.203,-30.762,-24.414,-43.457,-116.211
1689185425.663,-21.484,-27.344,-29.297,-56.641,-186.035
1689185425.667,-31.738,-26.367,-20.508,-42.480,-104.492
1689185425.671,-38.574,-29.785,-18.066,-18.066,80.078
1689185425.675,-30.273,-27.832,-23.926,-23.926,77.637
1689185425.679,-20.508,-20.020,-28.809,-49.316,61.035
1689185425.683,-40.039,-21.973,-27.344,-42.969,41.016
1689185425.686,-77.148,-33.691,-29.785,-28.320,281.738
1689185425.690,-51.758,-35.156,-32.227,-48.828,199.219
1689185425.694,-17.090,-29.297,-32.715,-43.457,-225.586
1689185425.698,-29.297,-23.926,-31.738,-29.297,5.371
1689185425.702,-32.227,-27.344,-29.297,-47.852,149.414
1689185425.704,-40.039,-30.273,-32.227,-47.363,-142.578
1689185425.708,-37.109,-23.438,-31.250,-21.484,-143.555
1689185425.712,-18.555,-26.367,-29.297,-20.996,-73.242
1689185425.716,-45.898,-31.250,-23.438,-43.945,-144.043
1689185425.720,-42.969,-26.855,-18.555,-46.387,-238.281
1689185425.724,-33.203,-24.902,-25.391,-48.828,-187.988
1689185425.728,-24.414,-28.320,-27.832,-48.340,6.348
1689185425.731,-14.160,-28.809,-27.832,-41.992,47.363
1689185425.735,-43.457,-27.344,-25.879,-37.109,-96.680
1689185425.739,-49.805,-24.414,-22.949,-49.805,-202.148
1689185425.743,-18.066,-20.996,-24.902,-44.434,85.938
1689185425.747,-2.930,-19.043,-20.508,0.977,279.297
1689185425.749,-12.695,-16.602,-15.625,22.461,-35.645
1689185425.753,-30.762,-20.020,-24.414,-6.348,-109.375
1689185425.757,-37.109,-24.414,-31.738,-56.641,-76.660
1689185425.761,-43.945,-25.879,-27.344,-69.336,-92.773
1689185425.765,-30.273,-26.855,-23.926,-46.875,-129.395
1689185425.769,-23.926,-27.832,-21.484,-44.434,15.625
1689185425.773,-46.875,-25.391,-17.090,-41.992,250.977
1689185425.776,-30.273,-19.531,-14.648,-45.898,24.902
1689185425.780,7.812,-12.695,-15.625,-27.832,-183.594
1689185425.784,-25.391,-15.625,-16.602,-2.441,46.875
1689185425.788,-46.875,-22.949,-18.555,-1.465,362.305
1689185425.792,-35.645,-22.461,-23.438,-32.715,106.445
1689185425.809,-42.969,-21.484,-25.879,-65.430,-174.316
1689185425.813,-51.758,-20.996,-26.855,-45.410,-95.703
1689185425.817,-41.992,-22.461,-28.320,-26.367,-111.328
1689185425.821,-12.207,-21.484,-33.203,-31.250,-152.832
1689185425.825,2.930,-7.324,-39.551,-38.086,-140.625
1689185425.829,-33.203,-5.859,-37.109,-51.270,-15.137
1689185425.833,-72.754,-25.391,-21.484,-43.945,-0.488
1689185425.836,-74.219,-27.344,-14.648,-28.320,-102.539
1689185425.840,-67.383,-21.484,-21.973,-51.270,-96.680
1689185425.844,-75.195,-27.344,-25.391,-112.305,130.859
1689185425.848,-111.328,-31.738,-25.391,-166.504,91.309
1689185425.852,-138.184,-33.203,-17.578,-163.574,-146.484
1689185425.854,-156.738,-37.109,-18.066,-160.156,-103.027
1689185425.858,-134.766,-41.992,-24.902,-144.043,0.488
1689185425.862,-124.023,-39.551,-20.996,-140.137,-55.664
1689185425.866,-152.344,-35.645,-22.949,-160.156,-170.898
1689185425.870,-144.043,-35.156,-20.996,-131.836,-105.469
1689185425.874,-133.301,-33.691,-15.625,-116.211,26.367
1689185425.878,-112.305,-36.621,-18.555,-120.605,62.988
1689185425.881,-92.285,-33.691,-22.461,-106.445,-28.320
1689185425.885,-99.121,-27.832,-22.949,-83.496,0.000
1689185425.889,-78.125,-28.809,-26.367,-87.402,152.832
1689185425.893,-50.293,-30.273,-29.297,-89.844,65.430
1689185425.897,-44.434,-30.762,-30.273,-71.777,-113.281
1689185425.900,-56.152,-27.344,-28.320,-71.777,29.785
1689185425.904,-71.777,-21.973,-26.367,-78.125,134.277
1689185425.908,-77.637,-22.949,-28.809,-87.402,-122.559
1689185425.912,-75.684,-25.391,-30.762,-78.613,-171.387
1689185425.916,-50.293,-19.531,-31.250,-52.734,-3.418
1689185425.920,-39.551,-16.602,-29.785,-52.734,157.227
1689185425.924,-29.297,-15.137,-27.832,-72.754,61.523
1689185425.927,-28.809,-9.766,-23.438,-78.125,-133.301
1689185425.931,-57.617,-17.090,-21.973,-71.289,77.637
1689185425.935,-47.363,-25.879,-26.855,-63.965,209.473
1689185425.939,-18.555,-24.414,-32.227,-43.457,-59.570
1689185425.943,-26.367,-23.926,-29.297,-40.527,-52.734
1689185425.944,-59.082,-19.531,-25.879,-61.523,-87.891
1689185425.948,-41.992,-11.230,-29.297,-36.621,-167.969
1689185425.952,-11.719,-7.812,-30.762,-19.043,-135.254
1689185425.956,-30.273,-8.301,-34.668,-41.504,-54.199
1689185425.960,-32.715,-13.672,-41.016,-58.594,91.797
1689185425.964,-49.805,-23.926,-39.062,-78.613,75.195
1689185425.968,-61.523,-19.531,-24.414,-92.285,-73.242
1689185425.971,-48.340,-16.602,-20.508,-61.035,-60.059
1689185425.975,-47.363,-21.973,-25.391,-27.832,311.523
1689185425.979,-44.434,-18.066,-26.367,-43.945,176.270
1689185425.983,-57.129,-18.066,-23.438,-64.941,-125.488
1689185425.987,-66.406,-22.461,-22.949,-61.035,70.801
1689185425.989,-45.898,-22.949,-28.809,-24.414,107.422
1689185425.993,-31.250,-19.531,-24.902,7.812,-85.449
1689185425.997,-46.387,-21.484,-13.184,-10.254,-111.328
1689185426.001,-36.621,-21.973,-13.184,-41.504,-62.500
1689185426.005,-22.949,-16.602,-17.578,-58.594,-94.238
1689185426.009,-37.109,-18.555,-16.602,-59.570,-51.270
1689185426.013,-42.969,-24.902,-18.555,-50.293,-58.105
1689185426.016,-42.969,-22.461,-29.297,-35.645,185.059
1689185426.020,-31.738,-20.508,-39.551,-12.695,303.711
1689185426.024,-29.297,-24.414,-29.297,-36.621,-146.484
1689185426.028,-54.199,-31.738,-11.230,-72.266,-254.883
1689185426.032,-55.664,-37.598,-5.859,-49.316,-122.559
1689185426.034,-41.992,-40.527,-2.930,-39.062,-118.164
1689185426.038,-59.082,-45.898,1.465,-38.086,-196.777
1689185426.042,-59.570,-53.711,14.648,-42.480,-122.070
1689185426.046,-8.789,-57.617,16.602,-26.367,-55.664
1689185426.050,-17.090,-57.617,20.020,2.441,-60.059
1689185426.054,-58.105,-62.012,34.668,-2.930,-44.434
1689185426.058,-56.152,-68.359,42.969,-2.441,31.738
1689185426.061,-61.035,-72.266,41.504,0.977,208.496
1689185426.065,-44.434,-72.266,41.992,0.000,27.344
1689185426.069,-33.203,-74.219,45.410,7.812,-109.863
1689185426.073,-34.180,-70.801,44.922,19.043,146.973
1689185426.077,-14.648,-65.918,47.852,29.785,274.902
1689185426.079,-17.090,-64.941,44.434,17.090,-101.074
1689185426.083,-21.484,-55.664,29.785,-10.254,-266.602
1689185426.087,2.441,-47.852,29.297,16.113,-111.328
1689185426.091,-5.859,-47.363,28.809,46.387,-52.734
1689185426.095,-16.113,-41.504,9.766,24.902,-116.699
1689185426.099,-3.418,-35.156,-6.348,-15.625,-160.156
1689185426.103,-20.020,-30.273,-0.488,-30.762,155.273
1689185426.106,-40.039,-26.367,-5.371,-25.879,265.137
1689185426.110,-24.414,-32.227,-12.207,10.742,-125.488
1689185426.114,-25.391,-36.621,3.906,2.441,-146.973
1689185426.118,-54.688,-36.621,8.301,-51.758,-100.098
1689185426.122,-46.875,-37.598,1.953,-52.246,-72.754
1689185426.125,-28.809,-33.691,-0.977,-39.062,2.441
1689185426.129,-16.113,-31.250,-2.930,-8.789,-16.113
1689185426.133,-9.277,-35.156,-7.324,-7.812,58.105
1689185426.137,-34.180,-35.156,-10.254,-30.273,-60.059
1689185426.141,-50.781,-38.086,-9.277,-27.832,-187.988
1689185426.145,-19.043,-39.062,-14.648,-15.137,33.203
1689185426.149,-25.391,-34.668,-14.160,-1.953,250.488
1689185426.152,-29.297,-32.715,-11.719,3.906,37.109
1689185426.156,-18.066,-27.832,-14.160,-19.531,-199.707
1689185426.160,-31.738,-23.438,-16.113,-41.016,-26.855
1689185426.164,-27.832,-21.973,-13.184,-27.832,173.828
1689185426.168,-13.672,-23.438,-12.207,-12.695,37.109
1689185426.184,5.371,-21.484,-17.090,-3.906,-144.043
1689185426.188,-12.207,-21.484,-19.043,-28.809,-16.602
1689185426.192,-44.922,-22.461,-20.996,-57.617,148.438
1689185426.196,-39.551,-23.926,-22.461,-38.086,-68.359
1689185426.200,-27.832,-23.438,-22.949,-16.602,-195.801
1689185426.204,-20.508,-22.461,-20.020,-14.160,138.184
1689185426.208,-19.531,-23.438,-16.602,-33.203,304.199
1689185426.211,-23.926,-19.531,-20.508,-67.871,-121.094
1689185426.215,-8.789,-20.020,-19.531,-29.297,-208.496
1689185426.219,-12.695,-23.926,-20.020,-18.555,6.836
1689185426.223,-27.344,-22.461,-25.879,-25.879,17.090
1689185426.227,-30.273,-23.438,-31.250,-18.555,-123.047
1689185426.229,-42.969,-22.461,-30.762,-39.551,-109.375
1689185426.233,-32.227,-17.578,-27.344,-49.805,-50.293
1689185426.237,-27.832,-24.902,-33.203,-61.523,-69.336
1689185426.241,-36.133,-30.762,-38.086,-57.129,-127.930
1689185426.245,-48.828,-25.391,-25.391,-49.805,-28.809
1689185426.249,-40.039,-23.438,-18.555,-40.039,111.816
1689185426.253,-18.555,-17.578,-25.391,-16.113,-5.371
1689185426.256,-12.695,-15.137,-25.391,-16.113,-110.840
1689185426.260,-15.625,-16.602,-18.555,-35.645,-45.410
1689185426.264,-26.855,-17.090,-21.484,-24.902,262.207
1689185426.268,-35.645,-20.996,-26.855,-45.410,163.574
1689185426.272,-20.996,-16.602,-23.926,-62.988,-206.055
1689185426.289,-4.395,-18.555,-20.020,-24.902,-26.367
1689185426.293,-22.949,-25.391,-23.926,-9.277,90.820
1689185426.297,-40.527,-28.320,-23.926,-20.508,-113.770
1689185426.301,-34.180,-30.273,-26.855,-37.598,-143.066
1689185426.305,-27.344,-21.973,-28.320,-60.547,-132.812
1689185426.309,-5.859,-13.672,-26.855,-32.227,44.922
1689185426.313,14.648,-9.277,-27.344,-20.508,68.359
1689185426.316,-12.207,-11.719,-30.273,-36.133,-54.688
1689185426.320,-28.809,-8.789,-30.762,-48.828,193.848
1689185426.324,-26.367,-4.883,-25.879,-53.711,282.715
1689185426.328,-15.137,-8.301,-21.973,-19.531,-102.051
1689185426.332,-7.812,-12.207,-27.832,-3.906,-197.266
1689185426.319,-15.137,-13.672,-31.250,-29.785,-72.754
1689185426.323,-22.949,-12.207,-25.879,-58.594,-143.555
1689185426.327,-38.086,-17.578,-26.367,-60.547,-198.242
1689185426.331,-26.367,-20.508,-24.902,-43.945,-101.074
1689185426.335,-9.766,-15.137,-21.484,-32.227,-19.043
1689185426.339,-25.391,-21.973,-24.414,-42.969,-21.484
1689185426.343,-22.949,-25.391,-25.879,-40.527,-63.477
1689185426.346,-11.230,-14.648,-25.879,-43.945,23.926
1689185426.350,-36.133,-12.207,-21.484,-28.320,97.656
1689185426.354,-45.410,-17.578,-19.531,-25.391,-4.883
1689185426.358,-40.039,-19.043,-18.066,-41.992,58.594
1689185426.362,-42.969,-16.113,-21.973,-37.598,123.047
1689185426.364,-10.254,-16.602,-34.180,-35.156,296.875
1689185426.368,-9.277,-18.066,-34.180,-15.137,167.480
1689185426.372,-8.301,-18.066,-20.996,6.836,-207.031
1689185426.376,3.906,-26.367,-20.508,-22.949,-24.902
1689185426.380,-30.273,-26.367,-24.414,-38.574,68.848
1689185426.384,-42.480,-29.785,-13.672,-33.203,-142.578
1689185426.388,-7.812,-38.574,-17.090,-21.484,-171.875
1689185426.391,15.137,-41.992,-15.137,25.879,98.633
1689185426.395,49.316,-36.133,-13.672,73.730,201.660
1689185426.399,69.824,-22.461,-18.066,40.039,-152.344
1689185426.403,22.949,-12.695,-18.555,-21.973,-229.004
1689185426.407,-11.230,-14.160,-20.996,-3.418,-152.832
1689185426.410,-2.441,-17.090,-16.602,31.250,-40.527
1689185426.414,8.789,-16.113,-12.207,33.203,-38.574
1689185426.418,-3.906,-18.066,-14.648,6.836,-69.824
1689185426.422,-14.160,-21.973,-20.508,-31.250,-5.859
1689185426.426,-10.742,-23.438,-26.367,-34.668,-49.805
1689185426.430,-2.930,-20.020,-23.438,-5.859,-1.465
1689185426.434,7.324,-19.043,-19.043,18.066,184.082
1689185426.437,1.953,-19.531,-24.902,-8.301,279.297
1689185426.441,-20.996,-19.531,-27.832,-27.344,27.344
1689185426.445,-10.254,-18.555,-27.344,-28.809,-250.000
1689185426.449,8.789,-20.996,-26.855,-18.066,21.973
1689185426.453,-21.484,-21.484,-26.367,-5.371,211.914
1689185426.455,-56.152,-20.020,-29.785,-39.062,-86.426
1689185426.459,-27.832,-16.113,-32.227,-54.199,-183.105
1689185426.463,-39.062,-16.113,-27.832,-55.176,-91.797
1689185426.467,-45.898,-15.137,-25.879,-34.668,-35.645
1689185426.471,-27.344,-14.160,-23.926,-2.930,-87.891
1689185426.475,-27.344,-20.020,-22.461,-15.625,-145.508
1689185426.479,-32.715,-18.066,-24.414,-49.805,54.199
1689185426.482,-41.992,-16.113,-30.273,-55.176,260.742
1689185426.486,-20.508,-20.508,-31.738,2.441,-41.016
1689185426.490,16.602,-20.508,-26.855,27.832,-169.434
1689185426.494,23.926,-18.066,-24.414,-31.250,-23.438
1689185426.498,0.977,-10.254,-24.902,-53.223,-33.203
1689185426.499,-33.203,-5.371,-28.320,-50.781,-188.965
1689185426.503,-23.438,-9.766,-34.180,-34.668,-130.859
1689185426.507,1.465,-8.301,-38.086,15.137,5.371
1689185426.511,12.695,-4.395,-27.344,29.785,-5.371
1689185426.515,14.160,-2.930,-24.902,0.000,-121.582
1689185426.519,20.020,-6.836,-27.832,29.297,-1.953
1689185426.523,6.836,-9.277,-30.273,67.383,284.668
1689185426.526,-2.930,-12.695,-30.762,18.555,145.020
1689185426.530,22.461,-16.113,-26.367,-4.395,-89.355
1689185426.534,22.949,-15.625,-21.973,4.395,-70.801
1689185426.538,19.531,-10.742,-22.949,-0.977,213.867
1689185426.542,14.648,-9.766,-21.973,2.930,31.250
1689185426.559,-9.766,-16.113,-25.879,12.695,-202.148
1689185426.563,-9.277,-18.066,-25.879,28.809,-84.961
1689185426.567,21.484,-9.766,-23.438,34.668,-107.910
1689185426.571,24.414,-7.812,-25.879,13.672,-207.520
1689185426.575,-4.395,-12.207,-21.484,20.508,-216.309
1689185426.579,-17.578,-18.555,-18.555,35.645,-49.805
1689185426.583,-3.906,-13.672,-22.461,14.160,43.945
1689185426.586,4.395,-3.906,-27.344,0.000,-18.066
1689185426.590,-7.324,-7.324,-26.855,-20.020,-102.539
1689185426.594,-11.719,-9.277,-31.738,-18.066,134.277
1689185426.598,12.695,-2.441,-39.551,-8.789,297.852
1689185426.602,19.043,0.977,-38.086,0.488,-15.137
1689185426.604,4.883,-6.836,-39.062,-12.695,-77.637
1689185426.608,-18.555,-8.789,-38.574,-32.227,-89.355
1689185426.612,-41.504,-7.324,-39.062,-23.926,-145.996
1689185426.616,-29.785,-12.207,-43.945,-30.273,-200.684
1689185426.620,-17.090,-15.625,-40.527,-13.184,-74.219
1689185426.624,-26.367,-15.625,-33.203,-12.695,81.055
1689185426.628,-43.945,-16.113,-34.668,-37.598,-38.086
1689185426.631,-34.180,-12.695,-34.180,-36.621,-138.184
1689185426.635,-23.438,-8.301,-32.227,-4.395,-57.617
1689185426.639,-17.090,-11.230,-35.645,3.418,181.641
1689185426.643,-14.648,-11.719,-37.109,-24.902,73.730
1689185426.647,-30.273,-9.766,-28.320,-27.832,-58.594
1689185426.649,-50.293,-10.254,-26.855,-52.734,70.801
1689185426.653,-43.457,-17.578,-28.809,-53.223,186.523
1689185426.657,-24.414,-20.996,-25.879,-29.785,-29.785
1689185426.661,-27.344,-19.043,-32.227,-26.367,-172.363
1689185426.665,-25.391,-32.715,-23.438,-29.785,-118.164
1689185426.669,-8.789,-33.203,-17.578,-26.855,-95.703
1689185426.673,-6.348,-3.906,-34.668,-21.484,-80.566
1689185426.676,-15.625,4.395,-42.480,-22.949,-144.043
1689185426.680,-16.602,0.000,-47.852,-16.113,100.586
1689185426.684,3.906,15.137,-62.012,-22.949,209.473
1689185426.688,10.254,27.344,-66.406,-29.297,-165.527
1689185426.692,-18.066,30.762,-75.684,-36.621,-189.941
1689185426.694,-20.020,34.668,-83.496,-26.367,-12.207
1689185426.698,-9.766,40.039,-83.984,-29.785,33.691
1689185426.702,-17.090,44.434,-88.867,-73.242,-108.398
1689185426.706,-19.531,46.875,-94.238,-91.797,-124.512
1689185426.710,-13.672,47.363,-94.727,-50.293,48.340
1689185426.714,10.254,42.969,-89.355,-21.484,65.430
1689185426.718,29.297,39.062,-85.938,-32.227,0.977
1689185426.721,-8.301,28.809,-79.590,-57.617,62.988
1689185426.725,-28.809,23.438,-76.172,-81.543,137.695
1689185426.729,-36.621,20.508,-78.125,-61.035,-37.109
1689185426.733,-22.949,11.719,-79.590,-26.855,-106.445
1689185426.737,-8.301,8.789,-74.219,-10.254,114.258
1689185426.739,-22.949,12.207,-68.359,-31.250,136.719
1689185426.743,-42.969,10.254,-66.406,-64.453,-167.969
1689185426.747,-42.969,6.836,-60.547,-52.246,-239.746
1689185426.751,-12.695,3.906,-55.664,-43.945,8.301
1689185426.755,-23.926,1.465,-53.711,-48.828,-5.371
1689185426.759,-38.574,-0.488,-51.758,-52.246,-84.473
1689185426.763,-22.461,-7.324,-47.363,-50.293,-106.445
1689185426.766,-7.324,-8.301,-45.410,-55.176,26.367
1689185426.770,-22.461,-5.859,-39.062,-49.805,213.867
1689185426.774,-37.109,-5.859,-33.203,-17.090,-25.391
1689185426.778,-23.438,-2.441,-22.461,-17.090,-159.668
1689185426.782,-30.273,-2.930,-27.832,-35.645,-165.039
1689185426.784,-33.203,-18.555,-47.852,-45.898,-147.949
1689185426.788,1.953,-13.184,-53.711,-29.785,-159.180
1689185426.792,18.066,-9.277,-54.688,-11.230,-97.656
1689185426.796,-13.672,-19.043,-41.504,-29.785,-34.180
1689185426.800,-51.270,-25.879,-45.410,-41.992,-65.918
1689185426.804,-41.016,-15.625,-41.016,-32.715,-21.484
1689185426.808,-36.133,-0.488,-10.254,-27.832,12.207
1689185426.811,-50.781,10.254,-18.066,-28.320,383.301
1689185426.815,-46.387,35.645,-27.344,-18.066,325.195
1689185426.819,-41.992,23.438,-7.324,-33.691,-214.844
1689185426.823,-26.367,16.602,36.621,-40.527,-128.418
1689185426.827,-27.344,-25.879,-12.207,-20.508,34.180
1689185426.829,-39.551,-82.520,-94.238,-49.316,-77.148
1689185426.833,-22.461,-46.875,-63.477,-60.059,-119.629
1689185426.837,-42.969,-23.438,-20.020,-56.152,-94.238
1689185426.841,-49.316,-3.418,38.574,-60.059,-109.863
1689185426.845,-35.156,45.898,137.207,-48.340,-139.648
1689185426.849,-52.246,65.430,189.941,-38.574,-46.875
1689185426.853,-47.852,76.660,251.465,-54.199,231.445
1689185426.856,-44.434,123.047,375.488,-65.918,267.090
1689185426.860,-66.406,183.594,518.066,-81.055,-91.797
1689185426.864,-76.660,231.445,680.176,-70.312,-161.133
1689185426.868,-58.594,236.816,789.062,-59.082,-8.301
1689185426.872,-68.848,265.137,902.832,-67.383,-34.668
1689185426.874,-71.289,323.730,971.191,-61.523,-141.602
1689185426.878,-69.336,378.906,965.332,-70.801,-144.531
1689185426.882,-111.328,429.199,966.797,-93.262,-116.699
1689185426.886,-126.953,460.449,967.773,-98.145,-91.309
1689185426.890,-133.789,491.699,967.773,-126.953,-124.512
1689185426.894,-135.742,528.320,967.773,-157.227,27.832
1689185426.898,-145.996,541.992,967.773,-182.617,264.160
1689185426.901,-191.406,546.875,967.285,-196.289,71.777
1689185426.905,-191.406,555.664,967.773,-184.082,-108.887
1689185426.909,-164.551,550.781,967.773,-170.410,20.508
1689185426.913,-164.062,528.320,967.773,-196.289,154.297
1689185426.917,-169.922,495.605,967.773,-236.328,11.719
1689185426.949,-155.762,470.215,967.773,-242.188,-117.676
1689185426.953,-139.160,446.289,962.402,-200.195,53.223
1689185426.957,-136.719,400.391,974.609,-187.988,253.418
1689185426.961,-129.395,349.609,907.715,-205.078,-48.828
1689185426.965,-125.000,305.176,730.957,-187.012,-219.238
1689185426.969,-134.277,255.371,571.289,-187.012,-80.078
1689185426.973,-117.676,211.914,410.645,-168.945,29.297
1689185426.976,-57.129,171.875,251.465,-131.836,-46.875
1689185426.980,-49.316,132.324,90.332,-116.699,-187.988
1689185426.984,-83.008,89.844,-82.520,-141.602,51.270
1689185426.988,-85.449,51.758,-245.605,-146.484,60.547
1689185426.992,-38.574,20.020,-407.227,-80.078,-189.453
1689185426.979,-11.719,-23.438,-567.871,-54.199,-25.391
1689185426.983,-35.156,-71.289,-706.055,-75.684,61.523
1689185426.987,-52.246,-104.492,-812.500,-75.684,-111.328
1689185426.991,-49.805,-137.207,-899.902,-83.984,-218.262
1689185426.995,-34.180,-173.340,-958.496,-83.496,-149.902
1689185426.999,0.488,-178.223,-963.867,-58.105,23.438
1689185427.003,-10.742,-181.641,-963.379,-48.828,33.203
1689185427.006,-20.020,-192.383,-949.219,-55.664,-94.727
1689185427.010,-4.395,-202.148,-914.062,-60.547,-42.480
1689185427.014,7.812,-215.820,-885.742,-24.414,42.480
1689185427.018,3.418,-206.055,-844.727,-5.371,9.766
1689185427.022,-22.949,-199.219,-796.387,-19.531,-30.273
1689185427.024,-36.133,-211.914,-754.883,-38.086,24.902
1689185427.028,-14.648,-204.590,-695.801,-37.109,369.629
1689185427.032,10.254,-199.707,-658.691,-44.922,252.930
1689185427.036,-7.812,-211.426,-634.766,-33.203,-64.941
1689185427.040,-19.531,-208.008,-587.402,-12.207,51.270
1689185427.044,-25.391,-198.242,-541.992,-36.133,49.805
1689185427.048,-27.344,-182.617,-516.602,-57.129,-78.613
1689185427.051,-33.691,-160.645,-494.629,-46.387,-171.387
1689185427.055,-23.926,-139.648,-446.289,-29.297,94.727
1689185427.059,-13.184,-121.094,-395.996,-33.203,186.035
1689185427.063,-28.809,-124.512,-381.348,-29.785,-125.977
1689185427.067,-20.020,-126.953,-356.445,-20.996,-131.348
1689185427.069,-20.020,-121.582,-326.172,-38.574,-116.699
1689185427.073,-30.273,-99.609,-301.758,-42.480,-112.793
1689185427.077,-36.133,-77.148,-276.855,-28.320,-108.398
1689185427.081,-49.805,-78.125,-258.301,-51.758,-116.211
1689185427.085,-53.223,-73.242,-236.328,-78.613,-75.195
1689185427.089,-32.227,-60.547,-216.797,-72.754,-18.555
1689185427.093,-31.738,-56.641,-200.684,-37.109,15.137
1689185427.096,-30.762,-35.645,-174.805,-9.766,61.035
1689185427.100,-29.297,-28.809,-150.879,-25.391,341.309
1689185427.104,-36.133,-43.457,-160.645,-36.621,208.496
1689185427.108,-39.062,-50.293,-183.594,-21.973,-194.336
1689185427.112,-38.574,-50.293,-179.688,-35.156,4.883
1689185427.114,-57.617,-45.410,-166.504,-68.359,118.652
1689185427.118,-66.406,-41.504,-144.043,-66.406,-121.582
1689185427.122,-60.059,-32.715,-127.441,-61.035,-190.430
1689185427.126,-68.359,-25.879,-120.605,-54.199,-139.160
1689185427.130,-51.758,-28.320,-109.863,-29.785,-100.098
1689185427.134,-30.273,-30.762,-99.121,-14.648,-71.289
1689185427.138,-62.988,-25.391,-89.844,-17.090,-17.090
1689185427.141,-102.539,-24.902,-74.219,-44.922,207.520
1689185427.145,-83.984,-23.926,-69.336,-62.500,203.125
1689185427.149,-73.242,-21.973,-74.707,-64.453,-170.410
1689185427.153,-57.617,-17.578,-75.684,-32.227,-200.195
1689185427.157,-43.457,-12.695,-70.801,-19.531,-71.777
1689185427.159,-55.176,-10.742,-66.406,-23.926,-127.930
1689185427.163,-60.059,-13.672,-70.312,-47.852,-223.145
1689185427.167,-47.363,-15.137,-73.242,-58.105,-129.883
1689185427.171,-37.598,-15.625,-69.824,-41.504,7.812
1689185427.175,-25.879,-19.043,-66.895,-46.387,-13.184
1689185427.179,-32.715,-23.926,-64.453,-44.434,-49.805
1689185427.183,-54.199,-25.879,-67.383,-36.621,83.008
1689185427.186,-64.453,-23.926,-67.871,-49.316,274.902
1689185427.190,-69.824,-20.020,-64.941,-49.805,67.383
1689185427.194,-56.152,-26.855,-66.895,-24.902,-150.879
1689185427.198,-47.852,-38.086,-64.453,-24.902,59.570
1689185427.202,-60.547,-24.414,-65.430,-46.875,108.887
1689185427.204,-49.316,-16.113,-72.266,-57.617,-122.070
1689185427.208,-21.484,-21.973,-79.102,-35.156,-178.223
1689185427.212,-43.945,-27.344,-81.543,-23.438,67.383
1689185427.216,-72.266,-20.020,-78.613,-52.246,122.559
1689185427.220,-93.262,-4.883,-92.773,-113.281,-140.625
1689185427.224,-115.234,-3.906,-100.586,-122.070,-202.148
1689185427.228,-95.703,-0.977,-100.586,-90.332,158.691
1689185427.231,-72.266,-2.441,-98.145,-89.844,311.523
1689185427.235,-85.938,-9.766,-92.285,-117.188,-104.004
1689185427.239,-103.516,-16.113,-88.867,-138.672,-200.195
1689185427.243,-108.887,-22.461,-87.891,-118.652,-125.000
1689185427.247,-108.398,-22.461,-80.566,-61.035,-146.973
1689185427.250,-105.957,-25.391,-72.266,-68.359,-192.383
1689185427.254,-104.492,-45.410,-75.195,-111.816,-51.270
1689185427.258,-96.191,-50.293,-73.730,-113.770,59.570
1689185427.262,-81.055,-43.945,-75.684,-102.539,-66.895
1689185427.266,-43.457,-39.551,-74.707,-84.961,-69.824
1689185427.270,-40.039,-42.480,-72.754,-63.965,121.094
1689185427.274,-64.453,-33.691,-75.195,-47.363,235.352
1689185427.277,-41.992,-25.879,-74.219,-55.664,17.578
1689185427.281,-27.344,-32.715,-68.359,-65.430,-213.867
1689185427.285,-51.758,-36.621,-62.500,-37.109,-22.949
1689185427.289,-33.691,-39.551,-62.012,-34.180,196.777
1689185427.293,-45.898,-44.434,-62.500,-75.684,-11.230
1689185427.309,-79.590,-41.016,-58.105,-77.637,-187.012
1689185427.313,-52.246,-38.574,-57.617,-57.129,66.895
1689185427.317,-48.828,-37.109,-64.453,-61.035,162.598
1689185427.321,-27.344,-35.645,-65.918,-58.594,-40.039
1689185427.325,-32.715,-39.551,-59.082,-52.734,-49.805
1689185427.329,-83.008,-44.434,-51.270,-74.707,187.988
1689185427.333,-83.496,-40.039,-51.758,-77.148,316.895
1689185427.336,-70.312,-32.227,-57.129,-52.734,-44.434
1689185427.340,-39.062,-29.785,-56.152,-36.621,-215.332
1689185427.344,-42.969,-32.715,-51.270,-50.781,70.312
1689185427.348,-68.848,-38.574,-47.852,-70.801,142.090
1689185427.352,-76.172,-40.039,-39.551,-65.918,-134.277
1689185427.354,-85.938,-35.645,-38.086,-61.523,-157.227
1689185427.358,-51.270,-36.133,-41.992,-74.707,-106.445
1689185427.362,-51.758,-36.133,-45.410,-68.359,-170.898
