timestamps,TP9,AF7,AF8,TP10,Right AUX
1689188056.568,-32.715,-67.383,-47.852,-42.969,-85.449
1689188056.572,-46.875,-51.758,-39.062,-33.203,-163.574
1689188056.576,8.301,-50.293,-38.574,-24.414,-152.832
1689188056.580,14.648,-55.176,-28.320,-14.648,-85.449
1689188056.584,-56.152,-67.871,-18.066,-12.695,-80.078
1689188056.588,-42.969,-54.688,-18.066,-10.254,-72.754
1689188056.592,-23.438,-43.457,-23.438,-13.672,223.145
1689188056.595,-28.809,-47.852,-24.414,-11.719,342.773
1689188056.599,-18.066,-40.039,-26.855,-0.488,-51.758
1689188056.603,-16.602,-27.832,-29.785,9.766,-188.477
1689188056.607,-15.137,-26.367,-32.715,25.879,-82.031
1689188056.611,-24.414,-29.785,-40.039,-18.555,-102.539
1689188056.615,-37.598,-27.832,-43.945,-53.711,-205.566
1689188056.619,-23.438,-27.344,-49.316,-4.883,-160.156
1689188056.623,1.953,-24.414,-55.664,21.484,31.738
1689188056.627,7.812,-16.602,-56.641,9.766,-19.043
1689188056.631,-16.113,-18.066,-62.012,-39.551,-188.477
1689188056.635,-35.156,-33.691,-66.895,-60.059,-13.672
1689188056.639,-36.621,-29.785,-60.059,-34.180,208.008
1689188056.642,-30.762,-24.414,-52.246,-31.738,37.109
1689188056.646,-42.969,-20.996,-52.246,-29.297,-119.141
1689188056.650,-62.500,-17.578,-50.293,-24.902,-38.574
1689188056.654,-46.875,-21.484,-60.059,-36.621,-31.250
1689188056.658,-16.113,-21.973,-66.406,-45.410,-158.203
1689188056.659,28.809,-23.438,-57.617,-35.156,-125.488
1689188056.663,-10.254,-17.090,-56.641,-25.391,-0.488
1689188056.667,-59.082,-16.113,-52.246,-35.645,11.230
1689188056.671,-71.289,-22.949,-37.598,-26.367,-94.727
1689188056.675,-35.156,-22.461,-37.598,-13.184,-140.625
1689188056.679,-14.648,-13.672,-53.223,-30.762,233.398
1689188056.683,-43.457,-15.625,-65.430,-67.383,528.320
1689188056.686,-6.836,-32.227,-64.941,-77.637,9.766
1689188056.690,-35.156,-30.273,-55.664,-68.359,-264.648
1689188056.694,-54.199,-34.668,-55.664,-45.410,-176.758
1689188056.698,-43.945,-42.969,-80.078,-50.293,-121.582
1689188056.702,-62.500,-52.246,-97.168,-43.945,-116.211
1689188056.717,-35.645,-57.129,-98.633,-48.340,-116.211
1689188056.721,-52.246,-61.523,-91.309,-59.570,-121.582
1689188056.725,-87.891,-63.477,-81.055,-45.898,-159.668
1689188056.729,-47.852,-47.363,-80.078,-59.082,-132.324
1689188056.733,-7.812,-44.434,-65.430,-23.926,26.367
1689188056.737,-46.875,-43.945,-60.059,-46.875,192.871
1689188056.741,-44.434,-38.574,-70.312,-83.984,4.395
1689188056.744,-27.832,-37.598,-60.547,-51.270,-208.984
1689188056.748,-83.008,-36.621,-50.781,-42.969,-22.461
1689188056.752,-67.383,-51.758,-48.828,-42.480,256.348
1689188056.756,-42.480,-54.199,-34.668,-45.898,-25.879
1689188056.760,-70.801,-52.246,17.090,-54.199,-249.512
1689188056.763,-58.594,-59.570,53.711,-40.527,-142.578
1689188056.767,-23.438,-55.664,61.035,-21.484,-56.152
1689188056.771,-16.113,-53.223,65.430,2.441,-62.012
1689188056.775,-41.504,-50.293,49.805,-6.836,-62.012
1689188056.779,-37.598,-49.316,26.367,-70.312,81.543
1689188056.783,-17.578,-64.453,21.973,-52.246,129.395
1689188056.787,-50.293,-76.660,29.297,0.000,6.348
1689188056.790,-25.879,-69.336,15.625,-16.113,-51.270
1689188056.794,-56.641,-71.777,-4.883,-58.105,205.566
1689188056.798,-128.906,-64.453,-6.836,-57.617,300.781
1689188056.802,-91.309,-59.570,-4.883,-41.016,-146.484
1689188056.806,-22.461,-61.523,-6.836,-41.504,-173.340
1689188056.823,-35.156,-58.594,-20.508,-44.434,-36.133
1689188056.827,-83.496,-52.734,-30.273,-52.246,-100.586
1689188056.831,-86.426,-58.105,-45.410,-75.684,-202.637
1689188056.835,-80.566,-74.707,-72.754,-83.984,-177.246
1689188056.839,-53.711,-76.172,-87.891,-76.660,-62.988
1689188056.843,-36.133,-69.824,-91.797,-75.195,35.645
1689188056.847,-46.875,-61.523,-91.797,-59.570,26.855
1689188056.850,-74.219,-62.012,-91.797,-57.617,1.465
1689188056.854,-61.523,-49.805,-91.797,-64.941,150.879
1689188056.858,-38.086,-51.758,-83.496,-37.109,65.918
1689188056.862,-37.598,-54.688,-79.102,-54.199,-138.184
1689188056.866,2.441,-33.203,-77.637,-40.039,52.734
1689188056.852,-4.395,-35.645,-66.406,-5.371,90.820
1689188056.856,-63.965,-43.945,-77.148,-54.199,-187.988
1689188056.860,-48.828,-43.457,-89.355,-62.988,-208.984
1689188056.864,-22.461,-46.387,-92.773,-27.344,-4.883
1689188056.868,-30.273,-31.738,-98.633,-18.066,7.324
1689188056.872,-41.504,-28.809,-94.238,-12.207,-92.773
1689188056.876,-41.016,-29.297,-92.285,-32.227,-46.875
1689188056.879,-8.301,-12.695,-90.820,-63.477,-31.250
1689188056.883,3.906,-5.371,-90.332,-42.480,-42.480
1689188056.887,-14.160,-8.789,-85.449,-28.320,-80.078
1689188056.891,-11.719,-14.160,-81.055,-28.809,-165.039
1689188056.895,6.348,-4.883,-89.355,-5.859,161.621
1689188056.899,4.883,8.301,-96.191,8.301,282.715
1689188056.903,-10.254,0.977,-92.285,-9.766,-129.395
1689188056.907,-8.301,-2.930,-84.961,-4.883,-124.023
1689188056.911,-18.555,-5.859,-82.031,10.254,-71.289
1689188056.915,-29.297,-20.020,-83.496,-11.230,-207.520
1689188056.919,-24.902,-25.391,-82.520,-23.438,-183.105
1689188056.923,-3.906,-24.902,-77.148,-3.906,85.449
1689188056.926,16.113,-25.879,-63.477,0.000,288.574
1689188056.930,-28.809,-35.156,-59.082,-42.969,20.508
1689188056.934,-70.312,-32.227,-55.176,-41.016,-227.051
1689188056.938,-42.969,-30.273,-56.641,-40.039,-152.344
1689188056.942,-3.418,-53.223,-64.941,-38.574,-104.980
1689188056.944,-17.090,-63.965,-68.359,-29.297,-97.656
1689188056.948,-80.566,-61.035,-84.961,-66.406,-80.566
1689188056.952,-82.520,-62.500,-97.168,-75.195,-2.930
1689188056.956,-23.438,-65.430,-93.750,-56.152,-25.391
1689188056.960,-7.324,-58.594,-89.355,-61.523,-65.430
1689188056.964,-3.906,-37.109,-82.031,-39.551,1.465
1689188056.968,-22.461,-23.926,-70.312,-31.250,343.262
1689188056.971,-39.062,-22.949,-61.035,-36.621,443.359
1689188056.975,-24.414,-13.184,-68.359,-48.828,-47.852
1689188056.979,-21.484,-15.625,-76.172,-46.387,-228.027
1689188056.983,-16.113,-14.648,-74.219,-47.363,-98.145
1689188056.987,-6.348,-7.812,-61.523,-41.016,-85.938
1689188056.989,17.090,-8.301,-44.922,-17.090,-228.027
1689188056.993,-25.391,-3.906,-42.480,-25.391,-152.832
1689188056.997,-28.320,-1.465,-36.621,6.836,29.297
1689188057.001,41.016,10.742,-21.484,21.973,-31.738
1689188057.005,-7.324,12.207,-10.742,-16.113,-91.309
1689188057.009,-74.219,10.254,-9.766,-35.645,48.828
1689188057.013,-37.598,13.672,-6.836,-1.953,356.934
1689188057.016,13.184,13.672,-3.418,12.695,97.656
1689188057.020,26.367,8.789,2.930,13.672,-185.547
1689188057.024,23.926,15.137,4.395,20.996,-23.926
1689188057.028,1.953,27.832,9.277,24.414,-51.758
1689188057.032,25.879,24.902,15.625,34.180,-236.816
1689188057.063,58.594,20.508,14.648,44.434,-215.332
1689188057.067,61.035,26.855,14.160,55.664,-83.984
1689188057.071,41.992,29.297,13.672,71.289,-45.898
1689188057.075,22.461,26.855,14.160,72.754,-52.734
1689188057.079,49.805,27.832,15.625,74.219,-124.512
1689188057.083,46.875,31.250,19.043,93.262,153.320
1689188057.087,41.504,39.062,19.531,87.402,487.793
1689188057.090,49.805,51.758,26.367,87.402,166.504
1689188057.094,29.785,50.293,34.180,93.262,-112.305
1689188057.098,23.438,42.480,29.785,94.238,-36.621
1689188057.102,34.668,49.316,18.066,98.633,-68.848
1689188057.106,55.664,47.852,13.184,78.613,-208.496
1689188057.092,49.316,45.898,28.320,78.613,-130.859
1689188057.096,39.551,44.922,32.715,62.012,-62.988
1689188057.100,25.879,33.691,34.668,60.547,-148.926
1689188057.104,5.371,38.574,46.875,104.980,-235.352
1689188057.108,53.711,40.039,55.176,111.816,-99.609
1689188057.112,83.008,20.508,65.918,92.285,112.793
1689188057.116,13.672,16.113,72.266,64.453,45.410
1689188057.119,-17.090,32.715,71.777,60.547,-107.910
1689188057.123,-5.859,31.250,64.941,94.238,-25.391
1689188057.127,19.531,14.160,61.035,86.914,116.699
1689188057.131,91.797,16.602,50.293,64.453,26.855
1689188057.135,50.781,23.438,29.297,60.547,-87.402
1689188057.138,-13.184,18.555,18.066,62.012,42.480
1689188057.142,22.461,25.391,14.160,79.102,333.008
1689188057.146,20.020,20.508,9.277,89.355,130.859
1689188057.150,14.648,14.160,18.555,83.496,-158.203
1689188057.154,28.320,22.461,23.926,68.359,51.758
1689188057.158,19.531,21.973,12.207,48.340,58.105
1689188057.162,15.625,28.320,23.926,61.035,-167.969
1689188057.165,39.551,35.645,108.887,66.895,-194.336
1689188057.169,73.242,35.156,187.988,76.172,118.652
1689188057.173,56.641,30.273,201.660,81.543,212.891
1689188057.177,-8.789,33.203,191.406,29.785,-197.266
1689188057.181,12.695,37.598,189.453,29.785,-180.664
1689188057.182,43.457,32.715,191.895,37.109,0.488
1689188057.186,58.105,36.621,183.105,26.367,-38.086
1689188057.190,78.613,33.691,177.246,64.453,-122.559
1689188057.194,0.488,22.461,162.109,77.148,-119.141
1689188057.198,-29.297,4.883,133.301,8.301,-59.570
1689188057.202,-7.324,-6.836,119.629,-19.043,-93.750
1689188057.206,-4.395,-1.465,102.539,0.488,-37.109
1689188057.209,3.906,-0.977,85.449,7.324,152.832
1689188057.213,23.926,-7.812,75.684,-8.789,293.457
1689188057.217,32.227,0.488,69.824,-0.977,-21.484
1689188057.221,-1.465,4.395,74.707,13.672,-286.133
1689188057.225,-36.621,-6.348,61.523,7.324,-128.906
1689188057.229,-20.020,-12.207,49.805,-6.836,-63.477
1689188057.233,-32.227,-17.578,39.551,-18.066,-153.320
1689188057.237,-46.875,-10.742,18.066,-14.160,-172.852
1689188057.241,-5.371,-16.113,18.555,-12.695,94.727
1689188057.245,15.625,-26.367,21.484,-16.113,207.031
1689188057.249,0.000,-21.973,15.625,-36.133,66.406
1689188057.253,-44.922,-18.555,11.230,-30.273,-46.875
1689188057.256,-70.801,-18.066,4.883,-31.738,44.434
1689188057.260,-49.805,-18.555,6.836,-18.066,83.496
1689188057.264,-16.602,-21.484,12.695,13.184,-163.574
1689188057.268,-10.254,-18.555,9.766,-6.348,-141.602
1689188057.272,-9.766,-6.836,9.277,-26.855,-94.238
1689188057.274,-11.719,0.000,8.301,-27.344,-132.324
1689188057.278,-4.395,-6.348,9.766,-15.625,-175.781
1689188057.282,-17.578,-5.859,9.277,-2.930,-70.312
1689188057.286,9.766,4.883,11.719,-6.836,57.617
1689188057.290,35.645,8.301,14.648,-26.367,18.555
1689188057.294,-29.297,-0.977,11.230,-8.789,-8.789
1689188057.298,-45.898,-6.836,13.672,16.113,66.406
1689188057.301,-30.273,-3.418,15.625,-4.883,358.398
1689188057.305,-6.836,-1.465,16.113,-26.367,176.758
1689188057.309,18.066,1.465,27.344,3.418,-204.102
1689188057.313,2.930,5.859,27.832,19.531,-136.719
1689188057.317,6.836,13.672,25.391,8.789,-129.883
1689188057.318,44.922,5.859,29.297,16.602,-167.969
1689188057.322,60.059,-1.465,26.367,15.137,-98.145
1689188057.326,31.738,3.418,22.949,4.883,-33.203
1689188057.330,-28.809,-1.465,22.949,1.465,-91.797
1689188057.334,-37.109,-3.418,29.785,0.977,-189.941
1689188057.338,2.930,-3.906,29.785,15.137,-169.434
1689188057.342,30.273,-0.488,28.809,44.922,165.527
1689188057.345,17.090,-3.906,18.555,28.320,557.129
1689188057.349,6.348,-6.836,0.488,-6.836,172.363
1689188057.353,21.484,0.488,-7.324,-5.859,-237.793
1689188057.357,35.156,2.441,-5.371,1.953,-156.250
1689188057.361,17.578,-2.930,-3.418,15.137,-73.242
1689188057.364,5.859,-1.465,-7.324,15.137,-114.258
1689188057.368,0.488,2.441,-15.137,9.277,-138.184
1689188057.372,-11.719,-16.113,-31.738,13.672,-131.348
1689188057.376,-5.859,-20.508,-37.598,-4.883,-164.062
1689188057.380,8.301,-10.742,-31.738,-17.578,-137.207
1689188057.384,22.949,-3.906,-33.203,-10.742,82.520
1689188057.388,6.348,-3.418,-25.879,-6.348,196.289
1689188057.391,-14.648,-8.301,-23.438,-5.859,-112.793
1689188057.395,13.672,-14.160,-33.203,-5.859,-252.930
1689188057.399,5.859,-23.926,-25.391,-0.977,-8.301
1689188057.403,-17.090,-12.695,-20.996,-1.465,106.445
1689188057.407,-15.137,-5.371,-21.484,3.906,-58.594
1689188057.422,-19.043,-13.672,-23.438,-0.488,-184.082
1689188057.426,-18.066,-14.648,-36.133,2.441,-16.602
1689188057.430,2.930,-24.414,-43.457,6.348,158.691
1689188057.434,14.648,-28.320,-35.156,6.348,21.973
1689188057.438,-0.977,-34.180,-24.902,-7.812,-61.035
1689188057.442,-37.109,-35.156,-24.902,-46.387,132.324
1689188057.446,-51.270,-27.832,-31.250,-32.715,317.871
1689188057.449,5.371,-21.484,-23.926,8.789,-53.223
1689188057.453,33.691,-19.531,-17.090,26.855,-138.672
1689188057.457,11.230,-16.113,-23.438,17.090,-31.250
1689188057.461,-28.320,-21.484,-28.320,-15.625,-107.422
1689188057.465,-38.086,-34.668,-35.645,-20.508,-224.609
1689188057.456,1.953,-30.273,-47.363,9.766,-115.234
1689188057.460,-3.906,-27.344,-62.988,-4.395,65.918
1689188057.464,-12.207,-29.785,-73.730,-16.602,-42.969
1689188057.468,-20.996,-28.809,-70.801,-9.277,-173.828
1689188057.472,-20.020,-35.645,-79.102,-10.254,-137.207
1689188057.476,16.602,-32.715,-81.055,2.441,12.695
1689188057.480,8.789,-17.578,-83.984,-21.973,99.609
1689188057.483,-40.039,-12.207,-90.820,-35.156,-10.742
1689188057.487,-51.758,-6.348,-97.168,-14.160,29.785
1689188057.491,-29.297,-2.930,-102.051,-9.277,167.480
1689188057.495,-1.953,-13.184,-98.633,0.977,-74.219
1689188057.499,9.766,-17.578,-107.910,7.812,-125.488
1689188057.512,5.371,-19.531,-120.117,9.277,-34.180
1689188057.516,-13.672,-11.230,-124.512,-3.418,-127.441
1689188057.520,-23.438,-0.488,-107.422,-18.066,-158.691
1689188057.524,2.441,-12.695,-75.684,11.719,-52.246
1689188057.528,12.207,-25.391,-49.805,27.344,236.816
1689188057.532,22.949,-17.578,-22.949,-3.418,377.441
1689188057.536,-4.883,-13.672,-14.648,-20.996,19.043
1689188057.539,-53.711,-20.020,-10.254,-22.461,-218.750
1689188057.543,-17.578,-9.277,4.883,-13.672,19.043
1689188057.547,2.441,-10.254,20.020,7.812,58.594
1689188057.551,7.812,-16.113,23.926,-7.324,-196.289
1689188057.555,-11.230,-11.719,20.508,-23.926,-178.223
1689188057.559,-37.598,-24.414,20.508,-12.207,-133.789
1689188057.563,-7.812,-22.949,19.043,-4.395,-156.250
1689188057.567,-7.324,-6.836,7.812,-7.324,-151.855
1689188057.571,-6.348,-3.418,5.371,-19.043,-69.824
1689188057.575,0.977,-8.789,-0.977,-24.414,-54.199
1689188057.579,-25.879,-18.066,-19.043,-20.508,-94.238
1689188057.583,-27.344,-11.230,-38.574,-30.273,-54.199
1689188057.586,3.906,-3.906,-49.316,-40.039,85.449
1689188057.590,8.789,-10.742,-35.156,-47.363,346.680
1689188057.594,-45.898,-17.090,-31.250,-71.777,109.863
1689188057.598,-75.684,-20.508,-35.645,-62.500,-227.539
1689188057.602,-22.461,-8.301,-36.621,-21.484,-163.574
1689188057.602,-12.207,-5.859,-42.969,-26.855,-168.457
1689188057.606,-24.902,-20.508,-45.410,-46.875,-176.758
1689188057.610,-20.996,-17.090,-37.598,-34.668,-145.996
1689188057.614,-13.184,-11.719,-41.992,-38.086,5.371
1689188057.618,-16.113,-6.348,-42.969,-29.297,-2.441
1689188057.622,-21.484,-9.277,-48.828,-21.484,-83.008
1689188057.626,-41.992,-35.645,-73.242,-42.480,0.488
1689188057.629,-43.457,-47.852,-65.918,-41.504,270.996
1689188057.633,-55.176,-34.180,-32.227,-55.664,445.801
1689188057.637,-100.098,-28.809,-0.488,-80.078,-24.902
1689188057.641,-58.105,-32.227,14.160,-79.590,-218.262
1689188057.645,-9.277,-33.203,12.695,-56.641,-48.828
1689188057.649,-13.184,-29.785,12.695,-45.410,-77.637
1689188057.653,-56.641,-36.133,9.766,-50.293,-187.988
1689188057.657,-57.617,-40.039,10.254,-51.758,-187.988
1689188057.661,-18.555,-22.949,14.648,-48.340,-99.609
1689188057.665,-15.137,-19.043,18.555,-37.598,-81.543
1689188057.669,-36.133,-30.762,11.230,-27.832,-73.730
1689188057.673,-43.457,-48.340,-5.371,-37.109,100.098
1689188057.676,-51.270,-56.641,-14.160,-38.574,230.957
1689188057.680,-28.809,-43.457,-10.254,-29.297,-56.152
1689188057.684,-31.250,-37.598,-0.977,-28.809,-217.285
1689188057.688,-46.875,-35.156,-0.488,-58.594,40.039
1689188057.692,-21.484,-29.785,-4.883,-64.453,79.590
1689188057.692,-41.016,-27.832,-14.648,-52.246,-114.258
1689188057.696,-58.105,-36.621,-18.066,-42.480,-124.023
1689188057.700,-51.270,-41.504,-12.695,-21.973,-23.438
1689188057.704,-48.828,-36.621,-23.926,-23.438,53.223
1689188057.708,-44.434,-30.762,-29.785,-46.387,-19.531
1689188057.712,-32.227,-23.438,-35.156,-34.180,-96.191
1689188057.716,-20.020,-20.020,-48.340,-21.973,197.266
1689188057.719,-34.180,-29.785,-46.875,-20.996,416.992
1689188057.723,-10.742,-27.832,-36.621,-6.836,6.836
1689188057.727,7.812,-19.531,-38.086,-8.789,-204.590
1689188057.731,8.789,-17.090,-38.086,-16.113,-135.254
1689188057.735,-5.859,-14.648,-35.156,0.977,-158.691
1689188057.741,-26.855,-18.066,-35.156,1.465,-91.797
1689188057.745,-28.809,-21.484,-36.621,-13.184,59.082
1689188057.749,-41.504,-19.043,-41.992,-41.016,40.527
1689188057.753,-42.480,-14.648,-39.062,-43.457,-138.184
1689188057.757,-13.672,2.930,-32.715,-8.789,-241.211
1689188057.761,7.812,6.348,-26.855,-3.906,-66.895
1689188057.765,20.996,6.348,-32.715,-6.348,130.859
1689188057.768,37.598,11.230,-45.410,-19.043,-34.180
1689188057.772,-18.066,7.812,-48.828,-34.180,-231.445
1689188057.776,-18.555,-3.418,-46.387,-23.926,-57.617
1689188057.780,-2.930,-10.254,-46.387,-2.441,107.910
1689188057.784,-22.949,-11.719,-45.410,-4.395,-93.750
1689188057.797,-21.973,-16.113,-50.781,-9.766,-106.934
1689188057.801,-24.414,-22.461,-62.988,-19.043,-60.547
1689188057.805,-23.926,-30.762,-73.242,-33.203,-71.289
1689188057.809,-18.555,-39.551,-78.125,-41.992,5.859
1689188057.813,24.902,-41.504,-73.242,-31.250,90.820
1689188057.817,23.926,-25.879,-72.754,-9.766,328.613
1689188057.821,-40.527,-16.602,-73.242,-12.695,515.137
1689188057.824,-36.621,-18.066,-64.453,-32.715,20.020
1689188057.828,-12.695,-18.555,-63.965,-15.625,-285.645
1689188057.832,-34.668,-17.578,-76.172,-11.719,-100.586
1689188057.836,-18.066,-28.320,-73.242,-38.086,-80.078
1689188057.840,-33.691,-33.691,-72.754,-24.414,-208.984
1689188057.842,-44.434,-31.250,-80.566,-12.207,-222.656
1689188057.846,18.555,-16.113,-75.195,-21.484,-125.488
1689188057.850,47.363,10.742,-58.105,-27.344,-105.957
1689188057.854,-13.184,-7.812,-38.574,-14.160,-121.094
1689188057.858,-80.566,-31.250,-32.227,-10.742,-116.699
1689188057.862,-95.703,-25.391,-32.227,-59.082,-23.438
1689188057.866,-51.758,-23.926,-21.484,-57.129,59.082
1689188057.869,-31.250,-27.344,-24.902,-28.809,39.062
1689188057.873,-30.762,-33.203,-40.527,-59.082,75.684
1689188057.877,-52.246,-35.645,-31.250,-77.148,287.598
1689188057.881,-14.648,-22.949,-26.367,-62.500,65.430
1689188057.885,4.395,-16.602,-31.738,-69.824,-235.840
1689188057.888,-40.527,-29.785,-36.133,-36.621,-145.996
1689188057.892,-31.250,-33.691,-37.598,7.812,-96.680
1689188057.896,-24.902,-41.016,-44.922,-34.668,-154.297
1689188057.900,-28.320,-38.086,-54.199,-70.801,-119.629
1689188057.904,1.953,-27.344,-50.293,-40.039,141.113
1689188057.908,-6.348,-25.391,-58.594,-24.414,256.836
1689188057.912,-55.664,-42.480,-65.918,-45.410,123.047
1689188057.915,-76.660,-47.852,-62.988,-46.387,-40.039
1689188057.919,-57.129,-40.039,-65.918,-45.410,104.980
1689188057.923,-18.066,-45.898,-68.359,-56.641,197.266
1689188057.927,-29.297,-49.316,-61.523,-48.340,-113.281
1689188057.931,-44.434,-51.758,-51.758,-42.480,-113.770
1689188057.934,-41.992,-57.129,-54.199,-61.035,-85.938
1689188057.938,-57.617,-60.547,-66.406,-62.988,-181.641
1689188057.942,-62.500,-62.012,-79.590,-63.477,-245.117
1689188057.946,-16.602,-55.176,-91.309,-62.012,-148.438
1689188057.950,-11.719,-55.176,-93.262,-51.270,22.949
1689188057.954,-52.734,-59.082,-93.262,-50.781,12.695
1689188057.958,-52.246,-52.246,-103.027,-52.734,-70.312
1689188057.961,-23.926,-37.109,-113.281,-38.086,2.441
1689188057.965,-18.066,-26.367,-120.605,-34.180,197.266
1689188057.969,-3.906,-32.715,-107.910,-47.363,50.781
1689188057.973,3.418,-30.762,-103.516,-60.547,-48.828
1689188057.977,-32.227,-39.062,-118.652,-54.199,73.242
1689188057.977,-51.758,-50.293,-123.535,-43.457,17.090
1689188057.981,-41.016,-57.617,-121.094,-51.270,-148.438
1689188057.985,-25.879,-61.035,-125.977,-58.594,-164.551
1689188057.989,-66.895,-62.012,-130.859,-71.777,5.371
1689188057.993,-99.609,-60.547,-118.164,-94.727,32.227
1689188057.997,-101.074,-54.199,-105.469,-75.195,4.395
1689188058.001,-19.531,-56.152,-93.750,-48.828,-81.055
1689188058.004,43.945,-50.781,-75.195,-51.758,84.961
1689188058.008,-52.246,-42.969,-72.754,-57.129,285.645
1689188058.012,-97.168,-59.570,-76.660,-81.055,-131.348
1689188058.016,-49.316,-57.617,-72.754,-83.496,-275.391
1689188058.020,-55.664,-47.363,-71.289,-67.383,-186.035
1689188058.026,-57.129,-47.852,-70.312,-62.500,-114.258
1689188058.030,-37.109,-41.016,-64.941,-50.781,-62.988
1689188058.034,-16.113,-34.668,-59.570,-28.320,-140.137
1689188058.038,-2.930,-29.297,-52.246,-32.227,-124.512
1689188058.042,-1.953,-26.855,-50.781,-36.621,-180.176
1689188058.046,-15.137,-26.855,-55.664,-21.484,-194.824
1689188058.050,-15.625,-25.391,-47.852,-18.555,96.680
1689188058.053,-42.969,-22.461,-49.805,-37.598,322.266
1689188058.057,-82.031,-21.484,-59.570,-67.383,-32.715
1689188058.061,-62.012,-32.227,-60.059,-56.152,-231.445
1689188058.065,-25.391,-47.363,-62.500,-42.969,-97.656
1689188058.069,-27.832,-56.641,-60.547,-55.176,-35.156
1689188058.083,-61.035,-57.617,-66.406,-56.152,-117.676
1689188058.087,-32.715,-47.363,-67.871,-59.082,-161.621
1689188058.091,-10.742,-29.297,-61.523,-74.707,-94.238
1689188058.095,-51.758,-35.645,-56.152,-69.336,37.598
1689188058.099,-52.246,-50.781,-34.180,-53.711,101.074
1689188058.103,-58.105,-41.016,-24.414,-47.852,21.484
1689188058.107,-61.035,-32.715,-34.668,-34.180,119.141
1689188058.110,-24.902,-35.645,-41.504,-23.926,377.930
1689188058.114,1.465,-36.621,-36.133,-20.020,81.055
1689188058.118,-7.812,-28.809,-37.598,-27.832,-229.004
1689188058.122,-20.020,-34.668,-39.551,-43.457,-181.641
1689188058.126,-41.016,-42.969,-41.504,-46.875,-243.164
1689188058.115,-22.949,-36.133,-42.969,-30.273,-260.742
1689188058.119,1.953,-31.738,-46.875,-21.484,-192.871
1689188058.123,-7.324,-35.156,-58.105,-32.227,-128.418
1689188058.127,-42.969,-50.781,-64.453,-33.203,-164.062
1689188058.131,-78.125,-55.664,-62.988,-48.828,-202.148
1689188058.135,-73.730,-49.805,-54.199,-83.984,-22.461
1689188058.139,-38.086,-62.988,-47.852,-81.543,99.609
1689188058.142,-30.273,-61.523,-48.828,-55.176,22.949
1689188058.146,-55.664,-50.781,-60.547,-70.801,-65.430
1689188058.150,-56.152,-48.828,-64.453,-65.430,-29.297
1689188058.154,-62.012,-51.758,-56.641,-82.031,289.062
1689188058.158,-40.527,-58.105,-62.988,-84.961,98.145
1689188058.173,-26.855,-58.594,-63.965,-47.852,-141.113
1689188058.177,-60.547,-62.500,-62.500,-37.598,-52.246
1689188058.181,-63.965,-71.289,-65.918,-51.758,-152.832
1689188058.185,-80.078,-71.289,-69.336,-78.613,-239.746
1689188058.189,-68.359,-59.082,-73.242,-69.824,-209.961
1689188058.193,-11.719,-55.176,-66.406,-32.227,177.246
1689188058.197,-45.410,-56.641,-54.688,-48.828,491.211
1689188058.200,-84.473,-52.246,-48.828,-75.684,-1.953
1689188058.204,-50.781,-49.805,-36.621,-31.250,-209.473
1689188058.208,-38.574,-47.852,-30.273,-23.926,11.719
1689188058.212,-21.484,-48.828,-32.227,-41.016,-12.695
1689188058.216,12.695,-46.875,-33.203,-34.180,-155.273
1689188058.218,-20.508,-45.410,-40.039,-50.781,-187.500
1689188058.222,-53.711,-35.645,-32.715,-55.176,-170.898
1689188058.226,-20.508,-24.902,-20.020,-8.301,-210.938
1689188058.230,-13.672,-23.926,-28.320,-16.113,-166.504
1689188058.234,-6.348,-11.230,-23.926,-25.879,-22.461
1689188058.238,28.320,-9.277,-10.742,0.488,-8.301
1689188058.242,-31.738,-24.414,-7.324,-26.855,-86.426
1689188058.245,-66.895,-20.020,-11.230,-28.809,-136.230
1689188058.249,4.395,-19.531,-13.672,-7.324,-16.602
1689188058.253,13.672,-22.461,-9.277,-22.461,79.102
1689188058.257,-31.738,-25.391,-15.137,-27.344,-58.594
1689188058.261,-32.227,-24.902,-25.879,-39.551,-154.785
1689188058.262,-27.832,-21.973,-20.996,-36.133,5.371
1689188058.266,-10.254,-20.508,-6.348,15.137,295.410
1689188058.270,3.906,-15.625,-4.883,25.879,100.586
1689188058.274,-22.461,-8.789,-17.090,5.859,-110.840
1689188058.278,-1.953,0.000,-13.184,-3.906,96.191
1689188058.282,-8.301,-17.578,-20.020,-20.996,120.117
1689188058.286,-18.555,-32.227,-22.949,-9.766,5.859
1689188058.289,29.297,-38.086,-9.766,7.812,-15.137
1689188058.293,7.812,-25.879,-3.906,-8.789,154.297
1689188058.297,-26.855,-13.184,0.977,-0.488,177.734
1689188058.301,-29.785,-30.762,6.836,-25.391,-215.332
1689188058.305,-12.695,-19.043,18.555,-37.109,-171.875
1689188058.310,5.371,-10.742,23.926,-26.367,-50.781
1689188058.314,-29.785,-20.508,43.457,-30.762,-49.805
1689188058.318,-71.289,-29.785,73.242,-26.855,-125.488
1689188058.322,-67.871,-39.551,82.520,-45.410,-152.344
1689188058.326,-14.160,-34.180,84.961,-48.340,-16.602
1689188058.330,-4.395,-39.062,82.520,-34.668,-35.645
1689188058.334,-17.578,-45.898,85.449,-38.086,-82.031
1689188058.337,-28.809,-35.156,81.055,-40.039,-0.977
1689188058.341,-8.301,-30.762,70.312,-44.922,112.793
1689188058.345,-1.953,-39.062,64.453,-35.156,-99.609
1689188058.349,-21.973,-32.715,63.477,-35.156,-139.648
1689188058.353,-25.391,-32.715,61.035,-44.922,3.906
1689188058.353,-46.387,-35.156,41.992,-38.086,-39.551
1689188058.357,-60.059,-25.391,20.508,-34.668,-98.145
1689188058.361,-22.461,-29.297,3.906,-38.086,-76.660
1689188058.365,6.348,-39.551,-5.859,-55.176,126.953
1689188058.369,-17.090,-39.551,-13.184,-41.504,155.273
1689188058.373,-31.738,-43.945,-14.648,-31.250,16.113
1689188058.377,-44.922,-48.828,-18.066,-44.434,-5.859
1689188058.380,-72.754,-47.363,-24.414,-65.918,148.926
1689188058.384,-46.875,-47.852,-24.414,-48.340,416.992
1689188058.388,-16.602,-45.410,-21.484,-9.766,105.957
1689188058.392,-74.219,-37.598,-24.902,-38.574,-177.734
1689188058.396,-109.863,-49.316,-18.555,-78.613,-119.141
1689188058.399,-47.852,-52.246,-17.090,-65.430,-153.809
1689188058.403,25.391,-49.316,-9.766,-36.621,-137.207
1689188058.407,32.227,-40.039,-6.348,-18.066,-29.297
1689188058.411,-38.086,-25.879,-10.254,-14.160,-39.551
1689188058.415,-28.809,-21.484,14.648,-11.719,-150.391
1689188058.419,22.949,-13.184,20.996,-15.137,-93.750
1689188058.423,-2.930,-19.531,11.719,-12.207,117.188
1689188058.426,-22.461,-29.785,-4.395,-24.902,521.973
1689188058.430,-16.602,-29.785,-17.090,-30.273,309.082
1689188058.434,-25.879,-25.879,-48.828,-32.715,-201.172
1689188058.438,-47.852,-24.414,-99.121,-30.273,-183.594
1689188058.442,-5.371,-31.250,-124.023,-13.184,-79.102
1689188058.442,43.945,-39.551,-124.512,-13.184,-45.410
1689188058.446,-14.160,-41.016,-116.211,-19.531,-87.402
1689188058.450,-16.602,-33.203,-105.957,-17.578,-106.934
1689188058.454,7.812,-24.902,-99.609,-15.137,-31.738
1689188058.458,5.859,-17.090,-86.914,-27.832,-52.246
1689188058.462,1.465,-11.719,-79.590,-23.438,-41.016
1689188058.466,-27.832,-17.578,-80.566,4.395,226.074
1689188058.469,-33.203,-27.344,-75.195,0.977,347.656
1689188058.473,-16.602,-28.809,-69.336,-31.738,-21.484
1689188058.477,4.395,-25.879,-50.293,-24.902,-158.203
1689188058.481,28.809,-16.113,-28.809,5.859,7.324
1689188058.485,53.223,-13.672,-22.949,11.230,-37.109
1689188058.489,-6.836,-15.137,-20.020,-1.465,-195.312
1689188058.493,-18.066,-11.719,-22.461,13.672,-209.473
1689188058.497,14.648,-24.414,-27.832,36.621,-95.703
1689188058.501,3.418,-26.855,-19.531,-2.930,-51.270
1689188058.505,11.719,-3.906,-11.230,-20.020,-121.094
1689188058.509,-11.230,-6.348,12.207,2.930,70.801
1689188058.513,7.324,-6.836,36.133,-18.066,236.816
1689188058.516,35.156,-9.277,54.688,-19.043,-72.754
1689188058.520,17.090,-31.250,77.637,-25.391,-184.570
1689188058.524,13.184,-30.273,93.262,-38.574,11.230
1689188058.528,-19.531,-21.484,92.285,-50.781,58.594
1689188058.532,-43.945,-19.531,88.867,-47.852,-118.652
1689188058.534,-4.395,-11.719,86.426,-37.109,-146.973
1689188058.538,4.395,-13.672,81.055,-51.758,55.664
1689188058.542,-54.688,-16.602,75.195,-46.875,95.703
1689188058.546,-64.941,-6.836,72.266,-41.016,-47.852
1689188058.550,-57.617,-6.836,65.918,-32.715,-141.113
1689188058.554,-33.203,-11.230,60.059,-35.645,64.941
1689188058.558,3.906,-8.301,65.430,-20.996,387.695
1689188058.561,11.719,-14.160,59.082,-19.043,78.125
1689188058.565,-25.391,-13.672,41.992,-45.410,-168.945
1689188058.569,-41.016,-6.836,37.598,-39.551,-160.645
1689188058.573,-62.500,-13.184,38.574,-37.598,-179.688
1689188058.577,-30.273,-13.672,33.691,-51.758,-159.180
1689188058.593,5.371,-5.371,32.715,-32.227,-62.500
1689188058.597,-12.695,-6.348,30.762,-29.785,5.859
1689188058.601,-35.156,-11.719,26.855,-43.457,-48.340
1689188058.605,-48.828,-8.301,23.438,-30.762,-185.059
1689188058.609,0.977,0.488,22.461,-17.578,-95.703
1689188058.613,18.066,7.324,22.461,-13.672,192.383
1689188058.617,-20.020,0.488,14.160,-26.367,105.957
1689188058.620,-31.738,-19.043,-1.465,-45.410,-137.207
1689188058.624,-33.691,-27.344,-15.137,-41.504,-26.367
1689188058.628,-24.902,-30.273,-20.508,-40.527,142.090
1689188058.632,-30.273,-26.855,-22.461,-41.504,-62.500
1689188058.636,-18.555,-25.391,-35.645,-26.855,-186.523
1689188058.637,-26.855,-30.762,-38.086,-32.227,-124.512
1689188058.641,-47.852,-24.902,-30.762,-36.133,-125.000
1689188058.645,8.789,-11.230,-33.203,-16.113,-165.039
1689188058.649,28.809,-8.789,-49.316,7.812,-101.562
1689188058.653,-30.762,-17.090,-106.934,-8.301,177.734
1689188058.657,-45.410,-21.973,-159.668,-27.832,285.645
1689188058.661,-23.438,-22.949,-169.434,-26.855,-10.254
1689188058.664,1.465,-15.137,-140.137,-17.578,-161.621
1689188058.668,11.230,-19.531,-119.141,-11.719,188.965
1689188058.672,-0.977,-23.438,-118.652,-26.367,345.215
1689188058.676,-63.477,-22.461,-100.098,-25.391,-42.969
1689188058.680,-62.500,-20.996,-90.332,-20.996,-166.016
1689188058.684,-3.906,-12.207,-89.844,-19.531,-162.109
1689188058.688,10.254,-6.836,-70.801,-7.812,-150.879
1689188058.692,-1.465,-5.371,-49.316,1.953,-161.621
1689188058.696,-14.648,-5.859,-34.180,-7.324,-130.859
1689188058.700,-0.488,-13.184,-23.926,-21.484,-99.121
1689188058.704,10.254,-21.973,-29.297,-39.062,-8.301
1689188058.708,8.789,-33.691,-50.293,-25.391,20.020
1689188058.711,-3.418,-23.926,-62.988,-28.809,92.285
1689188058.715,-22.949,-10.254,-66.895,-25.879,386.719
1689188058.719,-63.965,-10.254,-76.660,-27.344,86.914
1689188058.723,-38.086,-8.301,-86.426,-22.949,-278.809
1689188058.727,13.672,-16.602,-94.727,-5.859,-149.414
1689188058.727,-8.301,-15.625,-98.633,-26.367,-88.379
1689188058.731,-30.273,-6.836,-85.449,-6.836,-152.832
1689188058.735,-20.020,-3.418,-83.496,-15.137,-164.551
1689188058.739,-11.230,-12.695,-87.891,-44.922,-65.430
1689188058.743,-25.879,-26.855,-87.402,-23.926,-19.531
1689188058.747,-28.809,-23.438,-88.867,-10.254,-4.395
1689188058.751,-18.066,-17.578,-91.797,-22.461,-53.711
1689188058.754,3.906,-12.695,-92.285,-9.766,122.070
1689188058.758,20.020,-2.930,-83.496,-8.789,221.680
1689188058.762,23.438,7.812,-74.707,-15.625,6.348
1689188058.766,-8.301,13.672,-63.965,-0.488,6.836
1689188058.770,-44.434,10.254,-61.035,-1.465,33.691
1689188058.774,3.418,5.859,-64.453,-23.926,-60.059
1689188058.778,-5.859,-5.371,-65.918,-38.574,-200.684
1689188058.782,-39.062,-19.043,-86.914,-20.508,-130.859
1689188058.786,-13.672,-16.113,-73.730,-10.742,-26.367
1689188058.790,-17.090,-14.160,-39.062,-29.297,-62.012
1689188058.794,-22.949,-16.602,-44.922,-0.977,-61.035
1689188058.798,6.348,-5.371,-66.406,7.812,91.309
1689188058.801,24.902,8.789,-77.637,-12.695,229.492
1689188058.805,29.297,7.812,-82.520,-20.996,-6.836
1689188058.809,22.461,-4.883,-80.566,3.906,-187.500
1689188058.813,-14.648,-6.836,-70.801,18.066,-186.035
1689188058.817,-20.020,-5.859,-67.383,0.000,-189.941
1689188058.834,-4.883,-8.789,-66.406,-2.441,-106.445
1689188058.838,-19.043,-14.160,-67.383,-18.555,-94.238
1689188058.842,-26.367,-21.973,-74.219,-26.855,-3.418
1689188058.846,-22.461,-23.438,-80.566,-8.789,22.949
1689188058.850,-13.672,-20.996,-80.566,-31.250,-127.441
1689188058.854,-20.508,-14.160,-78.125,-43.945,-137.207
1689188058.858,-43.945,-20.508,-74.219,-22.461,189.941
1689188058.861,-27.832,-31.250,-68.848,-15.137,439.453
1689188058.865,-43.945,-31.738,-73.730,-30.762,18.555
1689188058.869,-41.016,-30.273,-80.078,-39.551,-255.859
1689188058.873,-5.371,-22.461,-78.125,-31.250,-184.082
1689188058.877,-20.996,-24.902,-81.055,-26.855,-141.113
1689188058.877,-42.969,-32.227,-85.449,-42.480,-139.648
1689188058.881,-34.180,-32.715,-81.543,-57.617,-62.500
1689188058.885,-42.480,-24.902,-77.148,-53.223,58.105
1689188058.889,-34.668,-22.461,-65.430,-30.762,-45.410
1689188058.893,11.719,-20.020,-59.570,-28.320,-117.188
1689188058.897,-0.977,-16.602,-56.641,-31.738,146.484
1689188058.901,-28.320,-14.160,-35.156,-20.996,274.902
1689188058.904,-24.902,-7.324,-33.203,-28.320,-33.203
1689188058.908,-26.855,-25.391,-45.410,-24.414,-224.121
1689188058.912,-5.371,-23.926,-23.438,-7.812,-38.574
1689188058.916,19.043,-5.371,1.953,-11.719,355.469
1689188058.920,0.000,-3.906,32.227,-41.016,128.906
1689188058.923,-19.531,-20.996,79.102,-42.480,-176.270
1689188058.927,-25.879,-27.344,104.004,-31.250,-133.301
1689188058.931,-40.039,-10.742,108.887,-23.438,-115.723
1689188058.935,-18.066,-9.277,109.863,-8.301,-26.855
1689188058.939,-1.953,-21.484,106.445,-32.715,-48.340
1689188058.943,-32.715,-36.621,105.469,-42.480,78.125
1689188058.947,-49.805,-29.297,87.891,-27.344,275.391
1689188058.950,-1.953,-9.277,69.824,-22.461,-2.441
1689188058.954,13.184,-10.742,91.309,-0.977,-205.566
1689188058.958,-9.277,-25.391,95.215,-8.789,117.188
1689188058.962,3.906,-30.762,72.754,-47.852,160.645
1689188058.966,-41.504,-23.926,49.316,-41.504,-188.477
1689188058.967,-30.762,-24.414,40.039,-16.113,-132.812
1689188058.971,-21.484,-39.551,33.691,-14.160,-48.340
1689188058.975,-25.391,-53.223,21.484,-20.996,-91.309
1689188058.979,-8.301,-38.086,20.508,-31.738,-231.445
1689188058.983,-47.363,-25.879,18.066,-35.645,-187.012
1689188058.987,-45.898,-26.855,16.113,-10.742,86.914
1689188058.991,-28.320,-30.273,8.301,-2.930,135.254
1689188058.994,-12.695,-30.273,-23.438,-18.066,15.137
1689188058.998,-19.531,-37.598,-29.297,-30.762,-44.922
1689188059.002,-45.898,-42.480,-6.348,-23.438,205.078
1689188059.006,-48.340,-31.738,-10.742,-23.926,91.309
1689188059.010,-20.996,-32.227,-19.531,-14.160,-166.992
1689188059.013,0.977,-51.270,-19.531,4.395,-17.578
1689188059.017,0.000,-51.270,-34.180,-5.859,-68.848
1689188059.021,-14.648,-26.367,-43.457,-27.344,-232.422
1689188059.025,-19.531,-3.906,-27.832,-20.508,-177.734
1689188059.029,-15.137,-8.301,-29.297,-11.230,157.227
1689188059.033,-1.953,-27.832,-58.594,-27.344,290.039
1689188059.037,-15.137,-27.344,-45.410,-15.625,-62.012
1689188059.040,-45.410,-16.602,-38.086,-16.602,-256.836
1689188059.044,-41.016,-13.184,-50.781,-22.949,-7.324
1689188059.048,-8.789,-14.648,-50.293,-21.484,169.434
1689188059.052,-11.230,-17.578,-46.875,-28.320,-63.477
1689188059.056,-20.020,-24.902,-57.617,-38.574,-185.547
1689188059.058,-32.227,-33.691,-68.848,-37.109,-121.582
1689188059.062,-37.109,-37.109,-63.477,-37.598,-102.051
1689188059.066,-14.648,-26.367,-69.336,-51.270,-101.074
1689188059.070,0.977,-17.578,-71.289,-26.855,-54.199
1689188059.074,-22.461,-28.809,-63.965,-2.441,-49.316
1689188059.078,-73.730,-40.527,-64.941,-21.973,-86.426
1689188059.082,-46.387,-31.250,-75.195,-32.715,-76.172
1689188059.085,7.324,-23.438,-77.637,-8.789,82.031
1689188059.089,17.578,-30.273,-83.984,6.348,274.902
1689188059.093,13.672,-38.086,-93.750,-13.672,30.273
1689188059.097,-39.062,-55.176,-95.215,-58.594,-200.195
1689188059.101,-123.047,-67.383,-107.422,-74.707,-146.484
1689188059.103,-98.145,-63.477,-117.676,-33.691,-17.090
1689188059.107,-58.594,-59.082,-134.766,-26.367,-15.137
1689188059.111,-60.547,-56.641,-152.832,-27.832,-168.945
1689188059.115,-49.805,-55.664,-147.461,-26.855,101.074
1689188059.119,-72.754,-59.570,-155.273,-59.082,280.762
1689188059.123,-57.129,-61.523,-163.574,-46.387,-11.230
1689188059.127,-31.250,-67.383,-158.691,-24.414,-110.352
1689188059.130,-41.016,-69.336,-151.367,-31.738,84.961
1689188059.134,-51.758,-55.664,-146.973,-42.969,161.621
1689188059.138,-40.527,-45.410,-147.461,-54.688,-197.754
1689188059.142,-40.527,-47.363,-142.090,-11.230,-211.426
1689188059.146,-77.148,-58.105,-141.602,-1.465,-94.727
1689188059.149,-55.176,-57.129,-145.508,-53.223,-118.652
1689188059.153,-40.527,-52.246,-136.719,-47.363,-196.777
1689188059.157,-58.105,-51.758,-123.535,-33.691,-39.551
1689188059.161,-43.457,-48.828,-123.047,-37.109,112.793
1689188059.165,-59.570,-52.734,-125.000,-32.715,-52.246
1689188059.169,-65.430,-56.152,-119.141,-23.926,-132.812
1689188059.173,-53.223,-56.152,-116.211,-33.691,-37.109
1689188059.176,-31.250,-49.805,-122.070,-40.039,192.871
1689188059.180,-8.789,-43.457,-124.512,-26.855,9.277
1689188059.184,-34.668,-51.270,-120.117,-14.160,-192.383
1689188059.188,-47.363,-57.617,-117.188,-14.648,-91.797
1689188059.192,-38.086,-51.758,-114.746,-48.340,-131.348
1689188059.192,-38.574,-46.387,-104.980,-52.246,-209.961
1689188059.196,-40.527,-45.410,-95.703,-24.902,-199.219
1689188059.200,-16.113,-36.621,-88.379,-15.137,-31.250
1689188059.204,1.953,-18.066,-76.660,3.906,143.066
1689188059.208,1.953,-3.418,-68.359,-8.301,42.969
1689188059.212,-28.320,-6.836,-70.801,-28.809,-98.633
1689188059.216,-53.711,-12.207,-70.312,3.906,150.391
1689188059.219,-9.766,-14.160,-72.266,-7.324,563.477
1689188059.223,43.457,-15.625,-68.848,-23.926,269.043
1689188059.227,3.906,-18.555,-54.199,-2.930,-159.180
1689188059.231,-57.129,-20.996,-53.711,-12.207,-203.125
1689188059.235,-26.855,-16.602,-57.129,-9.277,-227.539
1689188059.239,7.324,-14.160,-49.316,-1.953,-204.590
1689188059.243,8.789,-9.277,-47.852,1.953,-84.961
1689188059.247,-18.066,-3.418,-46.387,6.348,-18.555
1689188059.251,-17.578,-5.859,-53.711,-21.484,-78.613
1689188059.255,14.648,-14.648,-56.152,-28.809,-164.062
1689188059.259,22.949,-18.066,-42.480,-6.836,86.426
1689188059.263,14.160,-22.461,-45.898,-2.441,315.918
1689188059.266,-54.688,-35.156,-52.734,-20.508,36.621
1689188059.270,-81.055,-25.391,-46.875,-38.086,-194.824
1689188059.274,-58.105,-7.812,-34.668,-31.250,-124.023
1689188059.278,-19.043,-5.371,-34.668,-19.043,64.453
1689188059.282,-17.090,-12.207,-41.992,-17.090,-70.801
1689188059.297,-38.086,-17.090,-46.875,-29.785,-132.324
1689188059.301,-24.902,-4.883,-42.969,-26.367,-102.051
1689188059.305,18.555,10.254,-44.434,-30.273,-119.141
1689188059.309,20.996,19.531,-46.387,-29.297,-39.062
1689188059.313,-3.906,4.395,-40.527,-8.789,-6.348
1689188059.317,0.488,-8.301,-35.156,-19.531,234.375
1689188059.321,-6.836,7.324,-28.320,-1.953,434.570
1689188059.324,-41.016,13.184,-18.066,11.719,-18.066
1689188059.328,-11.230,19.531,-16.113,0.488,-225.098
1689188059.332,35.156,31.250,3.906,10.742,-81.055
1689188059.336,16.602,28.809,62.988,0.488,8.301
1689188059.340,-22.461,34.180,91.309,-1.953,-118.652
1689188059.331,-23.438,44.434,88.379,5.859,-233.398
1689188059.335,6.348,37.598,77.148,-5.371,-86.914
1689188059.339,27.344,34.668,63.965,-8.301,-50.293
1689188059.343,10.254,31.738,57.617,-2.930,-159.668
1689188059.347,-34.668,32.227,55.664,-4.883,-137.207
1689188059.351,-34.180,34.180,42.969,-21.973,-53.711
1689188059.355,4.395,33.691,32.227,22.949,-62.500
1689188059.358,-1.465,18.066,23.438,28.320,-85.449
1689188059.362,10.254,3.418,-12.207,-19.531,49.316
1689188059.366,-6.348,8.789,-48.340,-23.926,258.301
1689188059.370,-18.555,13.672,-58.105,-20.020,-39.551
1689188059.374,1.465,19.531,-54.688,3.418,-210.449
1689188059.387,-2.441,19.043,-62.012,20.996,43.457
1689188059.391,-12.695,16.602,-71.289,13.672,102.539
1689188059.395,-9.766,15.625,-69.824,-16.113,-38.086
1689188059.399,-9.277,8.789,-74.707,-16.602,-151.855
1689188059.403,24.902,5.371,-77.637,-5.371,59.570
1689188059.407,31.738,0.977,-78.613,-11.230,344.238
1689188059.411,-1.465,1.465,-86.426,-14.160,156.250
1689188059.414,-54.199,-2.930,-77.148,-26.367,-130.859
1689188059.418,-79.590,-8.789,-70.312,-23.926,-38.574
1689188059.422,-22.461,-1.953,-72.754,-29.785,12.207
1689188059.426,-19.043,-2.930,-65.430,-2.930,-241.211
1689188059.430,-12.207,-3.906,-61.035,20.508,-183.105
1689188059.448,4.395,-2.441,-53.711,-19.043,-136.230
1689188059.452,-19.531,-2.930,-50.293,-30.273,-182.617
1689188059.456,25.879,0.000,-50.781,-12.207,-169.434
1689188059.460,35.645,-4.395,-42.969,5.371,5.859
1689188059.464,-30.273,-16.602,-42.969,-8.301,173.828
1689188059.468,-52.246,-22.949,-50.781,-31.250,74.219
1689188059.472,-40.527,-26.855,-41.016,-21.484,-79.102
1689188059.475,-14.160,-18.066,-29.297,-18.555,-80.566
1689188059.479,-13.672,-18.555,-28.809,-6.836,125.977
1689188059.483,2.930,-25.879,-31.250,-6.836,4.883
1689188059.487,-4.883,-33.203,-40.039,-16.113,-162.109
1689188059.491,-52.246,-32.715,-42.969,-26.367,-121.094
1689188059.477,-58.105,-35.645,-54.199,-29.785,-124.512
1689188059.481,-32.227,-26.855,-51.758,-24.414,-141.113
1689188059.485,-5.371,-18.555,-21.973,-26.855,-96.680
1689188059.489,-4.883,-18.066,-14.648,-22.461,30.762
1689188059.493,-44.434,0.488,-23.926,-22.949,44.922
1689188059.497,-60.059,-10.742,-31.250,-6.836,-127.441
1689188059.501,-39.551,-29.297,-28.320,3.906,-79.590
1689188059.504,3.418,-14.160,-31.738,12.695,194.336
1689188059.508,69.824,-6.348,-27.344,5.371,72.266
1689188059.512,1.953,-37.109,-44.434,-7.812,-133.789
1689188059.516,-77.148,-42.480,-66.406,-9.277,-172.363
1689188059.520,-35.156,-45.410,-52.734,2.930,89.355
1689188059.524,-36.621,-59.082,-68.359,-17.578,256.348
1689188059.528,-46.875,-26.367,-73.242,-48.340,-104.492
1689188059.532,-4.883,-24.414,-25.879,0.977,-120.605
1689188059.536,-7.812,-62.012,-7.812,18.555,-65.918
1689188059.540,-35.645,-59.082,-29.297,-15.137,-125.977
1689188059.544,-31.738,-11.230,-43.457,-51.758,-82.520
1689188059.548,-76.172,-39.551,-7.812,-85.938,121.094
1689188059.551,-99.121,-126.465,-9.766,-108.398,311.523
1689188059.555,-132.324,-108.398,-56.641,-126.465,21.484
1689188059.559,-128.418,-36.621,-46.387,-126.465,-242.676
1689188059.563,-120.605,-17.578,-0.977,-158.203,-29.297
1689188059.567,-166.992,-29.785,12.207,-179.688,50.293
1689188059.567,-220.215,-56.641,-10.254,-203.125,-153.809
1689188059.571,-282.227,-84.961,6.836,-247.070,-194.824
1689188059.575,-259.766,-89.355,8.301,-276.367,-146.973
1689188059.579,-227.539,-33.691,-8.789,-269.531,-24.414
1689188059.583,-244.141,-36.133,-25.879,-232.910,29.297
1689188059.587,-247.559,-85.449,-24.414,-256.348,-83.496
1689188059.591,-254.883,-72.754,10.254,-288.574,198.242
1689188059.594,-275.391,-53.223,-20.020,-291.992,312.500
1689188059.598,-261.230,-47.852,-20.508,-285.156,-113.770
1689188059.602,-244.141,-79.590,17.090,-278.320,-238.770
1689188059.606,-255.859,-112.305,6.836,-297.363,147.949
1689188059.610,-255.859,-93.262,-37.109,-306.152,222.656
1689188059.614,-216.309,-43.457,-66.406,-277.344,-211.914
1689188059.618,-207.520,-37.598,-48.340,-260.742,-184.082
1689188059.622,-202.637,-70.801,4.395,-265.625,-63.477
1689188059.626,-172.852,-73.730,-19.043,-255.859,-136.230
1689188059.630,-155.762,-41.992,-56.641,-233.398,-244.629
1689188059.634,-160.645,-47.852,-70.312,-208.984,-105.469
1689188059.638,-131.836,-62.988,-86.426,-187.012,112.793
1689188059.641,-67.871,-62.012,-91.797,-146.973,-4.883
1689188059.645,-83.008,-75.684,-116.211,-147.461,-174.805
1689188059.649,-101.562,-67.383,-128.906,-163.574,-76.660
1689188059.653,-87.402,-52.734,-129.883,-152.344,-23.438
1689188059.657,-12.695,-46.387,-119.629,-134.277,-173.340
1689188059.659,8.789,-46.387,-120.117,-101.074,-152.832
1689188059.663,-59.570,-63.477,-125.000,-109.375,97.656
1689188059.667,-19.043,-32.227,-92.285,-69.824,63.965
1689188059.671,0.488,-0.488,-80.078,-68.359,-110.840
1689188059.675,-33.691,-16.602,-55.664,-41.992,-60.059
1689188059.679,-17.578,-7.812,-27.344,-6.836,277.344
1689188059.683,19.531,5.859,-81.543,-37.598,527.832
1689188059.686,17.090,10.742,-110.840,-16.113,48.828
1689188059.690,67.383,25.879,-80.566,20.020,-226.074
1689188059.694,69.824,8.789,-86.426,12.695,-129.395
1689188059.698,59.082,-20.020,-93.262,24.414,-131.348
1689188059.702,41.504,15.137,-72.754,28.320,-173.340
1689188059.717,26.855,53.711,-32.715,30.273,-152.344
1689188059.721,80.078,28.320,38.086,26.367,-133.301
1689188059.725,68.848,20.996,89.355,-8.301,-170.410
1689188059.729,-13.672,26.367,117.188,12.207,-88.867
1689188059.733,11.719,20.996,123.047,39.551,36.621
1689188059.737,51.758,17.090,119.629,-6.348,159.180
1689188059.741,44.922,-9.277,105.469,4.395,83.496
1689188059.744,33.691,-17.578,104.004,59.570,-170.898
1689188059.748,20.020,30.762,132.812,48.828,-63.477
1689188059.752,44.922,57.617,127.441,50.781,219.238
1689188059.756,43.457,39.062,102.051,40.527,24.414
1689188059.760,46.387,31.250,88.379,5.859,-210.938
1689188059.778,16.602,14.648,110.352,17.090,-179.199
1689188059.782,-48.828,19.531,88.379,21.973,-86.914
1689188059.786,-3.418,33.203,43.945,20.020,-84.473
1689188059.790,47.363,37.109,13.672,25.391,-98.145
1689188059.794,49.316,50.781,9.766,29.297,84.961
1689188059.798,29.785,48.340,72.754,11.230,158.691
1689188059.802,57.617,54.688,113.281,20.996,-50.781
1689188059.805,88.379,62.988,143.555,47.363,-139.160
1689188059.809,48.340,56.641,178.711,12.207,125.488
1689188059.813,3.906,42.480,181.152,11.230,264.160
1689188059.817,-2.441,21.973,165.527,27.832,-131.348
1689188059.821,32.227,23.438,161.133,20.996,-161.621
1689188059.809,82.520,45.898,152.832,29.297,7.324
1689188059.813,86.426,39.062,120.117,29.785,-102.051
1689188059.817,-3.418,4.883,87.402,-3.906,-188.477
1689188059.821,-42.969,4.395,90.332,-13.672,-173.340
1689188059.825,-12.207,36.621,107.910,-23.438,-100.098
1689188059.829,4.883,43.457,107.422,-26.855,-21.484
1689188059.833,-5.859,30.762,90.820,-16.113,-9.277
1689188059.836,-10.254,22.949,82.520,-22.949,38.574
1689188059.840,3.418,32.227,56.641,-27.832,68.359
1689188059.844,25.879,36.133,6.836,-21.973,-70.312
1689188059.848,35.156,19.043,18.066,-14.160,-166.992
1689188059.852,-19.531,25.391,50.781,-21.484,8.789
1689188059.852,-39.551,20.020,51.270,-25.391,304.199
1689188059.856,-14.160,2.930,53.711,-21.973,62.500
1689188059.860,19.043,6.836,42.480,-36.133,-240.234
1689188059.864,-16.602,12.207,27.832,-43.457,-35.156
1689188059.868,-51.758,11.230,44.434,-1.465,14.160
1689188059.872,7.812,16.602,39.062,22.461,-124.512
1689188059.876,26.855,13.184,36.621,-13.672,-181.641
1689188059.879,14.648,15.137,49.316,-6.836,45.410
1689188059.883,10.742,18.066,-23.926,12.695,283.203
1689188059.887,-15.137,23.926,-83.008,-5.371,-11.230
1689188059.891,-33.691,31.738,-86.426,-34.668,-83.008
1689188059.895,-11.719,36.621,-89.844,-31.250,13.184
1689188059.901,25.391,40.039,-93.262,-22.461,-123.047
1689188059.905,17.578,32.227,-74.219,-5.371,-181.152
1689188059.909,32.227,35.645,-50.293,17.578,-50.293
1689188059.913,39.551,34.180,-48.828,15.137,-5.859
1689188059.917,-5.371,13.184,-43.457,-30.762,-134.766
1689188059.921,-45.898,15.625,-60.059,-43.945,-135.742
1689188059.925,-57.617,17.090,-55.664,-39.062,117.676
1689188059.928,-35.645,11.719,-21.973,-46.387,337.891
1689188059.932,-52.246,9.277,-19.531,-32.715,49.805
1689188059.936,-4.883,24.902,-2.441,-42.480,-221.191
1689188059.940,-6.348,36.133,-7.324,-60.547,-152.832
1689188059.944,-44.434,17.578,-20.508,-51.758,-85.449
1689188059.944,-12.695,1.953,-25.391,-29.785,-80.566
1689188059.948,-20.508,0.488,-38.574,-42.480,46.387
1689188059.952,-21.973,16.602,-30.273,-46.387,114.746
1689188059.956,29.297,47.852,-17.090,-40.527,18.066
1689188059.960,12.695,34.668,-29.297,-46.387,-20.020
1689188059.964,-35.645,7.324,-31.250,-15.137,28.320
1689188059.968,-17.090,17.578,-30.762,-3.906,262.207
1689188059.971,-23.438,26.367,-26.367,-13.672,504.395
1689188059.975,-28.809,24.414,-35.645,-10.742,109.375
1689188059.979,-0.488,23.926,-15.625,-26.367,-265.625
1689188059.983,28.809,17.578,13.672,-32.227,-136.230
1689188059.987,-9.277,11.719,16.602,-33.691,-100.586
1689188059.989,-28.809,4.883,20.020,-19.531,-234.863
1689188059.993,-27.832,3.418,9.766,-19.043,-248.535
1689188059.997,-37.109,12.207,-5.859,-17.578,-124.023
1689188060.001,-13.184,16.602,-20.508,-4.883,-64.453
1689188060.005,9.277,0.977,-11.230,8.301,-10.742
1689188060.009,36.621,13.184,-0.488,-17.578,-24.414
1689188060.013,-7.324,3.418,1.953,-37.109,277.344
1689188060.016,-48.828,-16.113,32.715,-16.113,267.578
1689188060.020,-8.301,16.602,56.152,-2.930,-148.438
1689188060.024,16.113,41.504,51.270,10.742,-113.770
1689188060.028,-16.113,39.551,69.824,-10.254,-117.188
1689188060.032,-56.152,34.668,97.168,-19.043,-225.098
1689188060.048,-8.789,32.227,93.750,-4.395,-196.289
1689188060.052,30.762,18.555,88.379,0.488,-64.941
1689188060.056,-0.488,17.578,85.449,-10.742,-17.090
1689188060.060,-53.711,38.574,79.102,-16.602,-38.574
1689188060.064,-60.059,33.203,71.777,-5.371,-137.695
1689188060.068,-1.953,25.879,70.801,-0.977,161.621
1689188060.072,48.828,48.828,70.801,-0.488,450.195
1689188060.075,-3.906,55.176,49.805,-11.719,70.801
1689188060.079,-58.105,45.410,38.574,-14.160,-166.992
1689188060.083,-48.828,36.133,63.477,-39.551,-182.129
1689188060.087,-22.949,47.852,62.500,-46.387,-165.527
1689188060.091,-9.766,44.922,54.688,-18.555,-170.898
1689188060.092,-9.766,29.785,50.781,0.488,-150.391
1689188060.096,-15.137,35.645,49.316,-14.160,118.652
1689188060.100,-35.156,33.691,42.480,-33.203,19.531
1689188060.104,-17.578,0.488,27.832,-14.160,-236.816
1689188060.108,31.738,12.695,15.137,10.254,-87.402
1689188060.112,9.277,40.527,11.230,19.043,68.359
1689188060.116,-19.531,35.156,39.551,-14.160,8.789
1689188060.119,-16.113,35.156,41.504,-24.414,-126.953
1689188060.123,-25.879,29.785,29.785,3.418,-8.301
1689188060.127,-6.836,29.785,31.250,14.160,396.484
1689188060.131,20.508,26.367,26.855,18.066,289.551
1689188060.135,13.184,4.395,21.973,0.488,-74.219
1689188060.137,-4.883,5.371,15.625,-26.367,-35.645
1689188060.141,5.859,17.578,19.531,-14.648,-85.449
1689188060.145,4.395,19.043,20.996,-2.930,-202.637
1689188060.149,15.625,18.066,17.578,-2.441,-18.555
1689188060.153,18.555,9.766,13.184,4.395,266.602
1689188060.157,-27.344,2.441,10.254,-6.836,250.977
1689188060.161,-46.387,-8.301,2.930,-17.090,-91.797
1689188060.164,1.953,-13.184,6.348,-7.812,-271.484
1689188060.168,46.387,-11.719,6.348,0.488,50.781
1689188060.172,14.160,-8.301,-4.395,16.602,187.988
1689188060.176,-30.762,-9.766,2.441,2.441,-196.289
1689188060.180,-34.668,-5.859,12.207,-10.742,-207.031
1689188060.186,13.672,2.930,3.906,-12.207,-65.918
1689188060.190,34.668,0.000,-6.348,11.719,-62.012
1689188060.194,17.578,1.465,-1.465,41.992,-107.422
1689188060.198,20.020,3.418,-2.930,34.180,-103.027
1689188060.202,11.719,2.441,-17.090,38.086,-107.422
1689188060.206,29.785,12.695,-24.414,54.688,-96.680
1689188060.210,65.430,16.602,-29.297,41.504,-52.734
1689188060.213,82.520,29.785,-37.598,52.734,46.387
1689188060.217,70.801,45.410,-36.133,76.660,183.594
1689188060.221,41.016,38.574,-48.340,68.848,-21.973
1689188060.225,60.059,35.645,-67.383,63.477,-180.664
1689188060.229,143.555,37.109,-65.430,89.844,-52.246
1689188060.229,164.062,44.434,-81.543,105.957,-15.625
1689188060.233,97.656,41.992,-94.238,94.727,-91.309
1689188060.237,93.262,47.363,-80.078,95.215,-82.520
1689188060.241,79.102,59.082,-83.008,104.980,55.176
1689188060.245,90.332,48.828,-85.449,100.586,42.480
1689188060.249,135.254,45.898,-83.008,114.258,-78.125
1689188060.253,125.000,54.199,-89.355,129.395,-15.625
1689188060.256,105.957,56.152,-90.820,117.188,118.652
1689188060.260,115.723,53.223,-83.008,131.348,344.727
1689188060.264,121.582,54.199,-68.848,140.137,163.574
1689188060.268,127.930,69.336,-62.012,120.117,-77.148
1689188060.272,130.859,77.637,-61.035,123.535,-110.840
1689188060.274,89.355,74.707,-52.734,125.488,-168.945
1689188060.278,69.824,74.707,-47.852,108.887,-218.262
1689188060.282,146.973,79.590,-53.711,122.070,-161.133
1689188060.286,146.973,80.566,-48.340,110.840,-28.809
1689188060.290,45.898,75.195,-38.574,95.703,-51.758
1689188060.294,28.320,85.449,-33.691,107.422,-89.355
1689188060.298,48.828,80.566,-2.441,100.098,-13.672
1689188060.301,62.012,66.895,40.527,92.773,312.500
1689188060.305,88.867,69.336,63.477,88.379,183.594
1689188060.309,66.895,66.895,67.383,75.195,-200.195
1689188060.313,54.688,61.035,64.453,52.734,-137.695
1689188060.317,67.871,55.176,58.594,33.203,-126.953
1689188060.317,63.477,45.898,56.152,58.105,-189.453
1689188060.321,67.383,39.062,55.176,71.777,-121.094
1689188060.325,3.418,32.227,43.457,61.523,-40.039
1689188060.329,-35.156,20.508,33.203,49.316,38.574
1689188060.333,-7.812,18.555,31.250,30.273,-24.414
1689188060.337,7.324,23.926,23.438,12.695,-110.840
1689188060.341,15.137,20.508,13.672,28.320,244.141
1689188060.344,5.371,16.602,12.207,47.363,365.723
1689188060.348,-2.441,13.672,9.277,19.531,-89.355
1689188060.352,5.371,20.996,10.742,-0.488,-288.574
1689188060.356,1.953,28.320,12.207,24.414,41.992
1689188060.360,-3.418,20.996,9.766,37.109,223.145
1689188060.364,21.973,26.367,13.672,10.742,-111.328
1689188060.368,14.160,31.738,12.695,1.953,-179.688
1689188060.372,-42.480,30.273,11.230,14.648,-118.652
1689188060.376,-37.598,28.320,14.160,34.180,-135.254
1689188060.380,-16.113,28.809,10.742,28.809,-185.547
1689188060.384,11.719,22.461,4.395,21.973,18.555
1689188060.388,11.719,16.113,5.371,-6.348,304.688
1689188060.391,-29.297,17.578,9.766,-42.480,30.762
1689188060.395,-20.020,13.184,6.836,-13.184,-273.926
1689188060.399,3.418,14.160,4.395,-1.465,22.949
1689188060.403,0.000,23.926,4.395,17.578,273.926
1689188060.407,-0.977,32.715,5.859,25.391,-25.879
1689188060.422,-16.602,33.691,4.883,19.043,-195.312
1689188060.426,4.395,32.227,4.395,42.969,-121.582
1689188060.430,57.617,45.898,-2.930,37.598,-85.449
1689188060.434,50.781,46.875,-12.207,27.344,-79.590
1689188060.438,11.230,32.715,-14.160,18.066,-107.422
1689188060.442,11.719,29.297,-25.879,-3.906,61.035
1689188060.446,-66.895,12.695,-42.480,-15.137,350.586
1689188060.449,-90.332,1.953,-49.316,-23.438,81.543
1689188060.453,-29.785,2.930,-59.570,-21.484,-166.016
1689188060.457,-24.902,5.371,-84.473,-18.066,-93.750
1689188060.461,-28.320,2.441,-104.004,-24.414,-163.086
1689188060.465,-10.742,-1.953,-110.352,-23.926,-170.410
1689188060.456,-8.789,2.441,-107.422,-22.461,-61.035
1689188060.460,-23.926,-4.395,-109.863,-16.113,2.930
1689188060.464,-12.695,-23.438,-112.793,-20.508,-66.406
1689188060.468,-13.184,-32.227,-106.934,-28.809,-172.852
1689188060.472,-23.438,-32.227,-103.516,-32.227,-141.113
1689188060.476,-41.992,-27.832,-96.680,-32.715,-31.250
1689188060.480,-20.996,-20.020,-87.402,-15.137,37.598
1689188060.483,-18.066,-18.066,-79.102,-13.184,-42.969
1689188060.487,-31.250,-16.113,-79.590,-31.250,-83.008
1689188060.491,-17.578,-13.184,-82.031,-24.414,109.863
1689188060.495,-14.648,-19.043,-81.543,-18.066,-62.012
1689188060.499,-34.668,-25.879,-76.660,-20.508,-170.410
1689188060.514,-16.602,-21.484,-65.430,2.441,-48.340
1689188060.518,22.949,-11.719,-63.477,-9.277,-96.191
1689188060.522,-29.785,-13.672,-62.500,-36.133,-134.277
1689188060.526,-48.828,-20.508,-50.293,-22.949,-104.980
1689188060.530,-20.996,-29.297,-46.875,-3.418,167.480
1689188060.534,-23.438,-37.598,-50.293,-6.836,497.070
1689188060.538,-35.156,-46.387,-52.246,-40.527,223.633
1689188060.541,-59.082,-60.059,-61.035,-62.988,-226.562
1689188060.545,-60.059,-62.012,-65.918,-49.805,-118.652
1689188060.549,-23.438,-61.035,-65.918,-43.945,-13.672
1689188060.553,-31.250,-57.129,-66.406,-58.594,-187.500
1689188060.557,-110.840,-52.246,-69.336,-49.316,-173.340
1689188060.559,-102.539,-42.969,-64.453,-41.504,-113.281
1689188060.563,-61.523,-31.250,-64.941,-42.969,-127.930
1689188060.567,-53.223,-44.922,-90.820,-58.105,-170.410
1689188060.571,-23.438,-58.105,-113.281,-55.664,-143.555
1689188060.575,-50.293,-53.711,-126.465,-47.363,-29.297
1689188060.579,-47.363,-51.270,-134.277,-82.031,-4.883
1689188060.583,-23.438,-40.039,-129.395,-68.359,-53.711
1689188060.586,-59.082,-29.297,-123.047,-32.715,-29.297
1689188060.590,-30.273,-26.367,-118.652,-31.250,294.434
1689188060.594,-31.738,-21.973,-109.863,-40.039,214.844
1689188060.598,-51.758,-16.113,-104.004,-52.734,-200.684
1689188060.602,-55.664,-17.578,-91.797,-37.598,-166.504
1689188060.603,-36.621,-27.344,-83.008,-23.438,-104.004
1689188060.607,-12.207,-20.508,-84.961,-29.785,-125.977
1689188060.611,-38.574,-15.625,-82.520,-48.340,-114.746
1689188060.615,-50.781,-14.160,-80.078,-41.992,-21.973
1689188060.619,-28.809,-6.836,-75.684,-27.344,30.762
1689188060.623,-2.930,-5.371,-71.777,-29.297,55.176
1689188060.627,-0.977,-8.301,-76.660,-11.719,61.035
1689188060.630,-41.504,-13.184,-84.473,-14.160,184.082
1689188060.634,-60.547,-12.207,-83.496,-19.531,388.184
1689188060.638,-29.297,-14.648,-80.566,-16.602,62.500
1689188060.642,14.160,-18.066,-78.613,-0.977,-200.195
1689188060.646,-16.602,-23.926,-74.707,-17.578,-79.590
1689188060.649,-53.711,-29.297,-74.219,-47.852,-48.828
1689188060.653,-41.504,-25.879,-68.359,-26.855,-135.742
1689188060.657,-30.273,-28.320,-64.453,-17.578,-129.883
1689188060.661,-13.672,-31.738,-64.941,-12.695,-90.820
1689188060.665,-1.953,-35.156,-65.918,0.000,-103.516
1689188060.669,-3.418,-45.898,-80.078,-30.762,-62.012
1689188060.673,-39.062,-45.898,-87.891,-48.340,75.684
1689188060.676,-53.711,-40.527,-76.660,-40.039,32.227
1689188060.680,-42.480,-46.875,-75.195,-46.387,-171.875
1689188060.684,-40.039,-48.340,-83.008,-42.969,-67.871
1689188060.688,-43.945,-47.852,-81.543,-31.738,136.230
1689188060.692,-36.133,-43.457,-71.777,-27.344,308.594
1689188060.692,-50.293,-41.016,-67.383,-45.410,41.016
1689188060.696,-53.223,-44.922,-74.219,-56.641,-204.102
1689188060.700,-38.574,-46.875,-78.613,-49.316,-74.219
1689188060.704,-16.113,-41.016,-72.266,-41.504,-48.828
1689188060.708,-16.113,-34.180,-68.359,-26.855,-99.121
1689188060.712,-56.152,-29.785,-59.570,-28.809,-178.711
1689188060.716,-64.941,-27.344,-51.270,-39.062,96.191
1689188060.719,-33.691,-15.137,-48.828,-31.250,390.625
1689188060.723,-11.719,-0.488,-43.945,-21.484,62.500
1689188060.727,-13.672,-1.953,-32.715,-21.484,-182.129
1689188060.731,-52.734,-14.160,-31.250,-35.156,-184.570
1689188060.735,-35.156,-15.625,-28.320,-29.297,-215.820
1689188060.741,-7.324,-13.184,-17.090,-5.859,-161.133
1689188060.745,-3.906,-8.301,-11.230,-8.301,-59.082
1689188060.749,12.207,-6.836,-14.160,-31.738,-8.789
1689188060.753,1.953,-12.695,-11.230,-20.020,-151.855
1689188060.757,2.930,-4.395,-6.348,7.324,-259.766
1689188060.761,4.395,1.465,-10.742,11.230,-56.152
1689188060.765,-14.160,-11.719,-11.719,4.883,267.578
1689188060.768,-20.996,-20.508,-12.695,-9.277,95.703
1689188060.772,-21.973,-11.719,-15.625,-24.902,-201.172
1689188060.776,-42.969,-13.184,-17.578,-28.320,-110.840
1689188060.780,-41.504,-21.484,-20.508,-20.996,-26.367
1689188060.784,-12.207,-27.344,-23.438,-12.695,-115.723
1689188060.798,1.465,-25.879,-28.320,-14.648,-93.262
1689188060.802,-20.020,-23.926,-31.250,-15.625,0.488
1689188060.806,-24.902,-27.832,-19.043,-9.766,8.301
1689188060.810,-0.488,-22.949,-1.465,-1.953,26.367
1689188060.814,25.391,-14.648,5.371,-0.488,42.480
1689188060.818,38.086,-10.254,3.418,12.207,192.383
1689188060.822,3.906,-13.184,33.203,19.043,543.945
1689188060.825,-21.973,-11.719,71.777,-3.906,171.387
1689188060.829,-3.906,-11.719,99.121,8.301,-231.934
1689188060.833,28.320,-15.137,115.723,-3.906,-145.020
1689188060.837,3.418,-15.137,113.281,-17.578,-180.664
1689188060.841,-30.762,-19.531,107.422,-11.719,-266.602
1689188060.842,-41.992,-26.855,102.539,-32.715,-258.301
1689188060.846,-10.254,-31.250,106.934,-15.137,-145.020
1689188060.850,33.691,-26.855,103.027,-2.930,-125.000
1689188060.854,-4.883,-24.902,84.473,-21.484,-120.605
1689188060.858,-43.457,-29.297,76.172,-28.320,-95.703
1689188060.862,-37.598,-40.039,64.941,-34.180,-50.293
1689188060.866,7.812,-41.016,48.828,-33.203,-45.898
1689188060.869,-1.953,-32.715,53.223,-10.742,-63.477
1689188060.873,-34.180,-37.598,51.758,-5.859,14.160
1689188060.877,-16.113,-35.156,41.504,-24.414,278.809
1689188060.881,-25.391,-32.227,38.086,-26.367,137.695
1689188060.885,-17.090,-34.668,37.598,-24.902,-203.125
1689188060.887,10.254,-31.738,38.086,-9.277,-80.078
1689188060.891,-9.277,-30.762,34.668,1.953,-21.973
1689188060.895,-29.785,-32.227,29.785,-0.488,-164.551
1689188060.899,-26.367,-34.668,19.531,-6.348,-200.195
1689188060.903,-2.930,-31.738,8.301,-19.531,45.410
1689188060.907,35.156,-30.273,3.906,3.418,269.043
1689188060.911,18.066,-33.691,8.301,-0.977,71.777
1689188060.914,-30.273,-34.180,4.883,-31.738,-144.043
1689188060.918,-52.734,-35.156,-3.418,-20.508,31.250
1689188060.922,-52.734,-32.227,-2.441,-12.695,248.047
1689188060.926,-27.344,-24.902,-5.371,-0.488,-39.551
1689188060.930,-11.719,-24.902,-5.371,3.418,-120.605
1689188060.932,-27.344,-30.273,-7.812,-19.043,-34.668
1689188060.936,-43.945,-35.645,-11.719,-32.227,-162.598
1689188060.940,-23.926,-36.133,-12.207,-26.367,-236.816
1689188060.944,8.301,-26.367,-7.324,-11.719,-139.160
1689188060.948,-20.508,-19.531,-2.930,-17.090,33.691
1689188060.952,-48.828,-19.043,-3.418,-32.227,92.773
1689188060.956,-40.039,-23.438,-8.789,-45.898,28.809
1689188060.959,-23.926,-23.438,-4.395,-32.227,33.691
1689188060.963,-18.555,-20.020,0.000,-7.812,187.012
1689188060.967,-3.418,-20.996,-5.859,-13.672,58.594
1689188060.971,-13.184,-23.926,-9.766,-26.855,-66.406
1689188060.975,-55.176,-26.855,-13.184,-42.480,18.555
1689188060.977,-68.848,-26.367,-17.090,-46.387,-77.637
1689188060.981,-57.129,-34.180,-20.508,-36.133,-194.824
1689188060.985,-21.484,-39.062,-22.461,-43.945,-170.410
1689188060.989,-21.484,-38.574,-26.367,-35.645,206.055
1689188060.993,-53.223,-41.504,-34.668,-31.250,374.023
1689188060.997,-50.293,-45.898,-38.574,-39.551,28.809
1689188061.001,-24.414,-44.922,-33.203,-41.992,-115.234
1689188061.004,2.441,-39.062,-43.457,-56.152,80.566
1689188061.008,-28.809,-41.504,-56.641,-49.805,185.547
1689188061.012,-95.215,-52.734,-67.871,-63.477,-174.316
1689188061.016,-101.562,-59.570,-83.984,-79.102,-240.234
1689188061.020,-69.824,-57.129,-81.055,-47.852,-179.688
1689188061.026,-49.805,-47.852,-69.824,-38.086,-99.121
1689188061.030,-29.785,-41.504,-58.105,-43.457,-62.012
1689188061.034,-27.832,-33.691,-49.316,-38.574,-76.660
1689188061.038,-38.086,-28.320,-52.246,-50.781,-22.461
1689188061.042,-32.227,-29.297,-53.223,-36.133,-48.828
1689188061.046,-20.508,-32.715,-51.270,-17.578,-62.988
1689188061.050,8.789,-31.738,-51.758,-30.762,137.695
1689188061.053,-11.230,-21.484,-48.828,-24.902,346.191
1689188061.057,-56.641,-23.438,-51.758,-20.020,31.250
1689188061.061,-41.016,-29.785,-60.547,-12.207,-213.867
1689188061.065,-22.949,-27.344,-65.430,-10.742,-92.773
1689188061.069,-12.207,-25.879,-61.035,-8.301,-49.805
1689188061.068,-21.484,-20.508,-56.641,-5.371,-114.746
1689188061.072,-21.973,-15.625,-57.129,-16.602,-201.172
1689188061.076,-11.230,-16.602,-50.293,-4.395,-138.184
1689188061.080,-1.953,-12.207,-47.852,5.859,40.527
1689188061.084,8.301,-1.953,-49.316,4.395,62.012
1689188061.088,10.254,0.977,-51.270,11.230,20.508
1689188061.092,5.371,0.977,-56.641,-0.488,174.316
1689188061.095,-29.297,4.395,-52.734,8.301,470.215
1689188061.099,-15.625,6.836,-49.805,13.672,280.273
1689188061.103,12.207,18.066,-49.316,13.184,-96.680
1689188061.107,0.488,18.555,-50.781,9.277,-82.520
1689188061.111,-16.602,11.719,-52.734,3.418,-91.797
1689188061.129,-8.301,10.742,-50.781,2.441,-206.543
1689188061.133,3.906,5.859,-56.641,-1.953,-234.863
1689188061.137,10.254,4.395,-69.336,13.184,-121.582
1689188061.141,11.230,0.488,-81.543,-0.977,-151.855
1689188061.145,-10.254,-12.695,-84.473,-20.508,-203.613
1689188061.149,-23.438,-22.949,-98.633,-23.926,-99.121
1689188061.153,-4.395,-25.879,-129.395,-26.855,40.527
1689188061.156,-14.648,-27.832,-141.602,-22.461,6.836
1689188061.160,-38.574,-31.250,-143.555,-22.461,-125.488
1689188061.164,-24.902,-31.738,-142.578,-22.461,-72.266
1689188061.168,-14.648,-16.113,-135.742,-13.184,68.359
1689188061.172,0.488,-7.812,-132.324,-1.953,-116.699
1689188061.172,2.930,-4.883,-133.301,-11.230,-163.574
1689188061.176,-10.254,-10.742,-126.953,-13.184,-23.926
1689188061.180,-21.973,-19.043,-118.652,4.395,-49.805
1689188061.184,-16.602,-13.672,-115.234,9.277,-90.820
1689188061.188,20.508,-13.672,-112.793,0.977,-89.355
1689188061.192,10.742,-24.414,-110.840,-8.301,95.703
1689188061.196,-19.531,-24.414,-110.352,0.000,200.195
1689188061.199,-33.691,-17.090,-105.957,-7.812,3.906
1689188061.203,-34.180,-17.578,-103.027,-27.344,-157.227
1689188061.207,-10.742,-16.113,-104.980,-15.137,10.742
1689188061.211,8.301,-5.371,-102.539,1.953,466.309
1689188061.215,1.953,-2.441,-94.727,-4.395,262.207
1689188061.217,-4.395,-1.953,-87.891,-18.066,-107.910
1689188061.221,-28.809,-2.930,-86.914,-20.020,-157.715
1689188061.225,-46.875,-13.184,-84.473,-14.160,-236.328
1689188061.229,3.906,-10.254,-81.543,-5.371,-246.582
1689188061.233,14.648,4.395,-81.543,14.160,-119.141
1689188061.237,0.488,14.160,-74.707,4.395,-9.277
1689188061.241,-6.836,15.137,-74.707,-15.625,-34.180
1689188061.244,-2.441,16.113,-75.195,-3.906,-148.926
1689188061.248,16.113,8.301,-73.242,17.578,-108.887
1689188061.252,9.277,-0.488,-80.078,16.113,169.922
1689188061.256,-7.812,-4.395,-94.727,-5.371,83.496
1689188061.260,-5.371,-11.719,-107.422,-12.695,-170.898
1689188061.262,3.906,-9.277,-104.980,-0.977,-98.633
1689188061.266,17.090,-2.441,-103.516,15.625,43.945
1689188061.270,34.180,-7.324,-121.094,5.859,-106.445
1689188061.274,-2.441,-16.602,-140.625,-8.789,-125.977
1689188061.278,-48.340,-16.113,-148.926,-19.043,89.844
1689188061.282,-42.480,-16.113,-144.531,-20.996,161.621
1689188061.286,-18.555,-20.508,-139.160,-22.949,-3.418
1689188061.289,-3.418,-18.555,-141.602,-26.367,-104.004
1689188061.293,-31.250,-17.578,-147.949,-26.367,112.793
1689188061.297,-51.758,-24.414,-148.926,-36.133,185.547
1689188061.301,-12.207,-21.973,-144.043,-38.574,-211.914
1689188061.305,0.977,-24.902,-145.508,-24.902,-228.516
1689188061.310,-41.504,-34.668,-142.090,-25.391,-57.129
1689188061.314,-53.711,-36.133,-138.184,-33.691,-38.574
1689188061.318,-38.086,-30.762,-145.996,-40.527,-175.781
1689188061.322,-21.973,-19.531,-147.949,-36.621,-196.777
1689188061.326,-16.602,-16.602,-140.625,-14.160,5.371
1689188061.330,0.977,-19.531,-128.906,0.488,54.688
1689188061.334,6.836,-16.113,-125.977,-1.953,-13.184
1689188061.337,-20.996,-19.531,-125.488,-8.301,-2.441
1689188061.341,-39.062,-26.367,-119.629,-15.137,147.461
1689188061.345,-36.621,-29.785,-121.582,-22.949,-10.254
1689188061.349,-14.648,-33.203,-123.535,-21.484,-169.434
1689188061.353,2.441,-29.297,-131.348,-25.879,-35.156
1689188061.353,-28.809,-28.809,-133.789,-29.297,-20.020
1689188061.357,-63.965,-24.902,-125.000,-11.230,-155.273
1689188061.361,-49.805,-13.672,-124.512,-12.207,-225.098
1689188061.365,-33.203,-18.066,-124.512,-21.484,-18.066
1689188061.369,-35.156,-32.715,-124.023,-23.926,94.727
1689188061.373,-42.969,-37.598,-124.023,-33.691,17.090
1689188061.377,-31.738,-37.598,-115.234,-32.227,-63.477
1689188061.380,4.883,-40.527,-114.746,-28.809,55.176
1689188061.384,-7.812,-49.316,-114.746,-39.551,424.316
1689188061.388,-60.059,-52.246,-110.840,-35.645,190.918
1689188061.392,-52.246,-49.805,-111.816,-46.875,-151.367
1689188061.396,-56.641,-44.922,-112.305,-53.223,-141.113
1689188061.399,-59.570,-44.434,-113.281,-31.250,-201.660
1689188061.403,-26.855,-51.758,-116.211,-37.598,-191.406
1689188061.407,14.160,-43.945,-116.699,-19.043,-102.539
1689188061.411,-9.766,-34.180,-100.098,-19.043,-81.055
1689188061.415,-59.082,-42.480,-101.562,-71.289,-106.445
1689188061.419,-90.820,-53.711,-117.676,-103.516,-121.094
1689188061.423,-115.234,-58.105,-98.145,-117.188,-36.621
1689188061.426,-126.465,-64.941,-93.262,-130.371,473.633
1689188061.430,-158.203,-72.754,-101.074,-157.227,362.305
1689188061.434,-185.059,-91.797,-94.238,-190.918,-159.668
1689188061.438,-187.500,-103.027,-87.402,-187.988,-156.738
1689188061.442,-150.391,-71.777,-88.867,-178.711,-121.094
1689188061.442,-161.133,-56.152,-93.262,-210.449,-113.770
1689188061.446,-225.098,-61.523,-90.820,-221.191,-139.648
1689188061.450,-237.305,-66.895,-89.844,-230.469,-127.441
1689188061.454,-248.047,-73.242,-99.121,-263.184,-77.148
1689188061.458,-239.746,-75.195,-99.121,-267.578,-61.035
1689188061.462,-222.656,-79.102,-83.984,-263.672,-59.082
1689188061.466,-228.516,-77.637,-87.402,-264.648,202.148
1689188061.469,-248.535,-83.984,-93.750,-272.949,391.602
1689188061.473,-255.859,-86.426,-85.449,-288.086,35.645
1689188061.477,-241.211,-93.262,-91.309,-277.832,-165.527
1689188061.481,-213.867,-121.582,-102.051,-263.672,-45.898
1689188061.485,-223.633,-114.258,-80.078,-264.648,-48.340
1689188061.489,-243.164,-83.984,-56.641,-238.281,-151.855
1689188061.493,-230.469,-69.824,-59.082,-234.375,-123.535
1689188061.497,-191.406,-74.219,-64.453,-223.145,-41.992
1689188061.501,-150.879,-73.242,-62.012,-189.941,-40.527
1689188061.505,-127.930,-61.523,-61.523,-172.852,-85.449
1689188061.509,-114.258,-61.035,-61.523,-156.250,-37.598
1689188061.513,-125.000,-70.312,-64.941,-154.785,117.188
1689188061.516,-105.469,-52.734,-79.102,-134.766,0.000
1689188061.520,-37.598,-28.809,-86.914,-93.750,-144.043
1689188061.524,-40.527,-34.668,-88.867,-76.660,34.668
1689188061.528,-71.289,-36.621,-73.730,-56.641,148.926
1689188061.532,-58.594,-36.621,-69.824,-65.430,-26.367
1689188061.548,-49.316,-57.129,-87.402,-83.008,-181.152
1689188061.552,-24.414,-41.016,-79.102,-54.199,-30.273
1689188061.556,-16.602,-14.160,-65.918,-34.668,83.496
1689188061.560,-16.113,-23.438,-78.125,-30.273,-37.109
1689188061.564,-4.395,-32.715,-85.938,-27.832,-110.840
1689188061.568,14.160,-22.949,-55.664,-12.207,109.863
1689188061.572,21.973,-20.508,-53.223,3.906,391.602
1689188061.575,18.066,-22.949,-63.477,-1.953,33.691
1689188061.579,51.270,-16.113,-61.035,13.672,-188.965
1689188061.583,15.137,-25.391,-33.691,22.461,-153.320
1689188061.587,-16.602,-30.762,1.465,20.020,-174.316
1689188061.591,19.043,-30.762,35.156,34.180,-161.621
1689188061.592,22.949,-33.203,55.176,30.762,-144.531
1689188061.596,41.504,-25.391,44.922,12.207,12.207
1689188061.600,43.945,-43.457,50.781,29.297,-40.527
1689188061.604,20.996,-36.133,64.941,36.133,-274.902
1689188061.608,31.250,-13.184,58.594,20.508,-146.484
1689188061.612,50.293,-12.207,48.340,19.043,154.297
1689188061.616,42.480,-12.207,48.828,29.297,187.012
1689188061.619,11.230,-16.602,37.598,33.691,-100.586
1689188061.623,16.113,-29.785,24.414,42.480,-175.293
1689188061.627,33.203,-30.762,-12.207,41.504,242.676
1689188061.631,30.762,-23.926,-21.973,26.855,146.484
1689188061.635,51.758,-14.648,-9.277,18.555,-160.645
1689188061.638,50.781,-18.066,-18.066,41.992,-59.082
1689188061.642,0.488,-36.621,-8.789,27.344,-130.371
1689188061.646,-11.230,-20.996,-2.441,4.883,-182.617
1689188061.650,12.695,-4.883,-4.883,7.812,-77.637
1689188061.654,2.930,-8.789,-20.508,18.555,295.410
1689188061.658,-13.184,-12.207,-24.414,24.902,435.059
1689188061.662,-7.812,-19.043,-31.250,-9.277,15.625
1689188061.665,-10.742,-28.320,-40.039,-4.395,-146.484
1689188061.669,9.766,-28.809,-38.086,16.113,97.168
1689188061.673,2.930,-23.926,-48.340,7.812,206.543
1689188061.677,-15.137,-22.461,-51.758,-11.719,-136.230
1689188061.681,-12.207,-33.691,-50.293,-24.902,-231.445
1689188061.682,-20.020,-44.434,-61.523,-18.555,-153.809
1689188061.686,-5.371,-40.039,-68.359,5.859,-90.820
1689188061.690,11.230,-41.992,-58.594,-2.441,-107.422
1689188061.694,-27.832,-44.434,-50.293,-18.066,-121.582
1689188061.698,-28.320,-57.129,-58.594,-11.719,-75.195
1689188061.702,13.672,-65.430,-58.594,-13.672,-19.531
1689188061.706,-4.395,-51.270,-50.293,-3.906,3.418
1689188061.709,39.551,-18.555,-54.688,18.555,68.359
1689188061.713,36.621,-6.348,-57.129,7.324,231.934
1689188061.717,-68.848,-30.273,-39.062,-37.109,-38.086
1689188061.721,-72.754,-49.316,-40.527,-55.664,-267.090
1689188061.725,-41.992,-59.570,-60.059,-45.898,-26.367
1689188061.728,-46.875,-87.402,-38.574,-38.086,94.238
1689188061.732,-44.434,-68.848,-8.789,-31.250,-41.504
1689188061.736,-44.434,-25.879,-9.766,-37.109,-174.316
1689188061.740,-43.945,-20.020,-22.949,-53.223,53.223
1689188061.744,-29.297,-27.344,-27.832,-50.781,415.527
1689188061.748,-26.855,-34.180,-18.555,-37.109,202.637
1689188061.752,-37.598,-38.086,-27.344,-23.926,-131.348
1689188061.755,-42.969,-40.039,-32.227,-27.832,-25.879
1689188061.759,-30.762,-45.898,-28.320,-14.160,121.582
1689188061.763,-18.555,-57.617,-40.039,-15.137,-129.883
1689188061.767,-6.836,-63.965,-51.270,-19.043,-189.453
1689188061.771,-8.789,-66.406,-42.480,1.953,-35.156
1689188061.774,-31.250,-46.387,-25.391,-15.137,-85.938
1689188061.778,-11.230,-25.879,-37.109,-36.621,-231.934
1689188061.782,36.621,-28.809,-69.824,-34.180,-168.945
1689188061.786,11.230,-39.062,-64.941,-13.184,-83.984
1689188061.790,-39.551,-42.969,-41.016,-12.207,-121.582
1689188061.794,-76.172,-47.363,-46.387,-32.227,-134.277
1689188061.798,-48.340,-32.715,-37.109,-19.531,-31.250
1689188061.801,-5.859,-16.602,-19.531,4.883,181.152
1689188061.805,-19.043,-39.062,-31.738,4.395,67.383
1689188061.809,4.395,-37.109,-34.668,-3.418,-116.211
1689188061.813,-3.906,-16.602,-36.133,-19.043,-129.395
1689188061.817,-30.762,-12.695,-37.598,-0.977,-128.906
1689188061.818,-4.883,-11.230,-36.133,3.906,-123.535
1689188061.822,16.602,-9.766,-45.898,-14.160,-149.414
1689188061.826,4.883,-23.438,-41.016,2.441,36.133
1689188061.830,14.160,-46.875,-33.691,9.766,173.340
1689188061.834,11.719,-51.758,-44.922,3.906,28.809
1689188061.838,-3.906,-21.973,-46.387,5.371,-58.594
1689188061.842,6.348,-15.137,-29.297,8.789,167.480
1689188061.845,28.809,-28.809,-15.137,7.812,474.121
1689188061.849,5.859,-16.113,-17.090,-16.113,105.469
1689188061.853,3.418,-26.367,-21.973,-3.906,-265.137
1689188061.857,14.160,-31.738,-15.625,13.672,-154.297
1689188061.861,-12.207,-28.809,-33.203,6.348,-98.633
1689188061.866,-4.395,-45.410,-48.340,13.672,-142.578
1689188061.870,-5.859,-40.039,-39.551,25.391,-110.352
1689188061.874,-1.953,-10.742,-44.434,1.465,-64.941
1689188061.878,0.977,-8.789,-52.246,-10.742,-175.293
1689188061.882,19.531,-17.578,-50.293,11.230,-183.594
1689188061.886,15.625,-39.551,-43.945,11.719,39.551
1689188061.890,-16.602,-28.320,-30.762,-0.488,312.500
1689188061.893,-17.578,-8.789,-41.504,-16.602,65.430
1689188061.897,-3.906,-16.113,-56.641,-27.832,-223.145
1689188061.901,-0.977,-15.137,-48.828,-24.902,-69.824
1689188061.905,-11.230,-32.715,-59.570,-31.738,40.527
1689188061.909,-2.930,-31.738,-62.012,-18.066,-88.379
1689188061.908,-11.230,-23.926,-62.988,3.906,-169.434
1689188061.912,-42.969,-23.438,-50.293,-7.324,-90.820
1689188061.916,-15.625,-15.625,-20.996,-5.371,-49.316
1689188061.920,5.859,0.000,-16.113,19.043,-53.711
1689188061.924,0.488,0.977,-32.715,2.930,-74.219
1689188061.928,-11.719,-7.812,-58.105,-2.930,146.973
1689188061.932,-22.461,4.883,-55.664,6.348,545.898
1689188061.935,6.348,-0.977,-58.105,-18.066,221.191
1689188061.939,-9.766,-3.906,-55.664,-17.578,-175.781
1689188061.943,-41.992,6.836,-61.523,-20.020,-94.727
1689188061.947,-19.531,20.020,-62.988,-34.180,-122.559
1689188061.951,-14.648,21.484,-66.895,-33.203,-255.859
1689188061.967,-25.391,7.812,-74.219,-37.109,-173.340
1689188061.971,-13.184,0.977,-67.871,-45.410,-40.527
1689188061.975,-19.043,5.859,-74.707,-43.457,-75.195
1689188061.979,-33.203,7.324,-57.129,-31.738,-210.449
1689188061.983,-14.648,10.254,-68.359,-18.066,-186.035
1689188061.987,36.133,11.230,-88.379,-5.371,9.277
1689188061.991,47.363,4.883,-36.133,18.066,-3.418
1689188061.994,17.578,10.254,-27.344,17.090,-44.434
1689188061.998,-16.113,0.488,-51.758,-18.555,1.465
1689188062.002,-30.762,-13.184,-36.133,-5.371,212.891
1689188062.006,-23.926,-5.859,-20.996,0.000,89.844
1689188062.010,4.883,1.465,-36.133,-8.301,-165.039
1689188062.012,24.414,-2.441,-42.969,17.090,-94.727
1689188062.016,18.555,-4.395,-20.996,23.926,-87.891
1689188062.020,6.836,8.301,-32.715,9.277,-198.730
1689188062.024,-3.418,14.160,-51.758,-20.020,-200.195
1689188062.028,5.371,4.883,-49.316,-21.484,86.914
1689188062.032,-9.766,-10.742,-40.039,-8.789,193.359
1689188062.036,-23.926,-31.738,-39.551,-8.789,-30.273
1689188062.039,-34.180,-17.090,-50.293,-14.160,-226.074
1689188062.043,-38.086,-10.254,-60.059,-16.113,40.039
1689188062.047,0.977,-30.762,-53.711,-6.348,296.387
1689188062.051,-17.578,-33.203,-47.363,2.930,-45.898
1689188062.055,1.953,-19.043,-34.668,-10.254,-117.676
1689188062.058,14.648,-8.301,-24.414,-14.160,-17.578
1689188062.062,-35.156,-12.695,-28.320,12.207,-84.961
1689188062.066,-9.277,-14.648,-19.531,6.348,-151.855
1689188062.070,6.348,-19.531,-25.391,-4.883,-53.223
1689188062.074,-20.508,-20.996,-11.719,2.441,-48.340
1689188062.078,-17.090,-12.207,28.320,-0.977,-69.336
1689188062.082,-2.441,-14.648,24.414,0.488,-42.480
1689188062.085,17.090,-7.324,24.902,13.672,7.812
1689188062.089,50.293,2.930,24.414,9.766,238.770
1689188062.093,-1.465,-0.488,29.785,-1.465,89.844
1689188062.097,-33.691,-10.254,39.551,-18.066,-210.938
1689188062.101,-6.836,-5.371,46.875,-16.602,-99.121
1689188062.102,0.977,11.230,52.246,5.859,-13.184
1689188062.106,-9.277,16.602,32.227,-0.488,-100.586
1689188062.110,-11.719,7.812,4.883,-17.090,-163.574
1689188062.114,-3.906,-2.441,-16.602,-9.277,84.961
1689188062.118,-12.695,0.977,-7.812,-5.371,187.012
1689188062.122,-9.766,-0.977,-13.672,-13.184,-47.363
1689188062.126,-0.977,-8.789,-28.320,-18.066,32.227
1689188062.129,15.625,-0.977,-30.273,-12.695,213.867
1689188062.133,-27.832,0.977,-27.832,-10.742,190.918
1689188062.137,-54.199,-39.062,-49.805,-20.020,-180.664
1689188062.141,-21.484,-32.715,-42.969,7.324,-246.582
1689188062.145,-5.371,-2.930,-9.766,10.254,-113.281
1689188062.163,-6.348,-6.348,-18.066,-22.461,-64.453
1689188062.167,-15.625,2.930,-10.254,-23.438,-147.949
1689188062.171,-17.578,-7.812,3.418,-19.043,-103.516
1689188062.175,-3.418,-4.883,0.977,-8.301,-0.977
1689188062.179,17.090,3.418,-11.719,-12.695,-73.242
1689188062.183,22.461,2.441,-40.527,-30.273,-86.426
1689188062.187,-41.992,-5.859,-48.340,-20.020,-37.109
1689188062.190,-82.520,-20.020,-53.223,-34.180,134.277
1689188062.194,-34.668,-13.184,-56.152,-36.621,-5.859
1689188062.198,-21.973,-4.883,-55.176,-7.812,-221.680
1689188062.202,-20.020,-20.996,-51.270,-12.695,-106.934
1689188062.206,-18.066,-54.199,-89.355,-27.832,-61.035
1689188062.192,-19.531,-16.602,-91.797,-21.484,-162.598
1689188062.196,-10.742,22.461,-31.738,-17.578,-141.113
1689188062.200,3.906,4.883,-14.648,-25.391,-44.434
1689188062.204,-6.348,6.836,-21.484,-13.184,37.598
1689188062.208,-37.598,11.230,-19.043,-11.719,25.879
1689188062.212,-46.875,-3.418,-31.250,-31.738,-37.109
1689188062.216,-7.812,-6.836,-41.016,-24.902,248.535
1689188062.219,41.504,-2.930,-35.156,-6.836,362.793
1689188062.223,-3.906,-11.230,-27.832,-10.742,-13.184
1689188062.227,-22.461,8.301,-23.438,-14.160,-199.707
1689188062.231,-15.625,18.066,-26.855,-7.812,34.180
1689188062.235,-20.020,25.879,-39.551,2.441,188.965
1689188062.239,-17.578,-3.418,-51.270,-8.789,-116.699
1689188062.243,-19.043,-29.785,-50.293,3.418,-133.301
1689188062.247,-25.879,-5.859,-57.129,-8.301,-63.477
1689188062.251,-31.250,-1.465,-49.805,-41.016,-130.859
1689188062.255,-16.602,10.254,-54.199,-34.180,-210.449
1689188062.259,-4.883,-10.742,-80.078,-10.742,-15.625
1689188062.263,-7.812,-31.738,-77.637,-7.812,354.980
1689188062.266,5.371,13.672,-53.223,-15.625,227.539
1689188062.270,-27.832,20.996,-46.875,-25.879,-153.320
1689188062.274,-58.105,-7.812,-58.105,-48.340,-139.160
1689188062.278,-40.527,-17.090,-69.336,-45.898,11.719
1689188062.282,-12.695,-24.902,-80.078,-26.367,-98.633
1689188062.297,-1.953,-7.324,-83.984,-14.160,-152.832
1689188062.301,-35.156,-6.836,-76.660,-5.371,-116.699
1689188062.305,-50.781,-22.949,-65.918,-14.160,-133.789
1689188062.309,-30.762,-27.832,-68.359,-29.785,-62.988
1689188062.313,-19.043,-30.273,-77.637,-1.953,-18.066
1689188062.317,-17.578,-20.508,-80.078,-13.184,167.969
1689188062.321,-5.859,-20.996,-86.426,-40.527,434.570
1689188062.324,4.395,-14.160,-76.172,-21.484,0.488
1689188062.328,-15.137,-13.184,-60.547,3.418,-228.027
1689188062.332,-14.160,-16.113,-94.727,-4.883,-23.438
1689188062.336,-0.488,-2.441,-112.305,5.859,40.039
1689188062.340,-13.672,5.859,-76.660,17.578,-128.906
1689188062.342,1.465,2.441,-79.590,-15.137,-226.562
1689188062.346,36.621,8.789,-85.938,-14.160,-41.016
1689188062.350,4.883,8.789,-55.176,16.602,5.859
1689188062.354,-30.762,-5.859,-45.410,9.277,-124.023
1689188062.358,-36.133,0.977,-57.617,-2.930,-151.367
1689188062.362,-37.109,-11.230,-72.266,-16.602,-106.934
1689188062.366,5.371,-11.719,-83.496,3.906,-80.078
1689188062.369,21.484,0.488,-98.633,13.184,-174.805
1689188062.373,-32.715,-23.926,-124.023,-15.137,-67.871
1689188062.377,-19.531,-32.227,-118.652,9.766,232.910
1689188062.381,-15.137,14.160,-74.707,20.020,32.715
1689188062.385,-10.254,20.020,-78.125,-10.742,-206.543
1689188062.387,9.766,-4.395,-109.863,-3.418,63.477
1689188062.391,3.906,-4.395,-99.121,12.695,134.277
1689188062.395,-16.602,-12.207,-91.309,-23.438,-120.605
1689188062.399,-22.949,-21.973,-85.449,-16.602,-152.344
1689188062.403,-17.090,-18.555,-90.820,-14.648,47.363
1689188062.407,39.551,-1.953,-117.188,-30.273,162.109
1689188062.411,50.781,-19.043,-117.676,9.766,80.078
1689188062.414,-23.438,-37.598,-99.121,28.320,-123.535
1689188062.418,-53.711,4.395,-104.492,-8.789,-8.789
1689188062.422,-29.297,27.832,-131.836,-15.137,107.422
1689188062.426,4.883,21.973,-115.723,-6.836,-202.637
1689188062.430,-2.930,0.000,-105.957,-5.371,-156.250
1689188062.435,-14.648,-15.137,-120.117,-15.625,-64.453
1689188062.439,-35.156,-0.488,-110.840,-32.227,-153.320
1689188062.443,-22.949,6.836,-103.516,-3.906,-185.059
1689188062.447,22.461,14.648,-102.051,18.066,-68.848
1689188062.451,51.270,29.785,-116.699,3.418,105.469
1689188062.455,23.926,9.277,-115.234,-2.930,114.258
1689188062.459,-25.879,-17.578,-106.445,-3.418,-103.516
1689188062.462,-20.996,-16.602,-110.840,13.672,-157.715
1689188062.466,10.742,-2.441,-103.516,18.066,133.789
1689188062.470,47.852,15.625,-123.047,14.160,38.086
1689188062.474,16.113,19.043,-111.328,25.391,-178.711
1689188062.478,-44.434,4.883,-84.961,11.719,-87.402
1689188062.479,-37.109,-0.977,-88.379,-15.137,-89.844
1689188062.483,-9.277,-0.488,-89.355,-10.254,-165.039
1689188062.487,2.930,-5.371,-85.449,-21.973,-113.281
1689188062.491,10.254,-10.254,-83.008,-18.555,84.961
1689188062.495,5.371,-12.695,-87.402,-3.906,80.078
1689188062.499,3.418,-11.230,-79.102,1.953,-119.629
1689188062.503,6.348,-5.859,-65.918,21.484,-122.070
1689188062.506,-0.977,-4.395,-59.082,26.367,153.809
1689188062.510,-6.836,-8.789,-71.289,11.230,521.973
1689188062.514,-10.742,-0.488,-70.801,-0.977,174.805
1689188062.518,-11.719,-6.348,-59.082,-1.465,-226.074
1689188062.522,-24.414,-0.977,-71.289,-4.883,-180.176
1689188062.524,-12.695,13.184,-52.734,-6.836,-143.555
1689188062.528,6.348,14.160,-25.391,-8.301,-132.324
1689188062.532,-0.977,23.438,-17.090,1.953,-114.746
1689188062.536,-3.418,33.691,0.977,-0.488,-33.691
1689188062.540,-11.230,18.555,-9.277,-3.906,-100.586
1689188062.544,-13.184,7.812,-30.762,6.348,-131.836
1689188062.548,62.988,12.695,-41.016,6.836,74.219
1689188062.551,27.344,17.578,-26.367,8.301,219.238
1689188062.555,-82.520,17.090,-35.156,-13.184,3.906
1689188062.559,-34.668,30.762,-26.855,-27.344,-174.316
1689188062.563,8.301,30.273,-14.648,5.859,-0.488
1689188062.567,-11.719,18.066,-42.480,12.207,278.320
1689188062.567,-19.531,11.719,-27.832,-22.949,78.613
1689188062.571,-4.883,4.883,-2.441,-17.578,-184.082
1689188062.575,-26.855,14.648,-29.297,-6.836,-190.430
1689188062.579,-30.273,4.395,-46.387,-0.977,-81.055
1689188062.583,-14.648,8.789,-19.043,11.719,22.461
1689188062.587,-47.852,25.391,-14.160,-25.391,5.371
1689188062.591,-40.527,29.785,-12.207,-44.922,148.926
1689188062.594,-1.953,23.438,-11.230,-47.363,324.219
1689188062.598,-2.930,16.602,-13.672,-28.809,-14.160
1689188062.602,6.836,14.160,-13.184,-10.742,-195.801
1689188062.606,0.488,29.785,-10.254,-19.531,-37.598
1689188062.610,-29.785,24.902,-12.695,-30.273,-142.090
1689188062.616,-1.953,20.020,-20.508,-31.738,-258.301
1689188062.620,-17.578,26.855,-18.066,-28.809,-173.340
1689188062.624,-36.133,16.113,-9.277,-33.691,-14.160
1689188062.628,-21.484,19.043,-2.930,-21.973,-54.688
1689188062.632,-54.199,15.625,-1.953,-28.809,-201.172
1689188062.636,-83.984,11.719,-5.859,-83.008,-69.824
1689188062.640,-105.469,17.090,-8.789,-101.074,252.441
1689188062.643,-98.633,3.418,-13.672,-106.934,116.699
1689188062.647,-106.445,-9.277,-11.719,-131.836,-187.500
1689188062.651,-132.324,-7.812,-18.066,-142.090,-173.828
1689188062.655,-120.605,-20.020,-15.625,-136.719,-125.488
1689188062.659,-157.715,-37.598,-20.508,-148.438,-188.477
1689188062.658,-155.273,-26.855,-24.902,-180.664,-96.191
1689188062.662,-158.203,-10.254,-16.602,-191.406,100.586
1689188062.666,-223.633,-19.043,-18.066,-217.285,-22.461
1689188062.670,-224.609,-20.020,-13.672,-233.398,-151.855
1689188062.674,-183.105,-18.555,-10.742,-208.496,-105.469
1689188062.678,-163.086,-27.832,-4.395,-175.293,123.047
1689188062.682,-173.340,-27.832,-6.836,-201.660,560.547
1689188062.685,-178.711,-27.344,-10.742,-234.375,253.418
1689188062.689,-180.176,-30.273,3.906,-211.914,-273.926
1689188062.693,-165.039,-31.738,12.207,-182.129,-248.047
1689188062.697,-118.652,-36.133,16.113,-153.320,-111.328
1689188062.701,-87.891,-27.832,12.695,-159.180,-103.027
1689188062.732,-124.023,-32.227,13.672,-162.598,-123.535
1689188062.736,-141.602,-39.062,24.414,-113.281,-156.250
1689188062.740,-104.492,-33.203,34.180,-94.727,-162.109
1689188062.744,-66.406,-39.062,33.691,-101.562,-28.320
1689188062.748,-56.641,-36.621,18.555,-84.961,32.227
1689188062.752,-60.059,-34.668,24.902,-74.219,187.500
1689188062.756,-22.461,-39.551,37.598,-45.898,136.719
1689188062.759,4.395,-36.133,30.762,-21.973,-147.949
1689188062.763,25.879,-28.320,22.949,-9.766,-117.188
1689188062.767,27.832,-17.578,24.902,9.766,71.289
1689188062.771,27.832,-12.695,31.738,28.320,-80.078
1689188062.775,60.547,-9.766,35.156,48.828,-212.891
1689188062.762,67.383,-6.836,40.039,64.941,-93.750
1689188062.766,56.152,-6.836,39.062,62.988,-29.297
1689188062.770,75.195,-7.324,37.109,68.359,-78.613
1689188062.774,81.543,-2.441,43.457,67.871,-72.754
1689188062.778,59.082,-0.977,46.875,62.988,94.238
1689188062.782,79.102,-5.859,36.621,85.449,90.332
1689188062.786,122.559,-39.551,24.902,84.961,-92.285
1689188062.789,118.652,-46.387,26.367,81.055,-28.320
1689188062.793,72.754,7.812,20.996,96.191,62.012
1689188062.797,42.480,22.461,5.371,78.613,-36.133
1689188062.801,51.270,-4.395,15.137,66.895,-172.363
1689188062.805,73.730,-5.859,27.832,76.172,-194.336
1689188062.809,93.750,9.766,21.973,91.309,203.613
1689188062.813,102.051,0.977,20.020,105.469,363.770
1689188062.817,67.383,-4.395,20.508,78.613,-85.938
1689188062.821,56.641,6.348,15.625,51.270,-206.543
1689188062.825,75.684,-2.930,16.113,51.270,-151.367
1689188062.829,67.383,-6.348,16.602,65.918,-41.016
1689188062.833,42.480,-9.766,23.438,58.105,18.066
1689188062.836,29.785,-24.414,20.508,52.246,-71.289
1689188062.840,38.086,-9.766,16.113,63.965,291.992
1689188062.844,50.781,-0.977,19.043,65.430,268.066
1689188062.848,69.824,-2.441,11.719,72.266,-145.020
1689188062.852,82.031,-10.254,21.484,69.824,-113.281
1689188062.852,72.266,9.277,17.578,59.570,-110.352
1689188062.856,33.691,34.668,4.395,74.219,-229.980
1689188062.860,45.410,22.949,20.996,55.664,-259.277
1689188062.864,63.477,22.949,28.809,40.039,-74.219
1689188062.868,42.480,25.391,20.996,46.875,60.547
1689188062.872,34.180,8.301,10.254,39.062,-10.254
1689188062.876,57.129,-12.695,5.371,27.344,-52.246
1689188062.879,48.828,12.207,7.812,58.594,169.434
1689188062.883,2.441,33.203,2.930,64.453,358.398
1689188062.887,51.758,29.297,11.230,23.926,23.926
1689188062.891,63.477,28.809,26.855,30.762,-83.496
1689188062.895,-11.230,32.227,31.250,32.715,61.523
1689188062.900,-10.742,31.738,39.551,34.668,-79.102
1689188062.904,41.992,15.625,35.156,45.898,-152.344
1689188062.908,33.691,7.324,20.996,24.902,-59.082
1689188062.912,6.836,11.719,26.855,10.742,-59.570
1689188062.916,20.020,8.789,34.668,21.484,-146.484
1689188062.920,12.695,4.395,38.574,32.715,-122.559
1689188062.924,29.297,1.953,44.434,55.664,8.789
1689188062.927,36.133,0.977,40.527,36.133,245.117
1689188062.931,18.066,-0.977,26.855,26.855,105.957
1689188062.935,18.066,0.488,19.043,28.809,-203.613
1689188062.939,-1.953,3.418,-6.836,6.348,-148.438
1689188062.943,-15.625,6.836,-13.184,19.531,-116.699
1689188062.944,0.000,-0.977,6.836,25.879,-94.238
1689188062.948,9.277,-10.254,13.672,13.184,-8.301
1689188062.952,5.371,-2.930,28.809,11.719,-7.812
1689188062.956,6.348,-2.930,38.086,22.949,7.324
1689188062.960,14.648,3.418,34.668,12.695,-34.668
1689188062.964,54.688,-1.465,16.113,-1.953,-34.180
1689188062.968,32.227,-4.395,7.324,14.160,206.543
1689188062.971,-22.461,4.395,3.906,22.461,504.883
1689188062.975,-19.531,4.395,-8.789,13.672,160.645
1689188062.979,-4.883,2.441,-11.230,13.184,-239.258
1689188062.983,7.812,4.395,-8.301,5.371,-183.594
1689188062.987,-3.418,1.953,-7.324,-3.418,-178.223
1689188063.002,-17.090,-6.836,-2.441,8.301,-227.539
1689188063.006,-10.742,-9.277,10.254,-1.953,-221.680
1689188063.010,-0.977,-15.625,6.348,-12.207,-177.734
1689188063.014,1.465,-20.508,5.371,-11.719,-51.758
1689188063.018,19.531,-11.230,24.414,-15.625,-48.828
1689188063.022,1.465,4.883,38.574,1.953,-65.430
1689188063.026,-12.695,-7.324,41.504,5.371,323.730
1689188063.029,22.949,-10.742,33.691,-2.441,242.188
1689188063.033,10.254,2.441,25.391,-3.906,-170.410
1689188063.037,-30.762,-11.719,20.508,-0.977,-80.566
1689188063.041,-28.809,-27.344,11.719,-9.277,-55.664
1689188063.045,-3.418,-21.973,7.324,-2.930,-196.289
1689188063.032,2.930,-12.695,-4.883,-3.906,-171.387
1689188063.036,9.277,-10.254,-12.207,0.488,-31.738
1689188063.040,3.906,-8.789,-3.906,21.484,14.648
1689188063.044,22.949,0.488,-2.930,22.461,-21.973
1689188063.048,0.488,-0.488,-6.348,0.488,-178.223
1689188063.052,-44.922,-8.789,3.418,-6.348,70.312
1689188063.056,-16.602,-5.371,12.695,6.348,267.090
1689188063.059,7.812,3.418,10.742,-1.465,8.301
1689188063.063,20.020,12.207,10.742,3.906,-157.227
1689188063.067,8.789,11.719,16.113,14.160,-24.414
1689188063.071,-15.625,5.371,13.184,-4.395,165.039
1689188063.075,-3.906,-1.953,1.465,-18.066,-80.566
1689188063.092,0.977,-3.906,-4.883,-8.301,-125.000
1689188063.096,-6.836,1.465,-1.465,-1.465,-77.637
1689188063.100,-23.438,5.371,3.418,-13.184,-154.297
1689188063.104,-33.691,-2.441,-3.906,-17.578,-224.121
1689188063.108,-20.508,-3.418,-9.277,-4.883,-100.098
1689188063.112,3.906,-6.836,-2.441,0.000,111.328
1689188063.116,-3.418,-20.020,9.766,-11.719,98.145
1689188063.119,-38.086,-9.766,13.672,-25.391,-84.473
1689188063.123,-33.691,0.977,7.324,-21.973,-60.059
1689188063.127,-15.137,-6.348,9.766,-14.648,294.922
1689188063.131,0.977,-6.348,13.184,-36.133,149.902
1689188063.135,-20.508,-9.277,0.000,-49.805,-166.016
1689188063.153,-29.785,-17.578,5.371,-48.828,-151.367
1689188063.157,-43.945,-14.160,13.184,-36.621,-156.738
1689188063.161,-61.523,-6.836,3.418,-16.602,-193.848
1689188063.165,-29.297,4.883,13.184,-20.020,-44.434
1689188063.169,-19.043,7.812,17.578,-26.855,215.820
1689188063.173,-28.809,2.441,9.766,-15.137,136.719
1689188063.177,-23.438,-1.953,17.578,-10.742,-80.078
1689188063.180,-11.230,0.977,20.508,-16.602,-169.922
1689188063.184,-0.977,0.977,19.531,0.488,133.789
1689188063.188,-12.695,-3.418,11.719,5.371,272.461
1689188063.192,-42.969,5.371,7.812,-25.879,-83.496
1689188063.196,-40.527,3.906,19.043,-26.367,-96.680
1689188063.183,-18.555,-5.371,12.695,-23.438,3.906
1689188063.187,-25.879,-3.906,5.371,-38.574,-51.270
1689188063.191,-20.996,-5.859,18.066,-26.367,-144.043
1689188063.195,1.465,8.789,11.719,1.465,-124.023
1689188063.199,-0.488,23.438,-15.137,-1.953,-89.355
1689188063.203,-40.039,1.465,-13.184,-31.738,-9.766
1689188063.207,-34.180,-9.277,-9.277,-50.781,1.953
1689188063.210,-23.926,-4.883,-18.066,-41.504,19.531
1689188063.214,-66.406,23.926,-17.578,-50.781,51.270
1689188063.218,-57.129,40.527,-11.719,-56.641,-143.066
1689188063.222,-27.832,12.695,-15.137,-47.363,-242.676
1689188063.226,-2.441,11.719,-13.184,-37.109,-30.273
1689188063.229,4.395,33.203,-14.648,-37.598,259.766
1689188063.233,-33.691,33.691,-21.484,-51.270,103.516
1689188063.237,-55.664,14.648,-17.090,-53.223,-133.789
1689188063.241,-48.828,-10.254,-24.414,-59.082,59.082
1689188063.245,10.742,-5.371,-32.227,-52.734,179.199
1689188063.249,6.348,6.836,-5.859,-32.715,35.156
1689188063.253,-52.246,3.906,-4.395,-20.020,7.324
1689188063.256,-30.762,3.906,-19.531,-28.320,94.727
1689188063.260,-8.789,12.695,-8.789,-47.852,158.203
1689188063.264,-4.395,28.320,-2.930,-32.715,-132.324
1689188063.268,7.324,22.461,-7.324,-21.973,-210.449
1689188063.272,-6.348,20.508,6.348,-22.949,-73.730
1689188063.274,23.438,40.527,21.973,-18.066,-84.961
1689188063.278,32.715,38.574,-2.441,-15.137,-192.383
1689188063.282,-38.574,30.273,-7.812,-3.906,-187.012
1689188063.286,-29.785,33.691,-9.277,-2.930,-62.500
1689188063.290,-18.066,26.367,-18.066,-20.996,-7.812
1689188063.294,-35.156,33.203,-10.742,-46.387,-0.488
1689188063.298,-6.836,47.363,14.648,-49.316,-58.594
1689188063.301,9.766,38.086,23.926,-8.789,184.570
1689188063.305,-21.484,37.109,36.133,-2.930,180.176
1689188063.309,-20.996,53.223,31.738,-18.555,-198.730
1689188063.313,-14.160,18.066,-6.836,-17.090,-170.410
1689188063.317,-20.020,3.418,12.207,-13.184,-154.785
1689188063.317,-7.812,64.453,46.875,-1.465,-220.215
1689188063.321,19.531,41.992,91.309,1.465,-153.320
1689188063.325,42.969,-5.859,122.559,16.113,-61.523
1689188063.329,21.973,28.320,116.699,21.973,-17.578
1689188063.333,-18.066,33.203,139.160,29.297,-30.273
1689188063.337,-23.926,10.742,117.188,-8.789,-35.156
1689188063.341,-2.930,14.160,75.195,-27.832,215.332
1689188063.344,10.742,13.672,71.289,2.441,561.523
1689188063.348,-4.395,14.648,60.547,-1.465,226.074
1689188063.352,36.621,33.691,61.523,-18.066,-233.887
1689188063.356,13.672,36.133,78.613,-18.066,-225.586
1689188063.360,-55.176,20.020,97.656,-1.953,-167.480
1689188063.364,-39.062,19.531,96.191,-11.719,-137.695
1689188063.368,-34.180,21.973,95.215,-10.254,-127.441
1689188063.372,-46.875,19.531,89.844,3.906,-111.816
1689188063.376,-29.297,12.207,91.309,-12.695,-119.629
1689188063.380,6.836,14.648,88.379,-11.719,-120.605
1689188063.384,5.859,9.766,96.680,1.953,-10.742
1689188063.388,13.184,13.672,114.258,10.254,320.801
1689188063.391,3.418,6.836,117.188,0.000,176.758
1689188063.395,-24.414,3.418,117.676,-11.719,-179.688
1689188063.399,-33.203,-3.906,105.957,-17.090,-33.203
1689188063.403,-18.555,-26.855,101.562,-20.996,127.930
1689188063.407,6.348,-28.320,97.168,-31.250,-78.125
1689188063.422,0.977,-19.043,81.543,-31.738,-225.586
1689188063.426,-21.973,-20.020,85.938,-38.574,-175.293
1689188063.430,-45.410,-25.391,72.266,-25.879,-127.441
1689188063.434,-38.574,-32.715,67.383,0.000,0.977
1689188063.438,-29.785,-42.969,54.688,-29.297,-67.383
1689188063.442,-28.809,-50.293,39.062,-52.246,86.914
1689188063.446,-15.625,-43.945,48.340,-46.387,403.809
1689188063.449,-19.531,-42.480,41.016,-41.016,46.387
1689188063.453,-36.133,-41.016,39.551,-22.461,-128.418
1689188063.457,-42.969,-27.832,34.180,-24.414,-7.812
1689188063.461,-41.992,-44.922,41.016,-35.156,-97.656
1689188063.465,-52.734,-64.941,29.297,-54.688,-107.422
1689188063.456,-65.918,-70.312,25.879,-60.547,-101.562
1689188063.460,-54.688,-59.082,26.367,-39.551,-63.477
1689188063.464,-33.203,-49.316,15.137,-47.852,-53.711
1689188063.468,-51.270,-60.059,4.395,-64.453,-190.430
1689188063.472,-72.754,-53.711,34.668,-65.430,-179.688
1689188063.476,-52.246,-48.828,33.691,-46.387,-75.195
1689188063.480,-8.301,-47.363,-38.086,-43.457,-12.207
1689188063.483,-19.043,-46.387,-48.828,-57.129,-116.699
1689188063.487,-69.824,-43.457,-25.391,-51.270,-79.102
1689188063.491,-88.867,-44.434,-4.883,-43.457,20.508
1689188063.495,-63.965,-48.828,17.578,-41.504,-115.234
1689188063.499,21.973,-47.852,12.695,-35.156,-159.180
1689188063.513,9.766,-48.828,13.184,-39.062,64.453
1689188063.517,-94.238,-50.781,12.695,-44.922,220.215
1689188063.521,-83.984,-53.223,4.395,-47.852,-51.758
1689188063.525,-38.086,-49.316,9.277,-37.598,-103.027
1689188063.529,-16.602,-46.387,17.578,-14.160,177.246
1689188063.533,-17.090,-46.875,13.184,-19.043,446.289
1689188063.537,-9.766,-46.387,-13.184,-43.457,114.746
1689188063.540,-35.156,-46.875,-17.090,-39.551,-270.996
1689188063.544,-53.711,-41.016,-19.531,-28.809,-30.762
1689188063.548,-25.879,-34.668,-17.578,-16.602,79.590
1689188063.552,11.230,-24.902,0.488,-14.160,-111.816
1689188063.556,18.555,-17.090,0.000,-12.695,-120.117
1689188063.559,-25.879,-16.113,-6.836,2.930,-134.277
1689188063.563,-28.809,-14.648,-10.254,11.719,-158.203
1689188063.567,-9.766,-21.973,-22.461,14.648,-143.555
1689188063.571,-6.836,-33.691,-25.879,11.230,-45.898
1689188063.575,-16.113,-36.133,-27.832,-11.719,90.820
1689188063.579,-25.391,-37.109,-35.645,-31.738,-40.039
1689188063.583,-31.250,-38.574,-26.855,-28.320,-108.887
1689188063.586,-41.992,-36.133,-15.137,-9.277,-45.410
1689188063.590,-45.898,-39.062,-21.973,-3.418,244.629
1689188063.594,-33.691,-38.574,-8.301,-10.254,165.527
1689188063.598,-13.672,-33.691,13.672,-20.996,-197.754
1689188063.602,-2.441,-34.180,-23.438,-31.250,-78.613
1689188063.602,-20.508,-26.367,-30.762,-16.602,27.344
1689188063.606,-5.859,-20.508,-7.324,-2.930,-64.453
1689188063.610,-12.695,-24.414,-24.902,-5.859,-130.371
1689188063.614,-64.941,-26.855,-21.484,-13.184,2.441
1689188063.618,-64.941,-31.738,-23.438,-30.273,39.551
1689188063.622,-45.410,-39.551,-29.785,-36.621,-8.789
1689188063.626,-36.133,-36.621,-38.086,-39.062,51.758
1689188063.629,-5.371,-26.367,-60.059,-22.949,200.684
1689188063.633,-21.973,-28.320,-55.176,-33.691,472.656
1689188063.637,-79.102,-36.133,-56.641,-57.617,115.234
1689188063.641,-67.871,-46.387,-58.594,-41.992,-277.832
1689188063.645,-58.105,-50.781,-62.012,-42.969,-114.258
1689188063.649,-36.133,-45.898,-70.801,-42.969,-98.145
1689188063.653,-35.156,-48.340,-67.383,-34.668,-225.586
1689188063.657,-43.457,-48.828,-53.711,-50.781,-255.371
1689188063.661,-45.410,-47.363,-49.805,-49.805,-198.242
1689188063.665,-51.758,-48.828,-53.223,-29.785,-139.160
1689188063.669,-39.062,-31.250,-52.246,-32.227,-62.500
1689188063.673,-41.992,-26.367,-55.664,-48.340,5.371
1689188063.676,-45.410,-35.645,-60.547,-47.363,151.855
1689188063.680,-30.762,-42.969,-59.082,-50.293,25.391
1689188063.684,-31.738,-49.805,-58.594,-65.430,-138.672
1689188063.688,-43.945,-53.711,-57.129,-42.480,-0.488
1689188063.692,-36.133,-53.711,-52.246,-38.574,4.395
1689188063.692,-50.293,-50.293,-49.316,-63.965,-193.848
1689188063.696,-64.941,-51.758,-55.664,-55.664,-225.098
1689188063.700,-38.574,-62.012,-59.570,-45.898,-82.031
1689188063.704,-27.344,-58.105,-62.988,-36.621,85.449
1689188063.708,-41.992,-48.828,-58.594,-49.316,82.520
1689188063.712,-52.246,-49.805,-53.711,-70.801,-38.086
1689188063.716,-58.594,-48.828,-52.734,-65.918,154.297
1689188063.719,-46.387,-49.316,-44.434,-51.270,435.059
1689188063.723,-28.809,-53.223,-35.156,-52.734,92.773
1689188063.727,-13.672,-63.477,-32.227,-53.711,-161.621
1689188063.731,-35.156,-64.941,-30.762,-48.828,-179.199
1689188063.735,-57.617,-53.223,-25.391,-57.617,-172.363
1689188063.740,-26.855,-49.805,-23.438,-47.852,-64.941
1689188063.744,-7.812,-27.832,-9.766,-19.531,-64.453
1689188063.748,-13.672,-9.766,1.465,-20.996,15.137
1689188063.752,-25.391,-20.996,-0.977,-28.320,-49.316
1689188063.756,-33.691,-28.320,-1.465,-16.113,-184.082
1689188063.760,-31.738,-35.645,-8.789,-9.277,-56.152
1689188063.764,-27.832,-48.340,-25.879,-51.270,255.371
1689188063.767,-48.828,-54.199,-40.039,-66.895,88.379
1689188063.771,-32.715,-54.199,-49.805,-47.363,-253.418
1689188063.775,8.301,-53.711,-55.176,-31.738,-156.738
1689188063.779,-36.133,-54.199,-55.176,-11.230,-41.992
1689188063.783,-49.805,-62.500,-62.500,-34.668,-90.820
1689188063.798,-25.391,-55.664,-69.336,-63.965,-94.727
1689188063.802,-44.434,-42.969,-72.266,-60.059,-84.961
1689188063.806,-49.316,-51.270,-87.402,-59.570,-66.406
1689188063.810,-42.969,-53.223,-95.703,-52.246,-52.734
1689188063.814,-30.762,-57.617,-94.727,-56.641,-48.340
1689188063.818,-41.504,-61.523,-91.309,-60.547,140.625
1689188063.822,-62.500,-56.641,-98.633,-38.574,498.535
1689188063.825,-46.875,-52.734,-102.539,-35.156,330.566
1689188063.829,-43.457,-49.805,-92.773,-55.176,-162.598
1689188063.833,-44.922,-51.758,-91.797,-44.922,-144.043
1689188063.837,-41.992,-53.711,-90.332,-32.715,-75.684
1689188063.841,-28.320,-52.734,-74.219,-37.109,-180.176
1689188063.842,-34.180,-57.617,-66.895,-53.223,-182.129
1689188063.846,-43.945,-49.316,-68.848,-48.340,-127.930
1689188063.850,-24.414,-48.340,-69.336,-39.062,-106.445
1689188063.854,-21.973,-48.340,-70.312,-46.875,-130.859
1689188063.858,-49.805,-46.875,-69.336,-52.734,-73.730
1689188063.862,-56.152,-38.574,-59.570,-46.875,-32.227
1689188063.866,-46.875,-32.227,-46.387,-61.035,-96.191
1689188063.869,-37.109,-41.504,-34.180,-62.988,-86.426
1689188063.873,-34.180,-51.758,-26.855,-43.457,-28.320
1689188063.877,-46.875,-55.664,-30.273,-41.504,304.688
1689188063.881,-40.527,-54.688,-37.598,-38.574,99.609
1689188063.885,-53.223,-64.941,-45.410,-27.344,-289.551
1689188063.887,-46.875,-66.895,-52.246,-38.086,-143.555
1689188063.891,-27.344,-63.477,-58.105,-50.293,-110.352
1689188063.895,-59.082,-70.801,-63.965,-57.129,-187.012
1689188063.899,-71.289,-65.918,-69.336,-69.824,-95.215
1689188063.903,-51.758,-47.852,-58.594,-34.668,125.000
1689188063.907,-39.062,-49.805,-55.664,-15.137,207.031
1689188063.911,-38.086,-51.758,-72.266,-43.945,121.582
1689188063.914,-56.641,-50.781,-76.660,-66.895,-24.902
1689188063.918,-47.363,-49.316,-82.520,-50.293,66.895
1689188063.922,3.418,-53.223,-80.078,-5.859,288.086
1689188063.926,15.625,-64.453,-65.430,0.977,-31.250
1689188063.930,-13.184,-65.918,-69.336,-31.250,-192.871
1689188063.934,-61.035,-61.523,-68.359,-34.180,-78.613
1689188063.938,-77.148,-68.359,-61.523,-30.762,-115.723
1689188063.942,-46.387,-76.172,-66.895,-28.809,-216.309
1689188063.946,-19.043,-71.289,-59.082,-2.930,-145.508
1689188063.950,-25.391,-62.012,-45.898,-1.465,-43.945
1689188063.954,-34.180,-55.176,-32.227,-10.254,3.906
1689188063.958,-27.832,-51.758,-34.180,-9.277,57.617
1689188063.961,-23.926,-50.293,-40.039,1.465,-17.090
1689188063.965,-8.789,-42.969,-32.715,26.855,171.387
1689188063.969,1.953,-44.434,-39.062,16.602,171.875
1689188063.973,-10.254,-42.969,-44.922,2.930,-128.418
1689188063.977,-6.836,-38.574,-42.480,1.953,-80.078
1689188063.977,34.180,-43.945,-56.641,20.996,-0.977
1689188063.981,9.277,-55.176,-54.199,27.832,-114.746
1689188063.985,-36.621,-57.617,-46.387,-0.488,-147.949
1689188063.989,-36.133,-52.734,-52.246,3.906,3.418
1689188063.993,-38.086,-57.617,-47.852,-5.859,31.250
1689188063.997,-11.230,-54.688,-44.922,-22.461,-107.422
1689188064.001,-1.465,-43.945,-40.527,-17.578,-142.090
1689188064.004,-20.508,-56.641,-32.227,-1.953,97.656
1689188064.008,-25.879,-64.453,-31.250,8.301,373.047
1689188064.012,-28.320,-54.688,-34.180,1.953,-26.367
1689188064.016,-29.785,-45.898,-38.086,-0.977,-239.746
1689188064.020,-15.137,-32.227,-40.039,5.859,-138.672
1689188064.025,0.977,-34.668,-43.457,-10.254,-46.875
1689188064.029,-2.441,-45.410,-55.664,-24.902,-73.730
1689188064.033,-21.973,-50.781,-71.289,-29.785,-131.348
1689188064.037,-57.129,-68.359,-75.195,-44.434,-40.527
1689188064.041,-69.824,-76.660,-76.660,-55.176,-88.379
1689188064.045,-57.129,-71.289,-74.707,-41.992,-86.914
1689188064.049,-59.570,-74.219,-70.801,-30.273,26.855
1689188064.052,-62.988,-77.148,-73.242,-49.316,220.215
1689188064.056,-58.105,-65.430,-73.730,-80.078,86.426
1689188064.060,-63.965,-63.965,-71.777,-81.543,-174.805
1689188064.064,-63.477,-76.172,-75.195,-61.035,-58.594
1689188064.068,-52.246,-76.660,-74.219,-50.293,-16.113
1689188064.069,-47.363,-68.848,-63.965,-62.012,-131.348
1689188064.073,-57.129,-56.641,-63.477,-68.848,-247.559
1689188064.077,-67.871,-56.152,-62.988,-49.316,-47.852
1689188064.081,-50.293,-57.617,-61.523,-38.086,128.906
1689188064.085,-41.016,-42.969,-57.129,-40.039,18.066
1689188064.089,-43.945,-35.645,-46.387,-42.969,17.090
1689188064.093,-32.715,-31.738,-33.691,-21.484,180.176
1689188064.096,-10.742,-26.367,-32.715,-22.949,431.152
1689188064.100,12.695,-31.738,-34.668,-25.879,166.504
1689188064.104,-0.977,-40.527,-20.508,-26.367,-145.508
1689188064.108,-41.504,-43.945,-18.066,-52.246,-123.047
1689188064.112,-53.223,-41.992,-30.762,-42.480,-197.266
1689188064.114,-41.016,-48.340,-29.785,-18.066,-250.977
1689188064.118,-16.113,-52.734,-28.320,-7.812,-163.574
1689188064.122,8.789,-47.852,-28.809,20.508,-35.645
1689188064.126,2.930,-51.758,-32.227,23.438,-41.992
1689188064.130,-7.812,-59.570,-46.387,14.160,-94.727
1689188064.134,15.137,-61.035,-46.875,15.137,-16.602
1689188064.138,-7.324,-50.293,-41.016,8.789,280.762
1689188064.141,-16.113,-45.410,-27.832,34.180,171.875
1689188064.145,-0.488,-40.039,-23.926,36.621,-188.477
1689188064.149,-11.230,-38.574,-28.809,1.953,-177.734
1689188064.153,-12.695,-46.387,-22.949,-7.324,-38.574
1689188064.157,-14.160,-47.852,-20.508,-23.438,-141.602
1689188064.172,-5.371,-53.223,-31.738,-27.832,-175.781
1689188064.176,-17.090,-53.711,-45.410,-16.602,-96.191
1689188064.180,-43.457,-51.758,-47.363,-17.578,-137.207
1689188064.184,-36.621,-55.664,-55.176,-31.250,-84.473
1689188064.188,-32.227,-59.570,-65.430,-29.297,-104.004
1689188064.192,-14.160,-57.129,-62.500,-6.348,125.977
1689188064.196,-6.836,-53.223,-67.871,-4.883,458.984
1689188064.199,-35.156,-54.688,-78.125,-34.668,157.715
1689188064.203,-51.758,-59.082,-76.660,-49.805,-149.414
1689188064.207,-27.344,-62.500,-73.730,-41.016,-28.809
1689188064.211,-10.254,-63.965,-68.848,-29.297,51.758
1689188064.215,-32.227,-59.570,-56.152,-20.508,-126.953
1689188064.217,-39.062,-44.922,-46.387,-18.066,-164.062
1689188064.221,-46.875,-25.879,-41.016,-19.531,-166.992
1689188064.225,-28.320,-19.043,-40.527,-26.855,-144.531
1689188064.229,-5.371,-26.855,-45.410,-23.926,-125.977
1689188064.233,-14.160,-30.273,-46.875,-12.207,-74.707
1689188064.237,-31.738,-29.785,-48.828,-20.996,48.340
1689188064.241,-48.340,-28.809,-49.316,-55.176,-8.789
1689188064.244,-39.062,-22.949,-42.969,-56.641,-129.883
1689188064.248,18.555,-22.949,-39.062,-24.414,-104.980
1689188064.252,12.207,-29.297,-44.922,-9.766,219.238
1689188064.256,-50.781,-35.645,-48.340,-16.602,194.824
1689188064.260,-61.523,-29.785,-47.852,-33.203,-168.457
1689188064.264,-52.246,-34.668,-47.852,-29.785,-88.379
1689188064.268,-23.926,-32.715,-46.387,-20.996,27.832
1689188064.272,-10.254,-9.277,-39.551,-19.043,-78.125
1689188064.276,-16.113,-10.742,-42.969,-16.113,-88.867
1689188064.280,-22.461,-17.090,-47.852,-14.648,98.633
1689188064.284,-24.902,-22.461,-42.969,-32.715,171.387
1689188064.288,-16.113,-40.527,-39.062,-34.180,39.551
1689188064.291,-21.973,-39.551,-30.762,-23.926,-88.867
1689188064.295,-33.691,-34.668,-23.926,-31.738,38.574
1689188064.299,-53.711,-42.480,-27.832,-47.852,191.895
1689188064.303,-52.246,-48.340,-27.344,-59.570,-133.789
1689188064.307,-27.832,-57.129,-18.555,-54.199,-223.633
1689188064.309,-14.160,-52.734,-26.367,-52.246,-3.418
1689188064.313,-32.715,-39.062,-37.598,-41.016,44.434
1689188064.317,-46.387,-32.227,-26.855,-41.504,-163.086
1689188064.321,-28.809,-35.645,-24.414,-48.828,-198.242
1689188064.325,-20.020,-36.133,-25.391,-34.180,-20.996
1689188064.329,-20.996,-43.457,-22.461,-22.949,59.570
1689188064.333,-27.832,-54.199,-29.785,-25.879,53.711
1689188064.336,-39.551,-46.387,-29.297,-41.016,-12.207
1689188064.340,-47.852,-42.969,-33.691,-42.480,214.355
1689188064.344,-21.973,-49.316,-41.504,-39.062,229.492
1689188064.348,-2.441,-59.082,-33.691,-30.762,-130.371
1689188064.352,-14.648,-50.293,-28.320,-19.531,-110.352
1689188064.353,-51.758,-36.133,-24.414,-53.711,-92.773
1689188064.357,-77.148,-49.316,-15.137,-69.336,-197.754
1689188064.361,-65.430,-44.922,-21.973,-46.387,-218.262
1689188064.365,-40.039,-35.645,-28.809,-47.363,128.418
1689188064.369,-42.969,-41.504,-16.113,-62.012,325.684
1689188064.373,-66.895,-37.598,-5.371,-64.941,54.199
1689188064.377,-63.965,-31.738,-1.953,-62.012,-88.867
1689188064.380,-48.828,-31.738,-1.953,-52.246,39.551
1689188064.384,-39.551,-43.945,-9.766,-40.039,330.078
1689188064.388,-35.156,-49.316,-16.602,-51.270,92.773
1689188064.392,-41.504,-30.273,-9.277,-54.199,-209.961
1689188064.396,-29.785,-24.414,-7.324,-48.340,-166.016
1689188064.399,-36.133,-33.203,-14.648,-57.129,-190.918
1689188064.403,-56.641,-40.039,-26.367,-61.035,-190.430
1689188064.407,-41.992,-40.527,-29.297,-41.016,-97.168
1689188064.411,-48.340,-35.156,-23.438,-40.527,-51.758
1689188064.415,-63.965,-36.133,-29.297,-59.570,-83.984
1689188064.419,-54.199,-36.133,-29.785,-54.199,-59.570
1689188064.423,-46.875,-28.320,-28.809,-51.270,22.949
1689188064.426,-16.113,-30.273,-38.574,-51.270,407.227
1689188064.430,-38.574,-39.062,-46.875,-56.152,325.684
1689188064.434,-50.781,-41.504,-47.852,-52.246,-221.191
1689188064.438,-38.574,-29.297,-49.805,-60.059,-210.938
1689188064.442,-48.828,-22.461,-49.316,-51.758,-68.359
1689188064.442,-28.320,-24.414,-38.574,-35.645,-87.402
1689188064.446,-16.602,-24.414,-32.227,-41.992,-194.336
1689188064.450,-34.180,-29.785,-34.180,-33.203,-167.480
1689188064.454,-53.223,-29.297,-35.156,-30.762,-81.543
1689188064.458,-45.410,-28.809,-26.367,-30.273,-123.535
1689188064.462,-47.363,-32.227,-40.039,-36.133,-117.188
1689188064.466,-57.129,-34.668,-60.059,-52.246,119.141
1689188064.469,-44.922,-35.156,-56.152,-50.781,378.418
1689188064.473,-37.598,-33.691,-52.734,-44.434,114.746
1689188064.477,-40.527,-36.133,-50.293,-45.410,-195.801
1689188064.481,-10.742,-39.062,-49.316,-41.016,-41.016
1689188064.485,-6.348,-34.668,-44.434,-35.156,-33.203
1689188064.504,-40.527,-33.203,-56.641,-41.504,-217.773
1689188064.508,-48.828,-42.969,-74.219,-46.875,-254.395
1689188064.512,-23.438,-52.734,-69.336,-44.434,-126.953
1689188064.516,-17.090,-45.410,-71.289,-43.457,-44.922
1689188064.520,-52.734,-36.133,-82.520,-46.875,-92.285
1689188064.524,-67.383,-35.156,-85.938,-54.688,-20.020
1689188064.528,-38.574,-35.645,-85.449,-63.477,290.527
1689188064.531,-25.391,-38.574,-87.891,-49.805,97.168
1689188064.535,-41.016,-44.922,-88.867,-50.293,-151.367
1689188064.539,-36.621,-47.363,-87.891,-66.406,19.043
1689188064.543,-57.129,-49.316,-83.008,-62.500,66.406
1689188064.547,-85.938,-58.594,-71.777,-61.523,-136.719
1689188064.533,-62.500,-54.688,-53.223,-66.895,-257.812
1689188064.537,-36.133,-42.480,-41.992,-54.199,-60.547
1689188064.541,-34.180,-41.016,-50.293,-47.363,79.102
1689188064.545,-53.711,-47.363,-45.410,-52.734,-47.363
1689188064.549,-54.688,-50.781,-27.344,-43.945,-162.598
1689188064.553,-9.766,-33.203,-28.320,-38.574,-77.637
1689188064.557,-11.719,-24.414,-31.738,-33.691,30.762
1689188064.560,-49.805,-28.809,-31.738,-46.387,-56.641
1689188064.564,-61.523,-20.996,-43.457,-77.637,-154.297
1689188064.568,-46.875,-19.043,-49.805,-67.871,26.855
1689188064.572,-32.227,-23.438,-45.410,-64.941,314.453
1689188064.576,-23.926,-17.578,-44.922,-69.824,23.438
1689188064.592,-22.949,-14.160,-38.574,-56.152,-95.215
1689188064.596,-38.574,-22.949,-32.227,-49.316,35.156
1689188064.600,-44.434,-24.902,-31.250,-48.828,-105.957
1689188064.604,-40.039,-23.438,-37.598,-46.387,-225.098
1689188064.608,-27.832,-29.297,-50.781,-36.621,-85.938
1689188064.612,-13.672,-23.926,-52.246,-27.832,205.078
1689188064.616,6.348,-7.324,-41.504,-26.855,97.656
1689188064.619,-1.953,0.000,-20.996,-38.574,-218.262
1689188064.623,-44.434,-7.324,-9.277,-44.922,-187.012
1689188064.627,-35.156,-11.719,-7.324,-28.809,110.352
1689188064.631,-25.391,-17.578,-5.859,-35.156,24.414
1689188064.635,-23.438,-34.668,-18.555,-54.199,-157.227
1689188064.637,-28.809,-39.062,-34.180,-61.523,-119.629
1689188064.641,-24.902,-31.738,-39.551,-63.965,-115.234
1689188064.645,-12.207,-36.133,-42.480,-43.457,-157.227
1689188064.649,-28.809,-39.062,-42.969,-19.531,-114.746
1689188064.653,-17.578,-32.227,-29.297,-20.020,193.359
1689188064.657,-43.945,-36.621,-30.273,-36.133,285.645
1689188064.661,-62.012,-43.945,-36.133,-48.340,-38.086
1689188064.664,-37.598,-48.340,-34.180,-32.227,-186.035
1689188064.668,-1.465,-45.410,-28.809,-23.926,68.848
1689188064.672,20.020,-22.949,-23.438,-28.809,220.703
1689188064.676,-14.648,-27.832,-25.391,-27.344,-118.652
1689188064.680,-35.156,-45.410,-25.879,-34.180,-188.477
1689188064.684,-30.762,-30.273,-26.367,-30.273,-125.977
1689188064.688,-26.367,-19.531,-26.855,-33.203,-90.820
1689188064.692,-3.418,-24.414,-19.531,-27.832,-48.828
1689188064.696,-12.207,-27.832,-14.160,-20.508,-83.984
1689188064.700,-53.711,-22.461,-3.906,-19.531,-104.004
1689188064.704,-21.973,-22.461,9.766,-20.996,-64.941
1689188064.708,11.719,-20.996,9.277,-14.648,-16.602
1689188064.711,7.324,-14.648,7.324,-15.137,37.109
1689188064.715,-2.441,-19.531,3.418,-12.695,344.727
1689188064.719,-21.484,-31.250,-5.371,-18.066,237.305
1689188064.723,8.301,-27.344,-4.883,-22.461,-191.895
1689188064.727,17.090,-26.367,-0.977,-6.836,-113.281
1689188064.727,6.348,-23.438,3.418,-2.441,-65.430
1689188064.731,-15.137,-20.020,2.930,-3.418,-217.285
1689188064.735,-42.969,-31.250,-5.371,-8.301,-287.598
1689188064.739,-15.625,-40.527,-8.301,-6.348,-117.676
1689188064.743,-1.953,-49.316,-13.184,-1.465,-53.711
1689188064.747,-1.465,-51.758,-25.879,-8.789,-71.289
1689188064.751,-10.742,-49.316,-31.250,-8.789,-57.617
1689188064.754,-31.738,-48.340,-40.039,-19.531,0.000
1689188064.758,-31.250,-46.875,-48.828,-20.020,357.422
1689188064.762,12.695,-37.598,-34.668,-12.695,229.004
1689188064.766,12.695,-36.621,-30.273,-7.324,-48.340
1689188064.770,-34.668,-46.387,-35.156,1.465,-40.039
1689188064.774,-39.062,-43.457,-37.598,-8.301,-114.258
1689188064.778,-26.367,-39.062,-38.574,-13.184,-187.988
1689188064.782,-12.695,-51.270,-38.574,-10.254,-116.211
1689188064.786,6.348,-53.223,-47.852,-14.648,-21.484
1689188064.790,-5.859,-47.852,-54.199,-11.719,7.324
1689188064.794,-51.758,-42.969,-49.805,-27.344,-52.734
1689188064.798,-60.547,-25.391,-44.922,-48.340,-25.879
1689188064.801,-35.156,-21.484,-45.410,-25.879,265.137
1689188064.805,-10.254,-27.832,-51.270,-24.902,157.715
1689188064.809,-15.625,-23.438,-56.152,-37.109,-140.137
1689188064.813,-26.367,-27.344,-62.500,-38.086,-49.316
1689188064.817,-31.738,-30.273,-63.477,-39.551,-15.625
1689188064.817,-29.297,-25.879,-59.082,-36.621,-148.438
1689188064.821,-11.230,-26.855,-67.383,-31.738,-156.250
1689188064.825,-9.766,-31.738,-60.059,-33.691,-3.906
1689188064.829,-26.855,-39.062,-44.434,-38.574,55.664
1689188064.833,-19.043,-29.297,-48.340,-26.367,-66.895
1689188064.837,-11.719,-24.902,-51.270,-26.367,-55.664
1689188064.841,-10.742,-33.691,-51.270,-14.648,157.227
1689188064.844,-8.789,-33.203,-56.152,-7.812,387.695
1689188064.848,-20.020,-20.020,-52.246,-39.551,60.059
1689188064.852,-31.738,-24.902,-44.922,-44.922,-299.316
1689188064.856,-35.156,-35.645,-44.922,-23.438,-194.824
1689188064.860,-22.461,-32.715,-38.086,-19.531,-78.125
1689188064.865,-18.555,-31.738,-21.484,-24.902,-81.543
1689188064.869,-33.203,-26.855,0.000,-37.598,-118.164
1689188064.873,-33.203,-25.391,8.789,-45.410,-48.340
1689188064.877,-31.250,-21.973,15.137,-27.832,-104.980
1689188064.881,-37.109,-30.762,20.020,-22.461,-188.965
1689188064.885,-4.395,-42.969,21.484,-30.762,-37.109
1689188064.889,-7.812,-42.480,13.672,-32.715,228.516
1689188064.892,-51.758,-47.852,1.953,-36.621,55.664
1689188064.896,-44.922,-42.969,-2.930,-35.156,-238.281
1689188064.900,-13.672,-34.180,1.465,-25.879,-120.605
1689188064.904,-29.297,-29.297,9.766,-21.973,19.531
1689188064.908,-43.457,-28.320,6.348,-34.180,-63.965
1689188064.908,-42.480,-35.156,2.441,-40.039,-193.848
1689188064.912,-34.668,-40.039,-4.395,-45.898,-116.211
1689188064.916,-22.461,-42.480,-15.625,-47.852,-49.316
1689188064.920,-17.090,-45.410,-20.996,-36.621,-20.996
1689188064.924,-25.391,-41.504,-30.762,-47.363,34.668
1689188064.928,-23.926,-40.527,-36.133,-60.059,112.793
1689188064.932,-38.574,-54.688,-23.438,-51.270,476.074
1689188064.935,-46.875,-53.223,-16.602,-47.852,310.059
1689188064.939,-13.672,-46.387,-20.996,-41.992,-132.812
1689188064.943,-29.785,-41.992,-19.531,-43.457,-114.258
1689188064.947,-44.922,-26.855,-21.484,-51.758,-146.484
1689188064.951,-16.113,-25.391,-25.879,-45.410,-221.191
1689188064.967,-27.832,-34.180,-26.367,-40.039,-180.176
1689188064.971,-39.062,-38.574,-23.438,-34.668,-79.590
1689188064.975,-39.062,-33.203,-28.809,-41.016,-59.082
1689188064.979,-51.758,-30.273,-34.180,-46.875,-137.695
1689188064.983,-51.758,-26.367,-22.461,-25.391,-133.301
1689188064.987,-17.578,-18.066,-12.695,-5.371,51.758
1689188064.991,22.461,-15.625,-28.320,-21.484,76.172
1689188064.994,0.977,-19.531,-37.598,-29.297,31.738
1689188064.998,-20.996,-33.203,-20.508,-7.324,-19.043
1689188065.002,-21.973,-41.992,-20.020,-31.738,187.988
1689188065.006,-40.527,-42.480,-22.461,-52.734,121.582
1689188065.010,-53.711,-46.387,-19.531,-38.574,-137.695
1689188065.012,-67.383,-53.711,-26.367,-34.668,-66.895
1689188065.016,-65.430,-54.199,-19.043,-39.551,-83.984
1689188065.020,-72.266,-58.594,-13.184,-58.105,-167.969
1689188065.024,-49.316,-65.918,-14.160,-45.410,-191.895
1689188065.028,-28.809,-73.242,-7.324,-26.367,94.238
1689188065.032,-69.824,-80.566,-5.859,-38.574,278.320
1689188065.036,-103.516,-82.031,-5.859,-34.668,27.832
1689188065.039,-87.402,-85.449,-5.371,-26.855,-219.238
1689188065.043,-65.430,-80.566,-7.324,-35.645,-25.391
1689188065.047,-38.574,-76.172,-6.348,-35.645,177.734
1689188065.051,-40.039,-74.219,-8.301,-32.227,-77.637
1689188065.055,-67.871,-66.895,-14.648,-31.738,-164.551
1689188065.059,-47.852,-65.430,-13.184,-16.602,72.754
1689188065.063,-27.832,-62.012,-12.207,-9.766,108.398
1689188065.067,-31.738,-66.895,-14.160,-10.742,-148.926
1689188065.071,-47.363,-72.754,-19.043,-8.789,-112.305
1689188065.075,-47.363,-67.871,-28.320,-18.066,-58.105
1689188065.079,-26.367,-62.500,-32.715,-16.113,-43.945
1689188065.083,-34.668,-54.688,-38.574,-9.277,-45.898
1689188065.086,-14.648,-40.039,-32.715,-12.207,-20.508
1689188065.090,25.391,-21.973,-27.344,-7.812,181.152
1689188065.094,-5.371,-22.949,-17.578,7.812,91.797
1689188065.098,-66.406,-34.668,-9.766,-15.625,-213.379
1689188065.102,-58.594,-28.809,-11.719,-20.996,-50.781
1689188065.102,-21.484,-22.949,-10.742,-10.742,77.148
1689188065.106,-16.113,-24.902,-15.137,-18.066,-60.547
1689188065.110,-22.949,-30.273,-18.555,-14.160,-125.488
1689188065.114,-30.762,-35.156,-20.508,-18.066,5.371
1689188065.118,-41.016,-31.738,-23.926,-25.879,21.973
1689188065.122,-35.645,-34.668,-32.715,-24.902,-60.059
1689188065.126,-20.996,-46.387,-39.062,-28.320,-30.273
1689188065.129,-4.395,-43.945,-43.457,-15.137,63.965
1689188065.133,-17.578,-39.551,-46.387,-19.043,243.652
