timestamps,TP9,AF7,AF8,TP10,Right AUX
1688141012.037,-19.531,-37.598,-20.996,-20.508,-217.773
1688141012.041,-25.879,-34.668,-20.508,-20.996,-151.367
1688141012.045,-22.461,-39.062,-22.949,-22.461,-127.930
1688141012.049,-24.902,-48.340,-25.391,-15.625,-113.281
1688141012.053,-15.625,-46.875,-20.508,-2.930,-90.332
1688141012.057,-13.672,-38.574,-29.297,-11.230,5.859
1688141012.061,-20.996,-32.715,-34.180,-22.461,109.863
1688141012.064,-19.531,-25.391,-26.855,-33.691,11.230
1688141012.068,-22.461,-23.438,-22.461,-26.855,-138.672
1688141012.072,-11.719,-26.855,-19.043,-17.090,-62.500
1688141012.076,-13.672,-27.344,-17.578,-11.719,182.129
1688141012.080,-26.367,-27.344,-12.207,-15.137,-91.309
1688141012.098,-18.555,-23.926,-11.230,-15.137,-237.793
1688141012.102,-17.578,-25.391,-17.090,-9.766,-79.102
1688141012.106,-13.184,-29.297,-12.207,-1.953,-47.852
1688141012.110,9.277,-31.250,-6.348,-7.324,-134.766
1688141012.114,-3.906,-34.180,-19.531,-27.344,-115.723
1688141012.118,-25.391,-38.574,-28.320,-28.320,121.094
1688141012.122,-26.855,-39.551,-22.461,-14.160,67.383
1688141012.125,-17.090,-41.504,-18.555,-2.930,-45.898
1688141012.129,-9.277,-46.387,-14.648,-7.324,28.320
1688141012.133,-25.879,-43.457,-19.043,-5.371,261.719
1688141012.137,-41.016,-38.086,-21.484,-12.695,399.902
1688141012.141,-34.180,-33.691,-19.043,-18.066,23.926
1688141012.142,-18.555,-34.668,-27.832,-25.391,-156.738
1688141012.146,-20.996,-39.062,-33.691,-35.645,-73.730
1688141012.150,-29.785,-39.062,-36.621,-29.297,-190.430
1688141012.154,-25.391,-36.621,-38.574,-27.344,-245.605
1688141012.158,-25.391,-40.039,-38.574,-45.898,-112.305
1688141012.162,-20.020,-45.410,-35.645,-38.086,88.379
1688141012.166,-21.973,-49.805,-30.762,-22.949,52.734
1688141012.169,-24.902,-51.758,-23.438,-24.902,-99.609
1688141012.173,-26.367,-47.852,-25.391,-24.414,-106.934
1688141012.177,-31.738,-48.340,-33.691,-23.926,-91.797
1688141012.181,-21.973,-48.828,-27.344,-22.949,-38.086
1688141012.185,-5.371,-42.969,-29.297,-32.227,-47.852
1688141012.187,-21.484,-39.551,-40.527,-30.273,-1.953
1688141012.191,-35.645,-38.086,-39.551,-37.598,213.379
1688141012.195,-32.227,-35.156,-33.203,-43.945,-75.684
1688141012.199,-28.809,-32.715,-37.598,-22.949,-149.902
1688141012.203,-18.066,-35.156,-45.410,-23.926,33.203
1688141012.207,-30.273,-30.762,-43.945,-30.762,-0.488
1688141012.211,-34.668,-21.484,-38.086,-24.414,-71.777
1688141012.214,-25.879,-30.273,-36.133,-27.832,-100.098
1688141012.218,-19.043,-35.645,-41.504,-27.344,184.082
1688141012.222,-12.695,-23.926,-40.527,-14.160,358.398
1688141012.226,-9.277,-25.391,-39.062,-4.883,-16.602
1688141012.230,-25.391,-28.809,-34.668,-23.438,-187.012
1688141012.234,-37.109,-26.367,-32.227,-25.391,-115.723
1688141012.238,-37.109,-27.832,-34.180,-14.160,-80.078
1688141012.242,-33.203,-29.785,-26.855,-22.949,-134.277
1688141012.246,-23.926,-36.133,-30.762,-33.691,-137.695
1688141012.250,-26.367,-35.156,-26.855,-35.156,-62.012
1688141012.254,-44.434,-30.273,-21.484,-38.086,-82.031
1688141012.258,-43.945,-32.715,-23.438,-38.086,-59.082
1688141012.261,-25.391,-33.203,-23.438,-33.203,76.172
1688141012.265,-27.344,-31.250,-23.926,-27.344,255.371
1688141012.269,-43.945,-34.668,-15.625,-44.434,-24.414
1688141012.273,-46.387,-37.598,-16.602,-45.898,-210.449
1688141012.277,-36.133,-38.086,-27.832,-27.832,-67.871
1688141012.277,-30.762,-41.504,-33.203,-23.926,-18.066
1688141012.281,-28.320,-34.180,-33.691,-41.016,-143.555
1688141012.285,-31.738,-27.832,-33.691,-41.992,-212.891
1688141012.289,-26.367,-29.785,-33.203,-40.039,-102.051
1688141012.293,-23.926,-26.855,-24.902,-34.180,-44.922
1688141012.297,-18.066,-30.273,-31.250,-28.320,-32.715
1688141012.301,-13.184,-28.809,-35.645,-32.227,-30.762
1688141012.304,-28.320,-28.809,-31.250,-20.996,217.773
1688141012.308,-45.898,-29.297,-29.297,-10.742,416.016
1688141012.312,-51.758,-31.738,-22.949,-22.461,48.828
1688141012.316,-32.715,-35.645,-19.531,-26.367,-149.902
1688141012.320,-17.578,-25.391,-22.461,-22.949,-88.379
1688141012.323,-28.809,-22.949,-30.273,-26.367,-150.391
1688141012.327,-33.203,-25.879,-31.250,-23.438,-160.645
1688141012.331,-35.156,-22.461,-25.879,-28.809,-128.418
1688141012.335,-30.273,-15.625,-19.531,-18.555,-113.770
1688141012.339,-13.672,-15.137,-18.555,-15.137,-96.191
1688141012.343,-17.578,-27.344,-28.809,-28.320,-65.918
1688141012.347,-36.133,-41.016,-33.203,-35.645,31.250
1688141012.350,-35.156,-42.480,-26.855,-25.879,310.547
1688141012.354,-10.254,-24.414,-19.043,-13.184,66.406
1688141012.358,-7.812,-19.531,-23.438,-26.855,-209.961
1688141012.362,-27.832,-25.391,-31.738,-36.133,-55.176
1688141012.366,-41.016,-23.438,-29.785,-26.367,85.938
1688141012.368,-41.992,-24.414,-26.367,-25.879,-96.191
1688141012.372,-36.133,-26.367,-22.949,-32.715,-178.223
1688141012.376,-25.391,-24.414,-24.414,-30.273,-34.180
1688141012.380,-28.809,-20.020,-18.066,-32.227,-83.008
1688141012.384,-39.062,-17.090,-12.695,-34.180,-200.195
1688141012.388,-31.250,-28.809,-25.879,-27.832,-80.566
1688141012.392,-24.902,-33.203,-26.367,-32.227,186.035
1688141012.395,-11.719,-25.391,-11.719,-25.391,258.301
1688141012.399,-17.090,-29.297,-7.812,-20.020,26.367
1688141012.403,-32.227,-32.715,-12.695,-32.227,-176.270
1688141012.407,-25.391,-34.668,-16.113,-22.949,42.480
1688141012.411,-17.090,-37.109,-14.648,-13.672,72.266
1688141012.413,-16.113,-33.203,-15.625,-19.043,-161.133
1688141012.417,-23.438,-29.785,-15.625,-26.855,-193.848
1688141012.421,-26.367,-21.484,-16.602,-28.809,-169.434
1688141012.425,-15.625,-19.531,-14.160,-17.090,-108.887
1688141012.429,-13.184,-25.879,-19.043,-20.508,-173.340
1688141012.433,-13.672,-24.414,-27.832,-25.391,-66.406
1688141012.437,-13.672,-23.438,-27.832,-10.254,154.785
1688141012.440,-37.109,-31.738,-23.926,-25.391,-75.684
1688141012.444,-46.875,-31.250,-25.391,-39.062,-225.098
1688141012.448,-27.832,-22.949,-26.367,-34.668,-92.773
1688141012.452,-18.555,-20.508,-23.926,-24.414,6.348
1688141012.456,-26.367,-22.949,-26.855,-14.648,-42.969
1688141012.459,-26.367,-20.996,-19.531,-22.949,-70.801
1688141012.463,-35.156,-18.555,-22.949,-27.832,-2.441
1688141012.467,-33.691,-25.879,-28.320,-23.926,-5.371
1688141012.471,-19.043,-36.621,-25.879,-19.043,-129.395
1688141012.475,-9.277,-41.016,-26.367,-6.836,-145.020
1688141012.479,-13.184,-35.645,-28.320,-11.230,161.621
1688141012.483,-50.293,-24.902,-27.344,-48.828,190.918
1688141012.486,-54.199,-20.996,-29.785,-64.453,-57.129
1688141012.490,-45.898,-15.625,-33.691,-57.617,-60.059
1688141012.494,-51.758,-14.160,-42.480,-62.988,211.426
1688141012.498,-46.875,-12.207,-48.828,-72.754,200.195
1688141012.502,-45.898,-8.789,-47.852,-68.848,-159.180
1688141012.518,-41.504,-12.207,-50.781,-50.293,-167.969
1688141012.522,-42.969,-22.461,-56.641,-42.969,-28.809
1688141012.526,-47.852,-22.949,-55.176,-46.387,-67.383
1688141012.530,-41.016,-22.949,-48.828,-50.293,-150.391
1688141012.534,-39.062,-29.785,-46.875,-36.621,-94.727
1688141012.538,-41.016,-23.438,-46.875,-29.297,109.375
1688141012.542,-26.367,-18.555,-43.945,-52.734,45.410
1688141012.545,-18.555,-25.879,-41.992,-59.570,-191.895
1688141012.549,-29.297,-32.715,-45.898,-46.387,-132.812
1688141012.553,-34.180,-27.832,-45.898,-36.133,120.117
1688141012.557,-28.809,-29.785,-40.039,-45.410,-103.027
1688141012.561,-21.973,-26.855,-48.828,-47.363,-270.508
1688141012.563,-19.531,-17.578,-47.852,-30.273,-143.066
1688141012.567,-16.602,-20.020,-43.945,-32.715,-140.137
1688141012.571,-18.066,-35.645,-48.828,-39.551,-226.562
1688141012.575,-24.902,-39.551,-44.434,-33.203,-211.914
1688141012.579,-29.785,-29.297,-43.457,-26.367,39.062
1688141012.583,-20.020,-26.367,-45.898,-28.809,121.094
1688141012.587,-19.531,-20.020,-38.574,-33.203,1.465
1688141012.590,-32.227,-18.555,-35.645,-36.133,-82.031
1688141012.594,-44.922,-28.320,-53.711,-36.133,133.301
1688141012.598,-29.785,-21.973,-54.199,-34.180,274.902
1688141012.602,-23.926,-18.066,-37.109,-34.180,-64.941
1688141012.606,-33.203,-26.855,-42.969,-30.762,-188.965
1688141012.622,-31.250,-28.320,-52.734,-42.969,-156.250
1688141012.626,-45.410,-25.879,-50.781,-39.062,-206.543
1688141012.630,-43.945,-33.203,-55.176,-28.809,-175.293
1688141012.634,-26.855,-38.574,-62.012,-31.250,-125.000
1688141012.638,-28.320,-31.738,-57.617,-32.715,-35.645
1688141012.642,-25.391,-26.367,-54.688,-24.414,-22.949
1688141012.646,-35.645,-29.785,-58.105,-34.668,-111.816
1688141012.649,-41.016,-31.738,-55.176,-43.457,40.039
1688141012.653,-31.738,-26.367,-54.688,-30.762,292.969
1688141012.657,-21.973,-26.367,-51.758,-31.738,36.133
1688141012.661,-17.578,-27.832,-58.594,-35.156,-201.660
1688141012.665,-22.461,-28.320,-65.430,-36.133,-124.023
1688141012.652,-20.996,-31.250,-57.617,-22.461,-142.090
1688141012.656,-5.371,-29.785,-58.105,-9.766,-199.707
1688141012.660,5.371,-22.949,-57.617,-26.367,-172.363
1688141012.664,-13.672,-18.555,-52.734,-33.691,-112.305
1688141012.668,-21.973,-20.508,-57.617,-30.762,-146.973
1688141012.672,-31.250,-27.832,-56.641,-35.156,-137.207
1688141012.676,-33.691,-36.621,-47.363,-28.320,-30.762
1688141012.679,-29.297,-40.039,-47.852,-22.949,162.598
1688141012.683,-34.180,-32.227,-52.246,-24.902,139.160
1688141012.687,-25.879,-20.508,-60.059,-21.973,-1.953
1688141012.691,-10.254,-27.344,-63.965,-3.418,-139.648
1688141012.695,-17.578,-42.969,-45.410,6.836,143.555
1688141012.697,-41.016,-48.828,-24.902,-21.973,437.988
1688141012.701,-42.480,-51.270,-21.484,-35.645,65.430
1688141012.705,-46.875,-61.523,-19.531,-27.832,-170.898
1688141012.709,-52.734,-66.406,-19.043,-19.043,-116.699
1688141012.713,-50.781,-62.988,-12.207,-12.207,-180.664
1688141012.717,-45.410,-67.871,-7.812,-7.324,-164.551
1688141012.721,-36.133,-68.848,-13.184,-4.395,13.184
1688141012.724,-29.297,-67.871,-13.672,0.000,273.926
1688141012.728,-27.344,-66.406,-5.859,13.672,46.387
1688141012.732,-25.391,-61.523,-4.883,7.812,-166.504
1688141012.736,-19.531,-58.594,-11.230,0.488,-65.430
1688141012.740,-15.137,-52.246,-12.695,3.906,-25.879
1688141012.742,-24.902,-51.270,-15.625,-13.184,-89.844
1688141012.746,-36.621,-55.664,-20.996,-31.738,-167.480
1688141012.750,-22.461,-50.781,-23.438,-21.973,-32.715
1688141012.754,-2.441,-45.410,-26.367,-8.789,3.906
1688141012.758,0.977,-41.016,-26.855,-12.207,-148.438
1688141012.762,-19.531,-37.109,-25.879,-19.043,-132.812
1688141012.766,-33.203,-37.598,-30.273,-10.742,208.984
1688141012.769,-17.578,-39.551,-34.668,-6.836,265.137
1688141012.773,-6.836,-32.715,-28.320,-19.531,-86.426
1688141012.777,-11.719,-26.367,-25.391,-22.461,-145.508
1688141012.781,-25.879,-24.902,-32.227,-14.648,100.098
1688141012.785,-41.504,-34.668,-24.902,-23.438,-3.906
1688141012.788,-42.969,-43.945,-19.531,-32.715,-218.750
1688141012.792,-26.367,-35.645,-25.391,-27.344,-76.172
1688141012.796,-27.344,-35.645,-32.227,-31.738,50.781
1688141012.800,-37.598,-36.621,-32.715,-38.086,-55.664
1688141012.804,-36.133,-32.715,-28.809,-41.016,-181.152
1688141012.808,-36.621,-29.785,-31.738,-36.133,-41.504
1688141012.812,-22.461,-30.273,-31.738,-30.762,384.766
1688141012.815,-13.672,-28.809,-20.508,-27.344,106.445
1688141012.819,-5.371,0.488,2.930,0.488,-257.324
1688141012.823,13.184,23.438,21.973,25.391,-181.152
1688141012.827,12.695,23.926,21.484,25.391,-85.449
1688141012.831,23.438,21.484,14.160,33.203,-144.531
1688141012.847,31.250,11.230,18.066,29.785,-154.785
1688141012.851,20.508,4.883,17.090,12.207,-74.707
1688141012.855,11.230,11.230,3.418,-0.488,-114.258
1688141012.859,1.465,10.742,-2.930,2.930,-154.785
1688141012.863,-12.695,0.000,-3.906,6.836,-15.625
1688141012.867,-4.883,-3.906,-7.812,10.254,238.281
1688141012.871,12.695,-0.488,-7.812,13.184,229.004
1688141012.874,-7.812,-5.371,-9.277,-3.906,-33.203
1688141012.878,-18.066,-11.230,-10.254,-12.695,-103.516
1688141012.882,-2.441,-14.160,-3.418,-6.836,125.488
1688141012.886,-9.766,-14.160,2.930,-8.301,183.105
1688141012.890,-19.531,-17.090,-0.977,-17.090,-60.547
1688141012.892,-30.762,-20.996,-11.230,-18.555,-146.484
1688141012.896,-32.227,-20.996,-12.695,-21.973,-111.328
1688141012.900,-21.484,-25.391,-9.766,-22.949,-171.875
1688141012.904,-22.461,-30.273,-20.996,-25.391,-170.898
1688141012.908,-27.832,-21.973,-19.043,-18.066,-97.168
1688141012.912,-20.996,-22.461,-12.207,-26.855,-53.223
1688141012.916,-28.809,-29.785,-20.020,-35.645,-44.434
1688141012.919,-29.785,-29.297,-19.043,-24.902,-90.332
1688141012.923,-8.301,-24.902,-11.719,-17.090,-3.418
1688141012.927,-6.836,-15.625,-16.602,-13.184,303.223
1688141012.931,-16.602,-14.160,-10.254,-17.090,117.188
1688141012.935,-32.715,-23.926,-17.090,-40.039,-166.016
1688141012.938,-31.738,-24.902,-24.902,-36.621,-132.324
1688141012.942,-25.879,-22.461,-14.648,-23.438,-111.816
1688141012.946,-35.156,-25.391,-11.230,-27.344,-151.855
1688141012.950,-21.484,-31.250,-13.184,-25.391,-170.898
1688141012.954,-22.461,-27.832,-19.531,-26.367,-105.957
1688141012.958,-36.133,-26.367,-18.555,-21.484,34.180
1688141012.962,-20.996,-34.180,-14.160,-12.695,45.410
1688141012.965,-22.461,-39.551,-18.066,-18.555,-98.145
1688141012.969,-29.297,-39.551,-31.250,-24.902,122.070
1688141012.973,-45.898,-32.715,-20.020,-29.297,442.383
1688141012.977,-70.801,-22.461,0.977,-48.340,59.082
1688141012.981,-58.105,-25.391,-7.324,-52.246,-183.594
1688141012.983,-40.527,-33.691,-16.113,-40.527,-47.363
1688141012.987,-56.152,-32.227,-6.348,-45.898,-125.000
1688141012.991,-64.941,-29.297,-7.812,-41.992,-183.594
1688141012.995,-51.758,-28.320,-20.020,-27.344,-145.508
1688141012.999,-44.922,-30.762,-20.020,-31.250,-71.289
1688141013.003,-37.598,-31.250,-18.066,-19.531,41.016
1688141013.007,-35.156,-32.227,-19.531,-33.203,-5.859
1688141013.010,-48.340,-35.156,-24.902,-50.781,-40.527
1688141013.014,-44.434,-37.109,-27.832,-41.016,204.102
1688141013.018,-23.926,-34.668,-22.949,-35.156,20.020
1688141013.022,-18.066,-27.832,-28.809,-26.855,-167.969
1688141013.026,-20.020,-26.855,-26.367,-23.438,-93.262
1688141013.028,-16.113,-27.344,-25.391,-42.969,-133.301
1688141013.032,-22.461,-26.855,-22.461,-44.922,-219.727
1688141013.036,-29.297,-25.391,-16.113,-35.156,-187.988
1688141013.040,-18.066,-28.320,-22.949,-29.785,5.371
1688141013.044,-14.648,-29.785,-20.020,-33.203,25.391
1688141013.048,-33.203,-31.738,-16.602,-35.645,-49.805
1688141013.052,-43.945,-32.227,-14.648,-31.738,-1.953
1688141013.055,-32.227,-28.320,-16.602,-20.996,180.176
1688141013.059,-15.625,-27.832,-19.043,-2.930,338.379
1688141013.063,-13.184,-29.785,-13.184,-14.648,35.645
1688141013.067,-25.391,-29.297,-19.531,-25.391,-121.094
1688141013.071,-30.273,-27.832,-20.996,-20.996,-53.223
1688141013.073,-27.832,-27.832,-23.438,-34.180,-55.664
1688141013.077,-21.973,-28.320,-27.344,-36.621,-70.801
1688141013.081,-35.156,-35.156,-34.180,-33.203,22.461
1688141013.085,-48.340,-37.109,-39.062,-27.832,145.996
1688141013.089,-37.109,-29.785,-34.180,-27.344,4.883
1688141013.093,-41.504,-30.273,-35.645,-30.762,-8.789
1688141013.097,-35.156,-30.762,-37.598,-28.320,208.984
1688141013.100,-8.301,-20.508,-31.250,-18.555,433.105
1688141013.104,-4.883,-15.625,-20.996,-33.691,78.125
1688141013.108,-28.320,-24.902,-26.855,-41.016,-184.570
1688141013.112,-38.574,-31.738,-37.109,-34.668,-69.336
1688141013.116,-35.156,-29.297,-41.016,-28.320,-22.461
1688141013.117,-24.414,-31.250,-41.992,-22.461,-75.195
1688141013.121,-14.160,-31.738,-34.668,-22.949,-103.027
1688141013.125,-30.273,-29.785,-36.133,-29.297,1.465
1688141013.129,-36.133,-21.484,-43.945,-31.738,-28.320
1688141013.133,-14.160,-15.625,-54.199,-11.719,-75.684
1688141013.137,2.930,-20.020,-51.758,-2.930,-51.758
1688141013.141,-8.301,-25.879,-38.574,-23.926,177.246
1688141013.144,-28.320,-29.297,-30.762,-20.996,322.266
1688141013.148,-48.828,-32.227,-12.207,-30.273,7.812
1688141013.152,-37.598,-41.992,-6.836,-27.832,-111.328
1688141013.156,-22.949,-44.922,-12.695,-16.113,143.066
1688141013.160,-26.367,-42.969,-3.906,-28.809,30.273
1688141013.162,-36.621,-45.410,-0.488,-14.648,-227.051
1688141013.166,-43.945,-42.480,-6.348,-25.879,-199.707
1688141013.170,-30.273,-41.016,-5.859,-33.203,-110.840
1688141013.174,-27.344,-44.922,-9.766,-15.625,-82.520
1688141013.178,-38.086,-41.504,-23.438,-15.137,-140.625
1688141013.182,-34.668,-42.969,-32.227,-9.277,-13.184
1688141013.186,-32.715,-41.992,-34.668,-2.441,148.926
1688141013.189,-36.133,-37.109,-32.227,0.977,-24.414
1688141013.193,-31.250,-39.062,-25.391,-10.742,-137.207
1688141013.197,-31.738,-39.551,-28.320,-17.090,-21.484
1688141013.201,-37.109,-35.156,-29.785,-16.113,148.926
1688141013.205,-21.484,-29.785,-21.973,-14.648,-56.152
1688141013.223,-13.672,-29.297,-20.508,-4.395,-182.617
1688141013.227,-21.484,-33.203,-30.762,-6.836,-66.895
1688141013.231,-27.832,-34.668,-33.691,-18.555,-101.562
1688141013.235,-38.086,-33.203,-24.902,-23.926,-203.125
1688141013.239,-34.180,-29.785,-29.785,-20.020,-162.598
1688141013.243,-27.832,-26.367,-34.668,-17.578,58.594
1688141013.247,-30.273,-32.227,-27.832,-13.184,131.348
1688141013.250,-27.344,-34.668,-28.809,-22.949,-11.719
1688141013.254,-40.527,-32.227,-26.367,-38.086,-149.902
1688141013.258,-35.156,-33.691,-22.949,-28.320,106.445
1688141013.262,-9.766,-28.320,-26.855,-16.602,394.043
1688141013.266,-19.043,-33.203,-16.113,-21.484,53.711
1688141013.268,-43.457,-37.109,-14.648,-38.574,-172.852
1688141013.272,-55.176,-25.391,-20.996,-40.527,-145.020
1688141013.276,-59.082,-16.602,-14.160,-37.109,-154.297
1688141013.280,-55.176,-8.301,-1.953,-51.270,-165.527
1688141013.284,-73.730,-13.672,-14.160,-62.012,-83.984
1688141013.288,-116.211,-11.719,-20.996,-92.773,83.984
1688141013.292,-144.531,7.812,-6.348,-129.883,7.324
1688141013.295,-173.340,22.949,2.441,-161.621,-228.516
1688141013.299,-190.430,25.879,9.277,-182.617,-119.629
1688141013.303,-188.965,27.344,10.254,-197.266,186.523
1688141013.307,-197.754,27.832,12.207,-225.586,-0.488
1688141013.311,-226.074,21.484,22.461,-241.211,-178.223
1688141013.313,-256.348,12.695,17.090,-250.977,17.578
1688141013.317,-264.648,20.508,19.043,-253.906,105.957
1688141013.321,-253.906,42.480,27.832,-258.301,-152.344
1688141013.325,-243.164,46.387,24.902,-265.137,-208.496
1688141013.329,-250.000,40.527,29.297,-268.555,-105.957
1688141013.333,-244.629,25.879,30.762,-264.648,-62.500
1688141013.337,-218.262,20.508,20.508,-240.234,-11.230
1688141013.340,-194.336,23.926,18.066,-212.891,-56.641
1688141013.344,-173.340,11.230,17.578,-202.637,147.461
1688141013.348,-145.508,5.371,3.418,-187.012,353.027
1688141013.352,-126.953,5.859,3.906,-169.434,-44.434
1688141013.356,-101.562,-8.301,-2.930,-141.602,-248.047
1688141013.358,-68.359,-17.090,-17.090,-118.164,-100.586
1688141013.362,-54.199,-16.602,-20.996,-93.750,-95.215
1688141013.366,-45.898,-26.855,-32.715,-78.613,-145.020
1688141013.370,-29.785,-39.062,-41.992,-72.754,-59.570
1688141013.374,-22.949,-48.828,-44.434,-52.246,-7.812
1688141013.378,-14.648,-45.898,-43.457,-23.438,-32.715
1688141013.382,5.859,-44.922,-38.574,-11.719,-29.297
1688141013.385,5.859,-55.664,-49.316,-9.766,-17.090
1688141013.389,1.953,-59.082,-62.012,-0.488,197.266
1688141013.393,8.301,-52.246,-61.523,3.906,-34.668
1688141013.397,23.438,-52.734,-57.617,10.254,-207.520
1688141013.401,34.668,-56.152,-57.129,24.902,-43.945
1688141013.402,41.016,-59.082,-57.129,32.227,-28.320
1688141013.406,32.227,-58.105,-55.176,32.227,-91.797
1688141013.410,27.832,-62.012,-59.082,39.062,-68.848
1688141013.414,37.598,-62.988,-64.453,47.852,12.207
1688141013.418,46.875,-58.594,-61.523,47.852,-0.977
1688141013.422,45.898,-55.176,-62.012,37.598,18.066
1688141013.426,31.738,-56.152,-61.523,28.320,-0.488
1688141013.429,36.621,-55.664,-63.477,28.809,121.582
1688141013.433,47.852,-50.293,-62.988,40.039,226.562
1688141013.437,45.410,-52.246,-56.641,38.574,-38.086
1688141013.441,47.852,-49.316,-52.734,35.645,-180.664
1688141013.445,45.410,-52.734,-57.617,47.363,164.062
1688141013.448,30.762,-55.664,-57.617,47.363,227.539
1688141013.452,16.113,-52.734,-55.176,28.320,-154.297
1688141013.456,31.738,-59.570,-49.805,21.973,-198.242
1688141013.460,41.016,-58.594,-37.109,23.926,-149.414
1688141013.464,33.691,-53.223,-26.855,22.949,-133.301
1688141013.468,36.621,-56.641,-23.438,25.391,-123.535
1688141013.472,15.625,-55.176,-30.762,31.250,-8.301
1688141013.475,12.207,-57.129,-36.133,41.016,265.137
1688141013.479,18.555,-53.711,-28.809,38.574,46.387
1688141013.483,20.996,-51.270,-28.320,21.484,-205.078
1688141013.487,16.113,-59.082,-28.809,18.066,-137.695
1688141013.491,10.742,-51.758,-26.367,23.438,-49.316
1688141013.492,14.160,-42.480,-22.461,26.367,-111.328
1688141013.496,17.090,-48.828,-23.926,21.484,-175.781
1688141013.500,20.508,-51.758,-31.738,10.742,-97.656
1688141013.504,8.301,-43.945,-32.715,18.066,-97.168
1688141013.508,1.465,-40.527,-30.273,23.438,-159.668
1688141013.512,1.465,-45.898,-32.227,22.461,-149.414
1688141013.516,3.418,-51.270,-40.039,17.090,192.383
1688141013.519,10.254,-42.480,-44.434,-3.906,384.766
1688141013.523,-2.930,-36.133,-31.738,-7.324,0.000
1688141013.527,-14.648,-40.527,-25.391,4.883,-156.738
1688141013.531,-6.348,-39.551,-33.203,19.043,163.574
1688141013.535,-5.859,-36.133,-25.879,20.020,139.160
1688141013.538,-12.695,-34.180,-25.391,7.324,-153.809
1688141013.542,-6.836,-36.133,-34.668,-8.301,-159.180
1688141013.546,-18.555,-40.527,-35.645,-8.789,-123.535
1688141013.550,-11.719,-39.551,-41.504,-7.812,-113.281
1688141013.554,5.371,-39.062,-44.434,-8.789,-118.164
1688141013.558,-3.906,-39.062,-43.945,0.488,10.254
1688141013.562,-2.930,-33.203,-50.293,-7.324,187.012
1688141013.565,-14.160,-31.738,-59.570,-21.973,-76.660
1688141013.569,-23.926,-38.574,-66.895,-25.879,-248.535
1688141013.573,-11.719,-45.410,-65.430,-19.043,-106.445
1688141013.577,-6.836,-51.758,-58.105,-6.836,-11.719
1688141013.581,-10.254,-54.199,-59.570,-2.930,-161.621
1688141013.598,-23.926,-41.016,-62.012,-12.695,-203.613
1688141013.602,-31.738,-33.691,-53.711,-24.902,14.648
1688141013.606,-33.691,-38.086,-46.875,-34.180,24.414
1688141013.610,-36.621,-35.645,-50.293,-37.598,-97.656
1688141013.614,-23.438,-36.621,-51.758,-37.598,-87.891
1688141013.618,-22.949,-36.621,-60.547,-28.809,35.156
1688141013.622,-24.414,-32.227,-50.293,-21.973,81.055
1688141013.625,-19.531,-31.250,-34.668,-25.391,12.695
1688141013.629,-14.648,-35.156,-36.133,-20.996,42.480
1688141013.633,-19.043,-38.574,-42.480,-23.438,178.223
1688141013.637,-23.926,-46.387,-41.016,-31.250,25.879
1688141013.641,-26.855,-46.387,-38.086,-16.113,-192.383
1688141013.643,-30.273,-29.297,-41.992,-1.953,-74.707
1688141013.647,-20.508,-22.461,-44.434,-13.672,214.844
1688141013.651,-24.414,-30.762,-43.457,-20.508,105.469
1688141013.655,-24.414,-34.180,-41.016,-9.277,-80.078
1688141013.659,-25.879,-32.227,-40.039,-6.836,-125.977
1688141013.663,-21.484,-32.227,-40.527,-4.395,-1.465
1688141013.667,-16.113,-32.227,-43.457,4.395,75.684
1688141013.670,-33.691,-33.203,-45.898,-15.625,-144.043
1688141013.674,-29.297,-34.180,-46.387,-39.062,-144.531
1688141013.678,-15.625,-37.598,-45.898,-20.996,223.633
1688141013.682,-13.184,-29.297,-34.180,-14.648,83.984
1688141013.686,-0.977,-15.625,-34.180,-18.555,-187.012
1688141013.687,-2.441,-19.531,-43.945,-18.555,-127.930
1688141013.691,-4.883,-24.902,-37.109,-27.344,-143.066
1688141013.695,-13.184,-25.391,-36.133,-27.832,-182.617
1688141013.699,-30.762,-32.715,-41.504,-25.879,-114.746
1688141013.703,-32.227,-37.109,-39.551,-25.879,0.488
1688141013.707,-33.691,-34.668,-40.039,-21.973,-17.090
1688141013.711,-34.180,-33.691,-39.062,-21.484,-51.758
1688141013.714,-42.969,-34.668,-33.691,-34.668,11.719
1688141013.718,-38.574,-34.180,-34.668,-26.367,305.664
1688141013.722,-15.137,-27.344,-32.227,1.953,506.348
1688141013.726,0.977,-23.926,-21.484,4.883,90.332
1688141013.730,-14.648,-30.273,-29.297,-16.602,-201.172
1688141013.732,-29.297,-32.715,-40.039,-21.973,-206.055
1688141013.736,-27.344,-33.203,-33.203,-21.484,-257.324
1688141013.740,-23.926,-33.203,-36.133,-23.438,-249.023
1688141013.744,-30.762,-35.645,-45.410,-22.949,-186.035
1688141013.748,-35.645,-41.016,-46.387,-31.250,-138.184
1688141013.752,-39.062,-45.410,-50.781,-37.109,-138.184
1688141013.756,-43.457,-43.457,-48.828,-40.527,-131.348
1688141013.759,-35.645,-45.410,-43.457,-37.598,0.000
1688141013.763,-24.414,-41.992,-39.551,-25.879,399.902
1688141013.767,-31.738,-28.809,-29.785,-36.133,154.297
1688141013.771,-39.062,-30.273,-30.273,-38.574,-226.074
1688141013.775,-35.156,-33.691,-32.227,-28.320,-147.461
1688141013.777,-23.926,-31.738,-27.832,-28.320,-74.707
1688141013.781,-16.602,-29.297,-29.785,-27.832,-124.023
1688141013.785,-29.297,-35.645,-39.551,-21.484,-176.270
1688141013.789,-41.992,-35.645,-45.898,-30.273,-101.074
1688141013.793,-37.598,-28.809,-41.992,-25.391,-52.246
1688141013.797,-29.297,-29.297,-44.434,-16.602,-51.758
1688141013.801,-24.902,-27.344,-52.246,-32.715,-44.922
1688141013.804,-20.996,-23.926,-46.387,-37.109,307.129
1688141013.808,-28.809,-23.926,-40.039,-31.250,470.703
1688141013.812,-33.691,-27.344,-34.180,-40.039,-63.965
1688141013.816,-24.414,-29.785,-32.227,-33.203,-189.453
1688141013.820,-20.508,-24.414,-31.738,-22.461,34.180
1688141013.822,-31.738,-27.832,-33.203,-25.879,-101.074
1688141013.826,-33.203,-30.762,-36.133,-32.715,-222.168
1688141013.830,-35.156,-32.227,-46.875,-36.133,-166.504
1688141013.834,-17.090,-32.227,-49.805,-23.438,-69.824
1688141013.838,-18.066,-27.344,-41.504,-18.555,-61.035
1688141013.842,-32.715,-26.855,-38.574,-18.066,-110.840
1688141013.846,-30.273,-29.785,-31.250,-16.113,-52.734
1688141013.849,-32.227,-27.344,-29.785,-22.949,185.547
1688141013.853,-25.391,-20.996,-20.508,-14.648,25.391
1688141013.857,-20.508,-27.832,-21.973,-9.277,-177.734
1688141013.861,-23.926,-30.762,-37.598,-29.785,-104.492
1688141013.865,-32.715,-29.785,-33.203,-44.922,-80.078
1688141013.882,-30.273,-28.809,-24.414,-37.598,-66.895
1688141013.886,-29.785,-27.344,-23.438,-21.484,13.672
1688141013.890,-32.227,-26.367,-20.020,-7.324,61.523
1688141013.894,-31.250,-26.855,-22.461,-19.531,-20.508
1688141013.898,-27.344,-24.414,-31.738,-39.551,-168.457
1688141013.902,-16.602,-19.531,-30.273,-40.527,-155.273
1688141013.906,-18.066,-24.902,-28.809,-16.602,178.223
1688141013.909,-30.762,-33.203,-29.785,-11.230,266.113
1688141013.913,-27.344,-29.297,-17.578,-19.531,-61.523
1688141013.917,-32.715,-25.391,-13.672,-26.855,-181.152
1688141013.921,-36.621,-29.297,-17.578,-39.551,53.711
1688141013.925,-35.645,-28.809,-17.090,-41.016,-11.230
1688141013.912,-34.668,-31.250,-23.926,-42.969,-211.426
1688141013.916,-24.902,-46.387,-32.227,-48.340,-154.297
1688141013.920,-29.785,-52.246,-31.738,-29.785,-97.656
1688141013.924,-34.668,-33.203,-23.438,-23.438,-72.754
1688141013.928,-37.109,-25.879,-15.625,-31.738,-117.676
1688141013.932,-34.668,-36.133,-16.602,-28.809,30.762
1688141013.936,-25.391,-34.668,-20.996,-40.527,227.051
1688141013.939,-35.645,-31.738,-23.926,-45.898,43.457
1688141013.943,-47.852,-34.180,-30.762,-47.852,-184.082
1688141013.947,-31.250,-41.504,-33.203,-41.016,-105.469
1688141013.951,-33.691,-45.410,-37.109,-40.039,287.109
1688141013.955,-39.062,-35.645,-25.391,-41.992,81.543
1688141013.972,-27.832,-27.344,-24.414,-36.621,-187.500
1688141013.976,-38.086,-32.715,-35.156,-33.203,-120.605
1688141013.980,-51.758,-31.738,-34.668,-24.902,-117.188
1688141013.984,-43.457,-29.297,-35.156,-36.133,-98.633
1688141013.988,-30.273,-33.691,-40.039,-35.645,-115.723
1688141013.992,-23.926,-30.273,-43.945,-26.367,-37.598
1688141013.996,-40.039,-34.180,-37.598,-33.691,50.293
1688141013.999,-52.246,-34.180,-31.738,-31.738,6.348
1688141014.003,-31.250,-23.438,-28.809,-18.066,-28.809
1688141014.007,-19.531,-23.438,-29.785,-1.465,216.309
1688141014.011,-23.438,-34.668,-26.367,-15.625,389.160
1688141014.015,-37.109,-35.645,-22.949,-45.410,7.324
1688141014.017,-45.898,-33.691,-31.738,-39.062,-203.125
1688141014.021,-38.086,-46.387,-33.203,-28.320,-105.957
1688141014.025,-26.367,-48.828,-30.273,-46.387,-122.559
1688141014.029,-22.949,-37.598,-26.855,-43.945,-168.945
1688141014.033,-38.574,-34.180,-32.227,-38.574,-120.117
1688141014.037,-39.551,-41.504,-34.668,-37.109,68.359
1688141014.041,-37.598,-38.574,-26.855,-32.715,94.727
1688141014.044,-33.203,-35.645,-27.344,-20.020,-60.059
1688141014.048,-34.668,-35.645,-35.645,-18.555,-40.527
1688141014.052,-30.273,-37.598,-32.715,-24.414,282.227
1688141014.056,-20.508,-33.203,-28.809,-40.039,111.328
1688141014.060,-42.480,-27.832,-33.203,-52.246,-160.645
1688141014.062,-42.969,-29.785,-31.250,-43.945,-133.789
1688141014.066,-43.457,-38.086,-37.109,-38.086,-128.906
1688141014.070,-29.785,-36.133,-37.109,-44.922,-139.648
1688141014.074,-8.789,-34.180,-30.273,-47.852,-157.715
1688141014.078,-26.855,-34.180,-27.832,-24.902,-63.477
1688141014.082,-28.320,-28.809,-10.254,-24.902,15.625
1688141014.086,-25.879,-28.809,3.906,-32.227,51.270
1688141014.089,-31.738,-22.461,-1.465,-27.832,22.461
1688141014.093,-34.180,-23.926,-8.301,-36.133,198.730
1688141014.097,-43.457,-21.973,-5.859,-33.691,359.863
1688141014.101,-41.016,-16.113,-4.883,-33.691,-66.895
1688141014.105,-24.902,-18.066,-4.883,-38.086,-222.656
1688141014.107,-25.879,-25.391,-9.277,-41.992,13.184
1688141014.111,-44.434,-35.156,-13.184,-45.410,-103.027
1688141014.115,-48.340,-36.133,-19.043,-43.945,-207.520
1688141014.119,-38.086,-35.645,-25.879,-34.668,-144.531
1688141014.123,-35.645,-31.250,-22.461,-32.715,-119.141
1688141014.127,-39.551,-30.762,-21.973,-32.227,-47.852
1688141014.131,-39.551,-30.762,-15.625,-41.504,-46.387
1688141014.134,-31.250,-26.855,-12.695,-41.504,-52.246
1688141014.138,-20.996,-23.438,-15.625,-29.785,233.398
1688141014.142,-46.387,-17.578,-12.695,-45.898,24.414
1688141014.146,-47.363,-21.973,-12.207,-48.828,-210.938
1688141014.150,-39.551,-30.273,-18.066,-39.551,-116.699
1688141014.153,-51.758,-28.320,-17.090,-29.785,-88.867
1688141014.157,-35.645,-25.879,-11.719,-27.344,-88.867
1688141014.161,-11.230,-30.762,-12.695,-33.691,-85.449
1688141014.165,-16.113,-30.762,-18.066,-24.414,-46.875
1688141014.169,-33.203,-33.203,-23.438,-25.391,-34.180
1688141014.173,-30.273,-39.551,-26.367,-41.992,-5.859
1688141014.177,-33.203,-42.969,-14.648,-45.410,-34.668
1688141014.180,-34.180,-36.621,-15.137,-25.391,188.965
1688141014.184,-24.902,-20.020,-20.020,-17.578,454.590
1688141014.188,-24.902,-14.648,-17.090,-25.391,-40.039
1688141014.192,-42.480,-19.043,-24.414,-27.832,-275.879
1688141014.196,-36.133,-14.648,-20.996,-41.504,-121.582
1688141014.198,-19.043,-9.277,-20.996,-39.062,-144.531
1688141014.202,-16.602,-23.438,-35.156,-26.855,-207.031
1688141014.206,-8.789,-26.855,-37.109,-10.254,-179.688
1688141014.210,-16.602,-20.508,-22.949,-31.738,-71.289
1688141014.214,-48.340,-23.438,-13.672,-62.988,21.973
1688141014.218,-57.129,-17.578,-16.602,-57.129,2.930
1688141014.222,-52.246,-10.254,-28.320,-60.059,39.062
1688141014.225,-63.965,-15.625,-36.621,-73.242,317.383
1688141014.229,-77.148,-22.461,-32.715,-75.684,125.488
1688141014.233,-63.477,-29.785,-31.250,-61.035,-173.828
1688141014.237,-37.598,-30.762,-35.645,-50.293,-137.207
1688141014.241,-50.781,-33.691,-33.203,-52.246,-122.070
1688141014.242,-52.734,-30.273,-31.250,-40.039,-116.699
1688141014.246,-29.297,-33.691,-32.715,-42.969,-111.328
1688141014.250,-32.715,-39.551,-32.715,-46.387,-36.133
1688141014.254,-41.016,-35.156,-27.832,-28.320,-9.766
1688141014.258,-31.738,-33.691,-32.227,-22.949,-36.621
1688141014.262,-32.227,-33.203,-40.527,-25.391,-35.156
1688141014.266,-33.691,-28.320,-37.109,-20.996,214.355
1688141014.269,-16.113,-21.484,-24.414,-15.137,327.637
1688141014.273,-6.836,-16.602,-20.508,-10.742,19.043
1688141014.277,-4.395,-19.531,-20.020,-2.930,-109.863
1688141014.281,-16.602,-23.926,-21.973,-14.648,123.047
1688141014.285,-35.645,-21.484,-20.996,-25.879,87.402
1688141014.288,-35.645,-20.508,-22.949,-24.414,-200.195
1688141014.292,-26.855,-21.484,-28.320,-23.438,-133.301
1688141014.296,-22.949,-25.391,-26.855,-21.484,-28.320
1688141014.300,-20.996,-20.996,-21.484,-31.738,-143.555
1688141014.304,-41.992,-22.949,-21.973,-41.992,-252.930
1688141014.308,-57.617,-29.785,-22.949,-26.367,-24.902
1688141014.312,-42.480,-21.973,-23.926,-11.719,298.340
1688141014.315,-26.855,-14.648,-20.020,-14.160,46.875
1688141014.319,-25.391,-16.113,-23.438,-19.531,-154.785
1688141014.323,-38.086,-21.973,-29.785,-31.738,19.043
1688141014.327,-48.340,-22.949,-22.949,-36.133,43.457
1688141014.331,-51.270,-17.090,-18.066,-38.574,-131.348
1688141014.348,-31.738,-19.531,-19.043,-35.156,-178.711
1688141014.352,-21.484,-23.926,-19.043,-25.879,-140.137
1688141014.356,-39.062,-15.625,-17.578,-30.762,-125.977
1688141014.360,-40.039,-26.855,-23.926,-26.367,-148.926
1688141014.364,-30.762,-34.180,-25.391,-20.020,-97.656
1688141014.368,-19.043,-26.367,-24.414,-29.297,178.711
1688141014.372,-24.902,-25.391,-23.438,-39.551,188.965
1688141014.375,-42.969,-25.879,-24.902,-39.062,15.625
1688141014.379,-36.133,-18.555,-22.461,-28.320,-44.434
1688141014.383,-27.832,-19.043,-33.691,-14.160,194.824
1688141014.387,-30.273,-24.902,-28.809,-9.277,283.691
1688141014.391,-33.691,-23.438,-12.207,-14.648,-47.363
1688141014.393,-59.082,-25.391,-31.738,-42.969,-128.418
1688141014.397,-60.059,-5.371,-23.926,-53.711,-22.949
1688141014.401,-47.852,-2.441,-8.301,-58.594,-136.230
1688141014.405,-69.336,-1.953,-9.766,-73.730,-178.711
1688141014.409,-97.168,7.324,-7.812,-106.445,-119.629
1688141014.413,-136.719,-1.465,-8.789,-144.531,-27.344
1688141014.417,-163.574,20.508,9.766,-151.855,3.906
1688141014.420,-171.875,38.574,13.672,-167.969,-124.023
1688141014.424,-183.594,40.527,6.836,-193.359,-71.777
1688141014.428,-203.613,46.387,16.602,-208.496,224.121
1688141014.432,-232.422,51.270,26.367,-237.305,15.137
1688141014.436,-249.512,49.316,31.738,-263.184,-205.078
1688141014.438,-257.324,48.340,42.969,-267.578,-130.371
1688141014.442,-270.996,49.316,61.523,-287.598,-98.145
1688141014.446,-264.648,42.480,57.129,-300.781,-67.871
1688141014.450,-243.164,39.551,51.270,-285.645,-128.906
1688141014.454,-253.906,26.367,47.852,-280.273,-46.387
1688141014.458,-243.164,12.207,46.875,-255.859,54.688
1688141014.462,-194.336,8.789,42.480,-212.402,19.043
1688141014.465,-169.922,6.348,35.645,-196.289,-47.363
1688141014.469,-157.715,-3.906,19.531,-187.012,130.371
1688141014.473,-137.695,2.441,-5.371,-167.969,318.359
1688141014.477,-121.582,9.766,-20.020,-146.973,-29.785
1688141014.481,-101.562,-1.953,-27.344,-134.277,-208.496
1688141014.483,-80.078,-7.812,-39.062,-127.930,-113.770
1688141014.487,-72.754,-2.930,-54.199,-117.188,-141.113
1688141014.491,-62.500,0.977,-66.895,-94.727,-170.410
1688141014.495,-50.781,3.906,-82.520,-81.055,-101.562
1688141014.499,-25.879,1.465,-96.191,-61.523,20.996
1688141014.503,4.395,-6.836,-109.863,-43.457,29.785
1688141014.507,6.348,0.000,-119.141,-43.457,-74.219
1688141014.510,7.324,0.977,-126.953,-20.020,-98.633
1688141014.514,26.367,-11.230,-137.695,3.418,213.379
1688141014.518,50.781,-13.672,-131.348,10.254,78.613
1688141014.522,46.387,-10.742,-131.348,16.113,-216.797
1688141014.526,42.969,-15.625,-140.137,6.348,-179.199
1688141014.527,59.570,-26.367,-143.066,10.742,-147.461
1688141014.531,60.059,-29.785,-145.020,42.480,-168.945
1688141014.535,67.383,-38.574,-140.625,40.527,-181.152
1688141014.539,86.426,-49.805,-131.836,50.781,-66.895
1688141014.543,88.379,-53.711,-116.699,78.613,-4.883
1688141014.547,86.914,-54.199,-111.816,82.031,37.109
1688141014.551,85.449,-51.270,-101.562,63.477,3.418
1688141014.554,78.613,-53.223,-91.797,65.430,218.262
1688141014.558,79.102,-58.594,-89.355,78.125,534.668
1688141014.562,80.078,-53.711,-77.148,67.383,121.094
1688141014.566,56.152,-63.477,-74.707,69.336,-180.176
1688141014.570,43.945,-72.266,-78.125,56.641,-14.160
1688141014.573,53.223,-66.406,-71.289,49.805,-121.582
1688141014.577,60.547,-66.895,-65.918,52.734,-187.988
1688141014.581,49.805,-66.406,-70.312,48.828,-81.055
1688141014.585,48.340,-66.406,-70.801,50.293,-25.391
1688141014.589,40.039,-69.824,-63.477,48.828,-81.055
1688141014.593,20.020,-76.172,-62.012,47.363,-125.000
1688141014.597,29.297,-71.777,-63.965,51.758,19.043
1688141014.600,39.062,-67.383,-61.035,51.270,275.391
1688141014.604,24.414,-77.637,-50.781,36.133,67.871
1688141014.608,15.137,-69.824,-50.293,21.973,-107.910
1688141014.612,15.137,-56.152,-52.246,26.855,-55.664
1688141014.616,16.602,-52.246,-50.293,48.340,-28.809
1688141014.617,32.227,-52.734,-44.922,54.688,-108.398
1688141014.621,20.508,-53.711,-53.223,33.691,-162.109
1688141014.625,13.184,-48.828,-50.781,22.949,-89.844
1688141014.629,38.574,-41.992,-41.016,20.996,-125.000
1688141014.633,23.438,-38.574,-43.457,15.625,-113.281
1688141014.637,1.953,-38.086,-42.969,22.949,16.113
1688141014.641,11.230,-38.574,-31.738,35.156,253.906
1688141014.644,14.648,-36.621,-27.832,24.414,338.379
1688141014.648,19.531,-37.109,-28.809,20.508,-35.156
1688141014.652,19.531,-36.621,-32.715,13.184,-214.844
1688141014.656,17.090,-27.344,-31.738,15.625,31.250
1688141014.660,25.879,-25.879,-29.785,9.766,1.953
1688141014.663,20.020,-28.809,-31.738,-5.859,-183.594
1688141014.667,5.859,-28.809,-29.297,2.930,-127.930
1688141014.671,-4.883,-28.809,-37.598,10.254,33.203
1688141014.675,0.977,-25.879,-37.109,4.395,-68.848
1688141014.679,4.883,-32.715,-36.621,3.906,-268.555
1688141014.683,-14.160,-35.645,-36.621,-8.301,-95.703
1688141014.687,-17.090,-33.691,-41.016,-13.184,211.914
1688141014.690,-26.855,-33.203,-51.758,-17.578,-36.133
1688141014.694,-20.020,-40.527,-43.945,-25.391,-156.250
1688141014.698,-11.719,-51.270,-43.457,-17.578,-59.082
1688141014.702,-23.926,-45.898,-48.340,-15.625,6.836
1688141014.706,-19.531,-31.738,-40.039,-9.766,-82.031
1688141014.722,-11.719,-26.855,-39.062,-0.977,-180.664
1688141014.726,-10.254,-28.809,-44.434,-3.418,-94.727
1688141014.730,-11.230,-27.832,-41.504,-1.953,-46.875
1688141014.734,-26.855,-25.879,-34.668,-6.348,-121.094
1688141014.738,-22.949,-30.273,-39.062,-22.949,-195.801
1688141014.742,-30.273,-37.109,-52.246,-31.250,90.820
1688141014.746,-30.762,-37.598,-52.246,-27.344,303.711
1688141014.749,-12.695,-37.598,-48.828,-20.996,-0.488
1688141014.753,-6.836,-41.016,-46.387,-18.555,-99.121
1688141014.757,-23.926,-41.504,-44.434,-15.625,95.703
1688141014.761,-37.109,-42.969,-42.969,-16.113,75.195
1688141014.765,-22.949,-48.340,-43.945,-35.156,-177.246
1688141014.767,-29.297,-45.898,-47.852,-29.785,-145.508
1688141014.771,-27.344,-44.434,-44.434,-18.066,-53.711
1688141014.775,-34.180,-47.852,-43.945,-20.996,-119.141
1688141014.779,-32.227,-40.039,-41.992,-16.602,-158.691
1688141014.783,-20.996,-33.691,-37.109,-19.531,0.488
1688141014.787,-21.484,-34.668,-34.668,-19.531,140.625
1688141014.791,-21.973,-29.785,-34.668,-38.574,0.488
1688141014.794,-24.414,-29.297,-37.598,-42.969,-58.105
1688141014.798,-14.648,-39.551,-45.898,-20.020,-10.254
1688141014.802,-6.348,-41.992,-47.852,-7.324,274.414
1688141014.806,-11.719,-26.855,-33.691,-20.996,83.496
1688141014.810,-25.879,-25.879,-30.762,-39.551,-219.238
1688141014.812,-27.344,-31.250,-33.203,-40.039,-173.340
1688141014.816,-7.812,-26.855,-35.645,-20.020,-124.023
1688141014.820,-25.879,-30.273,-41.992,-12.207,-128.418
1688141014.824,-29.297,-35.645,-46.875,-18.555,-165.039
1688141014.828,-13.672,-37.598,-53.223,-20.508,-44.922
1688141014.832,-28.809,-40.039,-48.340,-22.949,63.965
1688141014.836,-26.367,-42.480,-41.992,-26.367,53.711
1688141014.839,-15.625,-34.668,-48.828,-28.320,-12.695
1688141014.843,-26.367,-34.180,-59.570,-44.922,189.941
1688141014.847,-45.898,-38.086,-52.734,-51.758,456.055
1688141014.851,-49.316,-35.156,-42.480,-41.504,37.109
1688141014.855,-40.039,-32.715,-41.992,-35.156,-254.883
1688141014.857,-23.926,-31.738,-35.156,-17.090,-148.926
1688141014.861,-7.812,-28.809,-28.320,-7.812,-189.941
1688141014.865,-7.324,-26.855,-36.133,-17.578,-200.195
1688141014.869,-20.508,-30.762,-40.039,-19.531,-189.453
1688141014.873,-17.578,-27.832,-33.691,-17.578,-154.297
1688141014.877,-16.602,-27.832,-33.203,-29.297,-64.453
1688141014.881,-9.277,-34.180,-38.086,-31.250,20.996
1688141014.884,-12.207,-31.250,-33.691,-14.648,61.523
1688141014.888,-18.066,-32.715,-30.762,-15.137,12.207
1688141014.892,-14.160,-33.203,-30.762,-19.043,-36.133
1688141014.896,-10.742,-23.438,-28.320,-17.578,-64.941
1688141014.900,4.883,-22.949,-33.203,-21.973,-4.883
1688141014.902,-4.883,-23.926,-35.156,-13.184,284.668
1688141014.906,-22.949,-21.973,-28.320,-12.695,25.391
1688141014.910,-38.086,-30.273,-21.973,-24.414,-208.984
1688141014.914,-38.574,-36.133,-22.949,-26.855,-93.262
1688141014.918,-17.578,-34.668,-29.297,-11.719,-75.195
1688141014.922,-10.742,-35.645,-38.574,-11.230,-50.293
1688141014.926,-26.367,-35.156,-40.039,-37.598,-66.895
1688141014.929,-24.902,-33.691,-42.969,-35.645,99.609
1688141014.933,-37.109,-38.086,-42.969,-27.832,356.934
1688141014.937,-49.805,-34.180,-33.203,-37.598,35.156
1688141014.941,-33.691,-22.949,-27.832,-38.574,-192.871
1688141014.945,-29.785,-27.344,-27.344,-30.762,-127.930
1688141014.948,-32.715,-27.344,-29.785,-11.230,-110.352
1688141014.952,-36.621,-24.902,-26.367,-23.926,-151.367
1688141014.956,-29.297,-27.832,-25.391,-47.363,-57.129
1688141014.960,-16.602,-29.297,-22.949,-45.410,88.867
1688141014.964,-23.438,-29.785,-20.020,-31.250,-34.180
1688141014.968,-38.086,-30.762,-26.367,-19.531,-83.496
1688141014.972,-44.434,-29.297,-31.250,-25.879,-11.719
1688141014.975,-37.598,-32.715,-31.738,-31.250,196.777
1688141014.979,-27.832,-30.762,-18.555,-30.273,41.504
1688141014.983,-34.180,-26.855,-22.461,-33.203,-155.762
1688141014.987,-52.734,-28.809,-33.691,-32.227,-85.938
1688141014.991,-49.805,-31.250,-24.902,-37.109,-12.207
1688141014.992,-28.809,-30.273,-27.832,-29.297,-98.633
1688141014.996,-23.438,-29.785,-34.180,-31.250,-177.734
1688141015.000,-29.297,-33.203,-30.273,-47.363,-52.734
1688141015.004,-44.434,-27.344,-30.273,-53.711,-58.594
1688141015.008,-32.227,-21.484,-34.180,-22.461,-127.930
1688141015.012,-20.508,-26.367,-25.391,-6.348,-74.219
1688141015.016,-53.223,-29.297,-16.113,-17.578,248.047
1688141015.019,-58.594,-20.508,-11.719,-17.578,523.926
1688141015.023,-59.570,-20.508,7.812,-37.109,93.262
1688141015.027,-71.289,-32.715,8.789,-54.688,-152.832
1688141015.031,-48.340,-38.086,7.812,-44.922,-59.570
1688141015.035,-53.223,-41.016,13.672,-62.500,-136.719
1688141015.037,-74.707,-43.945,13.184,-68.359,-176.758
1688141015.041,-70.312,-40.527,16.113,-54.199,-133.789
1688141015.045,-61.035,-39.551,16.113,-52.734,-87.402
1688141015.049,-43.457,-41.504,16.602,-35.645,-117.676
1688141015.053,-36.621,-39.062,17.578,-27.344,-134.277
1688141015.057,-38.574,-34.668,2.930,-38.574,-8.301
1688141015.061,-41.504,-35.156,-5.859,-37.598,220.215
1688141015.064,-49.316,-43.945,-2.930,-39.062,66.895
1688141015.068,-64.941,-46.387,-5.859,-42.480,-130.371
1688141015.072,-52.734,-42.969,-3.906,-27.832,-4.395
1688141015.076,-41.016,-41.016,-9.277,-36.621,207.031
1688141015.080,-56.152,-43.457,-13.672,-48.828,-69.336
1688141015.097,-53.711,-37.598,-9.277,-35.156,-214.844
1688141015.101,-47.852,-36.621,-4.883,-17.090,-68.848
1688141015.105,-41.016,-41.992,-4.395,-13.184,-38.574
1688141015.109,-23.926,-39.551,-12.207,-20.508,-41.992
1688141015.113,-31.250,-39.551,-13.672,-28.809,-79.590
1688141015.117,-31.738,-38.086,-12.695,-22.949,58.105
1688141015.121,-32.227,-37.598,-14.648,-22.461,108.887
1688141015.124,-38.574,-36.133,-15.137,-34.668,-42.480
1688141015.128,-21.973,-37.109,-22.461,-24.414,32.227
1688141015.132,-23.438,-44.922,-35.156,-17.578,230.469
1688141015.136,-35.156,-46.387,-36.621,-25.391,370.605
1688141015.140,-35.645,-47.852,-30.762,-28.320,1.465
1688141015.142,-35.156,-45.410,-35.156,-27.344,-192.871
1688141015.146,-30.762,-42.480,-40.527,-35.645,-134.277
1688141015.150,-29.785,-41.992,-38.574,-38.574,-204.590
1688141015.154,-41.016,-34.180,-40.527,-42.480,-197.754
1688141015.158,-36.133,-28.809,-49.316,-43.945,-198.242
1688141015.162,-24.902,-28.809,-45.898,-30.273,-85.938
1688141015.166,-31.738,-28.320,-32.227,-22.461,53.223
1688141015.169,-34.668,-26.367,-34.180,-24.902,-103.516
1688141015.173,-34.668,-28.809,-44.434,-36.621,-130.859
1688141015.177,-31.250,-32.227,-43.457,-34.180,180.664
1688141015.181,-27.344,-34.668,-34.180,-18.555,29.785
1688141015.185,-26.367,-31.250,-29.297,-9.766,-172.363
1688141015.187,-25.879,-33.203,-20.508,-20.508,-108.398
1688141015.191,-34.180,-35.645,-19.531,-32.715,-64.453
1688141015.195,-31.250,-29.297,-23.438,-33.691,-186.523
1688141015.199,-25.391,-29.785,-31.250,-25.879,-133.301
1688141015.203,-7.324,-36.133,-39.062,-3.906,20.020
1688141015.207,-10.742,-48.340,-31.738,-9.766,10.254
1688141015.211,-44.922,-48.828,-19.531,-42.480,-26.855
1688141015.214,-61.523,-48.340,-16.113,-47.852,-65.918
1688141015.218,-56.152,-47.852,-16.113,-37.109,168.457
1688141015.222,-53.223,-43.457,-8.789,-28.809,400.879
1688141015.226,-44.922,-44.922,-6.348,-31.250,-12.207
1688141015.230,-37.109,-49.316,-6.836,-35.156,-230.957
1688141015.247,-47.852,-51.270,-7.324,-40.527,-83.008
1688141015.251,-55.176,-53.223,-8.301,-33.691,-83.496
1688141015.255,-49.805,-55.176,-12.207,-30.762,-145.996
1688141015.259,-39.551,-47.852,-19.043,-36.621,-85.449
1688141015.263,-38.574,-44.434,-15.137,-36.133,13.672
1688141015.267,-48.828,-46.387,-5.859,-31.738,-119.629
1688141015.271,-31.738,-44.434,-0.488,-21.484,-131.836
1688141015.274,-6.348,-47.363,-9.277,-14.648,-1.953
1688141015.278,-14.160,-44.922,-20.020,-7.812,239.258
1688141015.282,-35.645,-37.598,-13.672,-4.883,15.137
1688141015.286,-45.410,-36.621,-14.648,-13.672,-191.895
1688141015.290,-40.527,-38.086,-19.043,-19.531,-56.641
1688141015.277,-26.855,-36.621,-19.043,-14.648,-63.965
1688141015.281,-20.020,-33.203,-20.996,-15.137,-137.207
1688141015.285,-28.809,-41.992,-23.926,-26.855,-138.184
1688141015.289,-28.809,-42.969,-21.973,-7.812,73.730
1688141015.293,-26.367,-36.621,-20.996,-6.836,44.434
1688141015.297,-16.602,-36.133,-21.484,-30.762,-57.129
1688141015.301,-8.789,-35.645,-24.902,-25.391,66.895
1688141015.304,-14.648,-44.434,-33.691,-27.344,147.461
1688141015.308,-29.785,-55.176,-27.832,-36.133,-19.043
1688141015.312,-37.598,-54.199,-13.672,-24.902,-127.441
1688141015.316,-32.715,-43.457,-9.766,-15.625,-139.160
1688141015.320,-31.738,-43.457,-20.508,-23.438,170.410
1688141015.322,-20.508,-40.039,-20.508,-18.066,358.398
1688141015.326,-19.531,-28.809,-15.625,-24.902,-40.527
1688141015.330,-26.855,-28.809,-24.414,-38.574,-127.441
1688141015.334,-33.691,-29.297,-19.043,-35.156,-18.066
1688141015.338,-27.832,-29.785,-15.625,-35.156,-53.711
1688141015.342,-15.137,-31.250,-19.043,-26.855,-70.312
1688141015.346,-28.809,-38.086,-27.832,-33.203,47.363
1688141015.349,-42.969,-33.691,-40.039,-42.480,338.867
1688141015.353,-33.691,-22.461,-36.133,-23.438,158.203
1688141015.357,-22.461,-25.391,-33.691,-6.348,-219.727
1688141015.361,-20.020,-19.531,-35.156,-21.484,-220.703
1688141015.365,-31.250,-17.090,-39.551,-50.781,-191.406
1688141015.367,-26.855,-21.973,-42.480,-54.199,-202.637
1688141015.371,-8.789,-18.555,-38.574,-40.039,-168.457
1688141015.375,-20.996,-28.320,-41.016,-36.133,-84.961
1688141015.379,-34.180,-33.203,-36.621,-35.156,-75.684
1688141015.383,-38.574,-24.414,-30.762,-48.828,-169.922
1688141015.387,-40.039,-24.414,-34.668,-47.363,-97.656
1688141015.391,-43.945,-34.180,-45.898,-34.668,237.305
1688141015.394,-35.645,-36.621,-47.363,-25.879,368.164
1688141015.398,-31.250,-33.691,-39.551,-29.785,52.734
1688141015.402,-34.180,-31.738,-39.062,-32.227,-144.043
1688141015.406,-31.250,-31.738,-43.457,-32.715,75.195
1688141015.410,-37.109,-27.344,-47.363,-39.062,87.891
1688141015.412,-32.715,-19.043,-51.270,-29.785,-188.477
1688141015.416,-22.461,-17.578,-47.363,-27.344,-168.457
1688141015.420,-27.344,-19.043,-45.898,-37.109,-99.609
1688141015.424,-38.086,-20.996,-41.016,-41.016,-116.699
1688141015.428,-36.621,-26.855,-40.039,-30.273,-185.059
1688141015.432,-22.949,-32.227,-46.387,-11.719,-22.461
1688141015.436,-15.625,-22.461,-42.480,-11.719,202.148
1688141015.439,-19.043,-10.254,-40.527,-21.484,-41.504
1688141015.443,-29.297,-12.695,-50.293,-23.926,-210.449
1688141015.447,-39.551,-19.043,-56.152,-22.949,-88.867
1688141015.451,-42.480,-20.020,-52.734,-29.785,98.633
1688141015.455,-23.926,-19.043,-49.316,-43.457,16.113
1688141015.473,-30.273,-23.926,-49.805,-45.898,-140.625
1688141015.477,-44.434,-30.762,-55.176,-41.992,-95.215
1688141015.481,-39.062,-33.691,-49.316,-38.086,-30.273
1688141015.485,-28.320,-36.621,-46.387,-30.762,-130.371
1688141015.489,-32.715,-34.180,-49.316,-30.273,-132.324
1688141015.493,-39.062,-30.762,-48.340,-32.227,91.309
1688141015.497,-26.367,-33.691,-42.480,-24.414,87.891
1688141015.500,-31.738,-37.109,-41.504,-16.113,-38.086
1688141015.504,-37.598,-41.504,-39.062,-27.832,-71.777
1688141015.508,-14.648,-38.574,-33.203,-24.902,86.914
1688141015.512,-0.488,-33.203,-27.832,-14.160,217.285
1688141015.516,-20.508,-28.320,-26.855,-34.668,-138.184
1688141015.517,-33.691,-25.391,-36.133,-30.762,-187.012
1688141015.521,-27.344,-27.832,-39.062,-15.625,-10.742
1688141015.525,-15.625,-28.320,-35.645,-11.719,-104.980
1688141015.529,-18.066,-33.691,-42.969,-20.996,-186.035
1688141015.533,-37.598,-26.855,-47.852,-43.945,-151.855
1688141015.537,-45.410,-14.648,-41.016,-40.039,14.160
1688141015.541,-28.320,-10.254,-35.645,-27.832,-24.902
1688141015.544,-10.742,-10.254,-29.297,-28.320,-112.793
1688141015.548,-17.578,-17.090,-28.320,-24.902,-79.590
1688141015.552,-30.273,-16.602,-32.715,-17.578,192.871
1688141015.556,-32.715,-15.137,-29.785,-34.180,31.250
1688141015.560,-38.086,-24.902,-28.320,-37.598,-185.547
1688141015.563,-36.621,-34.668,-30.273,-26.855,-97.656
1688141015.567,-28.320,-35.645,-33.203,-27.344,-65.430
1688141015.571,-25.879,-29.785,-31.738,-30.273,-64.453
1688141015.575,-39.062,-28.320,-29.297,-37.598,-59.082
1688141015.579,-43.457,-27.344,-30.273,-33.691,28.320
1688141015.583,-28.320,-28.809,-30.762,-29.785,81.543
1688141015.587,-27.344,-32.715,-35.645,-24.902,16.113
1688141015.590,-31.738,-28.320,-39.062,-41.016,-62.988
1688141015.594,-36.621,-28.320,-41.992,-42.480,116.699
1688141015.598,-41.992,-31.250,-37.598,-27.344,349.121
1688141015.602,-37.109,-25.879,-28.809,-27.832,33.203
1688141015.606,-23.926,-27.344,-34.668,-34.668,-124.023
1688141015.608,-35.156,-33.691,-38.086,-35.645,-89.355
1688141015.612,-44.434,-26.855,-38.086,-36.621,-176.758
1688141015.616,-27.832,-20.996,-39.062,-32.715,-170.898
1688141015.620,-28.809,-21.484,-33.203,-24.902,-151.367
1688141015.624,-31.738,-22.949,-27.344,-22.949,-66.895
1688141015.628,-39.062,-31.250,-30.273,-37.598,-4.883
1688141015.632,-48.828,-39.551,-39.062,-50.293,-108.887
1688141015.635,-43.945,-39.551,-41.016,-42.969,-19.531
1688141015.639,-41.992,-30.273,-37.109,-44.434,376.465
1688141015.643,-31.250,-23.926,-28.320,-40.527,211.426
1688141015.647,-31.738,-28.809,-25.879,-41.504,-199.707
1688141015.651,-42.969,-35.156,-30.273,-52.734,-192.383
1688141015.653,-30.273,-29.785,-32.227,-37.598,-143.555
1688141015.657,-28.320,-32.227,-41.016,-13.184,-152.832
1688141015.661,-27.832,-51.270,-46.387,-16.113,-92.773
1688141015.665,-8.789,-46.387,-31.250,-15.137,-28.320
1688141015.669,-23.438,-27.344,-29.297,-33.691,-23.438
1688141015.673,-27.344,-31.738,-49.805,-56.641,-67.871
1688141015.677,-8.301,-41.504,-60.547,-31.250,-73.730
1688141015.680,-0.488,-46.387,-71.777,-14.648,250.488
1688141015.684,-8.789,-42.480,-73.242,0.977,566.406
1688141015.688,-19.043,-39.062,-67.871,7.812,134.766
1688141015.692,-18.555,-44.922,-66.895,-11.230,-211.914
1688141015.696,-18.555,-48.828,-58.594,-3.418,-27.344
1688141015.697,-5.859,-54.199,-41.504,7.812,-92.285
1688141015.701,2.930,-56.641,-34.180,2.441,-206.055
1688141015.705,-8.301,-54.688,-40.527,-5.371,-153.809
1688141015.709,4.395,-44.922,-41.992,-4.395,-109.375
1688141015.713,0.977,-37.598,-38.086,11.719,-115.723
1688141015.717,-12.695,-37.598,-38.574,3.906,-90.820
1688141015.721,11.230,-34.180,-42.969,-12.207,-10.254
1688141015.724,6.348,-29.785,-46.875,-10.742,215.820
1688141015.728,-20.020,-32.715,-42.969,-31.738,4.883
1688141015.732,-20.020,-29.785,-51.758,-20.996,-237.305
1688141015.736,-7.812,-25.879,-67.383,-3.418,-99.609
1688141015.740,-1.953,-25.391,-68.359,-5.371,-24.414
1688141015.743,-0.977,-18.555,-62.500,4.883,-103.027
1688141015.747,-8.301,-19.531,-56.152,-1.465,-189.453
1688141015.751,-25.879,-25.879,-57.617,-6.836,-68.359
1688141015.755,-13.184,-27.344,-55.176,-5.859,-4.395
1688141015.759,-5.859,-29.785,-47.852,-3.418,-94.238
1688141015.763,-15.137,-32.227,-44.434,-9.766,-78.613
1688141015.767,-13.184,-29.785,-46.875,-19.531,115.723
1688141015.770,-8.789,-27.832,-44.922,-18.555,298.340
1688141015.774,-9.766,-29.785,-36.133,-16.602,6.348
1688141015.778,-14.160,-29.297,-41.016,-11.719,-133.301
1688141015.782,-28.320,-29.297,-50.781,-20.996,104.980
1688141015.786,-38.086,-26.855,-38.086,-25.391,2.441
1688141015.803,-27.344,-25.879,-40.039,-23.926,-202.148
1688141015.807,-13.184,-23.926,-52.246,-30.273,-38.086
1688141015.811,-26.367,-24.414,-49.805,-29.297,114.746
1688141015.815,-36.621,-26.855,-45.898,-35.645,-50.781
1688141015.819,-37.598,-22.461,-43.457,-37.109,-171.875
1688141015.823,-34.668,-22.949,-41.504,-30.762,-51.270
1688141015.827,-22.461,-28.320,-39.062,-21.484,225.098
1688141015.830,-19.043,-29.785,-35.645,-36.133,45.898
1688141015.834,-29.785,-32.227,-38.086,-39.062,-191.895
1688141015.838,-46.875,-34.668,-45.410,-34.180,-97.656
1688141015.842,-52.246,-27.832,-41.992,-44.434,18.555
1688141015.846,-38.086,-25.879,-36.133,-39.062,-53.711
1688141015.848,-26.367,-28.809,-35.645,-27.344,-150.879
1688141015.852,-23.926,-26.855,-39.551,-25.879,-93.750
1688141015.856,-30.273,-27.832,-41.992,-42.480,-77.637
1688141015.860,-37.598,-34.668,-46.875,-54.199,-104.492
1688141015.864,-30.762,-36.133,-47.363,-41.992,-20.996
1688141015.868,-16.602,-28.809,-40.039,-18.066,80.566
1688141015.872,-16.602,-23.438,-37.109,-12.207,45.410
1688141015.875,-27.344,-25.391,-39.062,-25.391,-25.391
1688141015.879,-32.227,-31.250,-38.574,-30.273,-62.012
1688141015.883,-25.879,-36.133,-44.922,-16.113,146.973
1688141015.887,-3.418,-34.180,-50.781,2.930,435.059
1688141015.891,4.395,-23.926,-42.480,9.277,109.863
1688141015.893,-13.672,-32.715,-33.203,-12.695,-183.594
1688141015.897,-41.016,-44.922,-32.715,-34.668,-153.809
1688141015.901,-29.297,-42.480,-36.621,-18.066,-168.457
1688141015.905,-4.395,-43.945,-37.598,-4.395,-142.578
1688141015.909,3.418,-46.387,-38.086,-18.555,-61.523
1688141015.913,-13.672,-52.734,-30.273,-24.902,78.125
1688141015.917,-26.855,-56.641,-27.832,-28.320,94.238
1688141015.920,-18.066,-53.223,-32.715,-19.531,-20.996
1688141015.924,-18.066,-49.805,-29.297,-1.953,-40.527
1688141015.928,-7.812,-44.434,-32.715,7.324,252.930
1688141015.932,-11.230,-40.039,-29.297,-4.883,88.379
1688141015.936,-30.762,-43.457,-22.949,-12.207,-257.812
1688141015.939,-19.043,-37.109,-27.832,-1.953,-186.523
1688141015.943,-11.230,-33.691,-26.367,-1.465,-127.441
1688141015.947,-4.395,-34.180,-24.414,5.371,-163.086
1688141015.951,2.441,-27.832,-32.227,8.301,-136.719
1688141015.955,-21.973,-30.762,-40.527,-16.113,-68.359
1688141015.959,-19.531,-32.227,-38.086,-21.484,12.695
1688141015.963,-10.742,-35.645,-34.180,-14.648,76.660
1688141015.966,-9.766,-39.062,-34.668,-13.184,-24.414
1688141015.970,0.488,-35.156,-36.133,-4.883,144.043
1688141015.974,-0.488,-36.133,-33.691,-3.418,428.711
1688141015.978,-20.508,-30.273,-26.367,-11.230,53.223
1688141015.982,-15.137,-29.297,-33.691,-20.020,-202.148
1688141015.982,-1.953,-28.809,-39.062,-23.438,-104.004
1688141015.986,-19.043,-20.508,-29.785,-23.926,-182.617
1688141015.990,-21.973,-26.855,-28.809,-23.438,-240.723
1688141015.994,-15.625,-39.062,-35.156,-21.973,-179.688
1688141015.998,-26.855,-42.480,-32.715,-17.090,-101.562
1688141016.002,-20.508,-43.945,-34.668,-26.367,-17.090
1688141016.006,-17.578,-39.062,-41.016,-46.387,-72.266
1688141016.009,-38.086,-40.527,-39.551,-43.945,-68.848
1688141016.013,-45.898,-46.875,-42.480,-28.809,242.676
1688141016.017,-41.016,-38.086,-41.992,-33.691,37.598
1688141016.021,-25.391,-32.715,-40.039,-31.738,-166.016
1688141016.025,-18.066,-33.691,-41.992,-17.578,-21.484
1688141016.027,-19.043,-27.344,-38.086,-20.996,-42.480
1688141016.031,-29.785,-19.043,-42.480,-42.480,-152.344
1688141016.035,-38.574,-22.461,-47.852,-35.156,-149.414
1688141016.039,-30.762,-33.203,-43.945,-11.719,-40.039
1688141016.043,-25.391,-33.691,-40.527,-6.836,-42.969
1688141016.047,-25.879,-27.832,-33.203,-0.488,-64.453
1688141016.051,-22.461,-23.438,-29.297,-2.441,-43.945
1688141016.054,-33.691,-23.926,-35.645,-6.836,139.160
1688141016.058,-41.504,-30.762,-38.574,-11.719,466.309
1688141016.062,-23.926,-29.785,-35.156,-44.434,107.910
1688141016.066,-22.461,-24.902,-44.434,-51.270,-195.312
1688141016.070,-32.227,-21.484,-47.363,-38.574,-125.000
1688141016.073,-8.789,-24.902,-49.316,-24.414,-163.574
1688141016.077,-15.137,-29.785,-55.664,-17.090,-182.617
1688141016.081,-44.922,-31.738,-43.945,-34.668,-65.430
1688141016.085,-67.871,-35.645,-33.203,-57.617,35.645
1688141016.089,-68.359,-42.969,-33.203,-54.688,-78.125
1688141016.093,-45.410,-42.969,-32.715,-31.738,-86.426
1688141016.097,-51.758,-39.062,-28.320,-42.969,34.180
1688141016.100,-65.918,-38.086,-25.879,-50.781,230.957
1688141016.104,-55.664,-35.645,-23.926,-47.363,17.578
1688141016.108,-57.129,-37.598,-26.855,-56.641,-222.656
1688141016.112,-57.129,-37.109,-34.180,-44.922,-165.527
1688141016.116,-42.480,-31.738,-34.180,-32.715,-107.422
1688141016.117,-33.203,-33.691,-33.203,-20.508,-99.609
1688141016.121,-34.668,-33.691,-39.062,-30.273,-94.238
1688141016.125,-49.316,-31.250,-44.434,-43.945,-42.480
1688141016.129,-46.387,-39.551,-43.945,-44.922,-54.688
1688141016.133,-26.367,-41.016,-43.945,-34.180,16.113
1688141016.137,-9.277,-37.109,-44.434,-25.391,24.414
1688141016.141,-32.227,-42.480,-49.316,-34.668,198.730
1688141016.144,-48.340,-42.969,-47.363,-34.668,344.238
1688141016.148,-48.828,-37.598,-33.691,-27.832,-51.270
1688141016.152,-40.039,-39.062,-32.227,-32.715,-198.730
1688141016.156,-37.109,-40.039,-40.527,-33.203,116.699
1688141016.160,-45.410,-45.898,-37.598,-41.992,201.660
1688141016.163,-40.527,-42.480,-25.391,-51.270,-102.051
1688141016.167,-35.645,-37.598,-28.320,-34.668,-152.344
1688141016.171,-21.973,-38.574,-38.086,-25.879,-85.449
1688141016.175,-24.414,-35.645,-35.156,-25.879,-128.906
1688141016.179,-38.086,-34.668,-26.855,-18.066,-195.312
1688141016.183,-41.992,-37.109,-30.273,-14.160,-32.227
1688141016.187,-54.688,-39.062,-35.156,-21.484,326.172
1688141016.190,-44.922,-33.691,-21.484,-18.066,175.293
1688141016.194,-32.715,-30.762,-19.043,-14.160,-162.109
1688141016.198,-39.551,-34.180,-29.785,-17.578,-133.301
1688141016.202,-36.621,-34.668,-29.785,-33.203,1.465
1688141016.206,-26.367,-33.203,-29.297,-44.434,-188.477
1688141016.222,-29.297,-29.297,-31.250,-35.645,-226.562
1688141016.226,-20.508,-27.832,-35.645,-31.250,-62.988
1688141016.230,-19.043,-30.762,-41.992,-34.180,-58.105
1688141016.234,-19.043,-31.738,-44.922,-33.203,-147.461
1688141016.238,-29.785,-34.180,-43.945,-37.109,-145.996
1688141016.242,-32.715,-38.086,-41.992,-31.738,38.086
1688141016.246,-28.320,-39.551,-43.457,-33.691,23.926
1688141016.249,-27.832,-39.551,-44.922,-39.062,-98.145
1688141016.253,-26.855,-38.086,-43.945,-30.273,-11.719
1688141016.257,-25.391,-37.598,-51.270,-28.809,79.102
1688141016.261,-29.785,-35.156,-47.852,-32.715,-77.637
1688141016.265,-16.113,-31.250,-43.945,-26.855,-157.715
1688141016.267,-15.137,-34.180,-45.898,-35.645,-161.133
1688141016.271,-26.367,-43.945,-50.781,-36.621,101.074
1688141016.275,-21.484,-40.527,-41.992,-21.973,294.434
1688141016.279,-24.902,-35.645,-32.715,-14.160,-37.598
1688141016.283,-25.879,-39.062,-34.668,-20.996,-114.258
1688141016.287,-12.695,-32.227,-30.273,-23.926,70.312
1688141016.291,-15.137,-26.367,-33.203,-24.414,26.855
1688141016.294,-19.531,-29.785,-38.086,-28.809,-142.578
1688141016.298,-17.090,-31.250,-41.016,-22.461,-131.836
1688141016.302,-35.156,-29.297,-40.527,-28.809,200.195
1688141016.306,-42.969,-24.902,-36.621,-38.574,18.066
1688141016.310,-45.410,-22.949,-37.598,-58.594,-180.176
1688141016.313,-60.059,-27.832,-38.086,-72.266,-9.277
1688141016.317,-63.965,-31.250,-34.180,-60.547,-47.852
1688141016.321,-53.223,-31.738,-34.180,-44.434,-177.734
1688141016.325,-51.270,-34.180,-38.574,-45.898,-158.203
1688141016.329,-51.270,-31.738,-40.527,-43.457,-81.543
1688141016.333,-60.059,-35.645,-46.875,-52.734,0.488
1688141016.337,-71.289,-38.574,-46.387,-69.824,69.336
1688141016.340,-60.059,-31.250,-38.574,-48.340,70.801
1688141016.344,-49.805,-33.691,-41.992,-34.668,204.102
1688141016.348,-51.270,-32.227,-39.062,-44.922,339.355
1688141016.352,-44.434,-26.855,-24.902,-35.645,-22.461
1688141016.356,-54.688,-32.715,-23.438,-45.898,-217.773
1688141016.358,-61.523,-34.668,-33.203,-49.805,-133.301
1688141016.362,-41.016,-28.320,-37.598,-25.879,-167.480
1688141016.366,-29.297,-28.809,-34.180,-29.297,-145.508
1688141016.370,-51.758,-37.109,-25.879,-57.617,-130.371
1688141016.374,-51.758,-31.738,-19.043,-53.223,-95.703
1688141016.378,-43.457,-23.926,-20.996,-25.391,-94.238
1688141016.382,-41.016,-27.832,-24.902,-24.902,-38.574
1688141016.385,-25.391,-29.785,-19.043,-25.879,-23.438
1688141016.389,-30.273,-33.203,-19.531,-21.973,241.211
1688141016.393,-48.340,-33.691,-20.508,-30.762,128.418
1688141016.397,-47.852,-26.367,-21.484,-24.414,-189.453
1688141016.401,-46.387,-29.297,-25.879,-29.785,-120.605
1688141016.403,-49.805,-36.621,-30.273,-30.273,-75.684
1688141016.407,-36.133,-36.621,-32.227,-15.625,-168.457
1688141016.411,-41.992,-36.133,-27.344,-36.621,-208.984
1688141016.415,-57.129,-40.039,-26.855,-37.109,-122.559
1688141016.419,-45.410,-38.574,-22.461,-21.484,5.371
1688141016.423,-36.621,-41.504,-22.949,-22.461,65.918
1688141016.427,-35.156,-44.922,-27.344,-28.320,-1.465
1688141016.430,-38.574,-37.598,-26.367,-23.926,198.730
1688141016.434,-41.504,-34.180,-20.508,-27.832,502.930
1688141016.438,-28.809,-38.086,-12.695,-31.738,190.918
1688141016.442,-18.066,-41.504,-17.578,-15.137,-110.840
1688141016.446,-27.344,-35.645,-22.949,-2.930,-128.906
1688141016.447,-36.621,-37.109,-28.320,-15.137,-194.824
1688141016.451,-33.691,-41.992,-38.574,-2.930,-205.566
1688141016.455,-26.855,-41.992,-41.016,0.000,-151.855
1688141016.459,-16.602,-41.992,-32.715,-0.977,-101.562
1688141016.463,-15.137,-38.086,-34.180,-8.789,-185.059
1688141016.467,-34.180,-34.180,-37.109,-62.500,-155.762
1688141016.471,-38.086,-28.320,-33.203,-68.359,-24.414
1688141016.474,-29.297,-29.297,-36.621,-33.203,281.250
1688141016.478,-33.691,-33.203,-38.574,-27.344,200.684
1688141016.482,-35.645,-30.273,-36.621,-34.668,-162.109
1688141016.486,-41.992,-21.484,-37.109,-41.016,-137.207
1688141016.490,-43.457,-19.043,-34.180,-31.738,-29.297
1688141016.492,-40.527,-22.461,-27.832,-26.367,-57.129
1688141016.496,-38.086,-22.461,-27.832,-27.344,-91.309
1688141016.500,-43.457,-23.438,-32.227,-34.668,-107.910
1688141016.504,-58.105,-32.715,-37.109,-31.250,-195.312
1688141016.508,-58.105,-33.691,-39.062,-32.715,-249.512
1688141016.512,-43.457,-28.320,-35.156,-41.504,-137.695
1688141016.516,-44.922,-30.762,-36.621,-29.785,156.738
1688141016.519,-44.434,-27.344,-34.180,-22.949,251.465
1688141016.523,-38.086,-25.879,-26.367,-24.902,-114.746
1688141016.527,-51.270,-30.762,-38.086,-37.598,-237.793
1688141016.531,-44.922,-33.203,-42.969,-39.062,73.730
1688141016.535,-26.367,-25.879,-37.109,-31.738,-1.953
1688141016.537,-43.945,-23.926,-37.109,-35.156,-220.215
1688141016.541,-39.551,-22.461,-35.156,-41.992,-183.594
1688141016.545,-21.973,-23.438,-37.109,-43.457,-156.250
1688141016.549,-39.062,-32.715,-37.109,-34.180,-161.621
1688141016.553,-24.414,-29.785,-34.668,-33.203,-168.945
1688141016.557,-15.137,-26.855,-39.062,-35.156,-32.715
1688141016.561,-21.484,-26.367,-39.062,-38.086,172.363
1688141016.564,-26.367,-24.414,-33.691,-46.875,-71.289
1688141016.568,-39.062,-21.973,-37.109,-45.410,-205.566
1688141016.572,-23.926,-26.855,-37.598,-23.926,-25.391
1688141016.576,-10.254,-30.273,-36.621,-20.020,37.598
1688141016.580,-16.113,-23.926,-39.551,-34.180,-50.781
1688141016.583,-26.855,-20.508,-41.504,-38.574,-39.551
1688141016.587,-29.785,-20.508,-34.668,-32.715,4.883
1688141016.591,-11.230,-22.461,-31.738,-30.762,30.273
1688141016.595,1.953,-16.113,-27.344,-24.414,-51.270
1688141016.599,-21.973,-9.277,-24.902,-25.879,-68.848
1688141016.603,-41.016,-6.348,-34.180,-34.180,85.449
1688141016.607,-55.176,-20.020,-35.645,-50.293,108.398
1688141016.610,-64.453,-14.160,-42.480,-54.199,46.875
1688141016.614,-55.664,-6.836,-31.738,-67.871,-98.633
1688141016.618,-73.242,9.277,-37.109,-89.844,58.594
1688141016.622,-136.230,42.969,-35.156,-122.070,318.359
1688141016.626,-166.992,56.641,-26.855,-173.340,-43.945
1688141016.643,-165.527,52.246,-47.852,-190.430,-176.270
1688141016.647,-169.434,57.617,-45.898,-199.707,-67.871
1688141016.651,-207.031,58.105,-56.152,-230.469,-5.371
1688141016.655,-222.656,61.523,-72.266,-244.629,-64.941
1688141016.659,-229.980,79.590,-68.848,-262.695,-116.211
1688141016.663,-231.934,83.984,-54.199,-267.090,229.980
1688141016.667,-227.539,67.871,-46.875,-262.695,86.426
1688141016.670,-202.637,60.059,-66.406,-248.047,-198.730
1688141016.674,-196.289,55.176,-63.477,-251.953,-139.648
1688141016.678,-197.266,48.828,-59.570,-246.582,92.773
1688141016.682,-160.645,43.457,-74.707,-225.098,-4.883
1688141016.686,-136.719,38.086,-81.055,-206.055,-169.434
1688141016.687,-129.883,33.203,-84.473,-192.871,-101.562
1688141016.691,-119.141,24.414,-90.332,-179.688,-100.098
1688141016.695,-96.191,19.531,-96.191,-158.691,-189.453
1688141016.699,-56.152,21.973,-98.633,-125.977,-149.902
1688141016.703,-23.926,17.090,-101.562,-98.633,41.016
1688141016.707,-5.859,5.859,-103.516,-71.777,98.633
1688141016.711,7.812,-0.977,-114.746,-35.156,-36.133
1688141016.714,26.855,-8.301,-118.164,-16.602,-32.715
1688141016.718,74.219,-20.508,-114.258,8.789,275.391
1688141016.722,88.867,-25.879,-110.352,32.227,501.953
1688141016.726,83.008,-25.879,-101.562,39.551,154.785
1688141016.730,93.262,-26.367,-109.863,44.434,-136.719
1688141016.733,92.773,-29.785,-112.305,56.152,-99.121
1688141016.737,122.070,-35.156,-101.074,70.801,-184.082
1688141016.741,133.301,-38.086,-90.820,78.125,-196.289
1688141016.745,117.188,-41.992,-97.656,95.703,-114.258
1688141016.749,122.070,-41.504,-100.586,93.750,-30.762
1688141016.753,116.211,-39.551,-88.379,84.961,71.289
1688141016.757,126.465,-40.527,-85.938,96.191,41.016
1688141016.760,137.207,-36.133,-87.402,116.211,49.316
1688141016.764,142.578,-36.133,-83.984,119.629,356.445
1688141016.768,129.395,-37.598,-78.125,113.281,170.410
1688141016.772,120.117,-38.086,-81.543,112.305,-168.945
1688141016.776,122.559,-45.410,-84.473,116.699,-132.324
1688141016.778,116.211,-48.828,-73.730,110.840,-87.402
1688141016.782,121.094,-48.340,-72.266,109.375,-80.078
1688141016.786,118.164,-41.992,-72.754,99.121,-104.004
1688141016.790,123.535,-39.062,-72.266,93.262,-104.004
1688141016.794,130.859,-43.457,-75.684,103.027,-119.141
1688141016.798,111.816,-42.480,-76.660,106.934,-23.926
1688141016.802,88.867,-35.645,-75.684,99.121,93.262
1688141016.805,90.332,-42.969,-77.637,107.422,188.965
1688141016.809,86.914,-42.480,-71.777,99.609,392.090
1688141016.813,64.453,-41.016,-60.547,71.289,15.137
1688141016.817,54.199,-50.781,-61.035,68.848,-112.305
1688141016.821,60.059,-51.270,-60.547,59.570,95.703
1688141016.823,53.711,-49.316,-62.988,41.992,-91.309
1688141016.827,35.156,-55.664,-67.383,36.133,-147.949
1688141016.831,23.926,-54.199,-65.918,45.410,-62.012
1688141016.835,11.719,-50.293,-61.523,42.480,-18.555
1688141016.839,9.277,-46.387,-62.500,27.344,-83.496
1688141016.843,14.160,-45.898,-65.430,27.832,-153.320
1688141016.847,12.695,-49.316,-64.453,37.109,-14.648
1688141016.850,3.906,-42.969,-62.500,32.715,237.793
1688141016.854,13.184,-39.062,-53.223,19.531,72.754
1688141016.858,14.648,-45.410,-50.293,16.113,-103.027
1688141016.862,-7.324,-46.387,-58.594,0.000,-62.012
1688141016.866,-14.160,-46.875,-56.641,-14.160,-101.074
1688141016.868,-20.020,-49.805,-49.316,-12.207,-49.805
1688141016.872,-11.719,-49.316,-51.758,-1.465,-29.785
1688141016.876,-6.836,-49.805,-53.223,0.000,-5.859
1688141016.880,-12.695,-43.945,-46.875,-3.906,25.879
1688141016.884,-9.766,-39.062,-43.945,-15.137,-47.363
1688141016.888,-18.066,-45.410,-41.504,-22.461,-37.598
1688141016.892,-18.555,-47.363,-44.434,-26.367,202.637
1688141016.895,-10.254,-48.828,-46.875,-16.602,508.789
1688141016.899,-24.414,-50.781,-39.062,-15.137,121.582
1688141016.903,-21.484,-46.875,-41.504,-22.949,-144.043
1688141016.907,-23.438,-49.316,-50.293,-27.832,62.500
1688141016.911,-33.203,-48.340,-41.016,-19.531,-0.977
1688141016.913,-17.090,-43.457,-37.109,-20.020,-163.086
1688141016.917,0.977,-45.898,-53.711,-35.156,-140.137
1688141016.921,-10.254,-49.316,-64.453,-38.086,-63.965
1688141016.925,-36.133,-52.246,-74.707,-46.387,-75.684
1688141016.929,-35.645,-46.875,-79.102,-40.039,-168.945
1688141016.933,-25.391,-45.898,-78.613,-23.438,-53.223
1688141016.937,-15.625,-41.992,-79.590,-30.273,359.863
1688141016.940,-20.996,-32.227,-74.707,-41.504,228.027
1688141016.944,-28.809,-32.227,-66.406,-43.457,-135.742
1688141016.948,-20.508,-30.762,-64.941,-36.133,-132.812
1688141016.952,-11.719,-26.367,-60.059,-28.809,-80.566
1688141016.956,-19.531,-30.762,-60.547,-29.785,-81.055
1688141016.972,-27.344,-35.156,-65.918,-31.738,-129.395
1688141016.976,-43.945,-40.527,-65.430,-34.668,-111.328
1688141016.980,-55.176,-47.363,-64.941,-50.781,-55.664
1688141016.984,-47.363,-49.316,-71.777,-54.688,-78.613
1688141016.988,-40.527,-44.434,-73.730,-50.781,-104.492
1688141016.992,-41.992,-44.434,-79.102,-43.945,20.996
1688141016.996,-40.527,-41.016,-97.656,-42.480,79.102
1688141016.999,-54.199,-37.598,-118.652,-48.340,35.156
1688141017.003,-57.129,-43.457,-125.000,-51.758,-1.465
1688141017.007,-53.711,-45.410,-125.000,-43.457,235.352
1688141017.011,-62.500,-42.969,-119.141,-30.762,495.605
1688141017.015,-61.523,-46.387,-111.816,-42.480,83.008
1688141017.018,-56.152,-54.199,-116.699,-36.133,-182.129
1688141017.022,-32.715,-46.875,-112.793,-13.184,-64.941
1688141017.026,-35.156,-29.785,-107.910,-34.180,-72.266
1688141017.030,-51.270,-24.902,-116.211,-52.246,-144.531
1688141017.034,-44.434,-23.438,-129.883,-48.828,-124.023
1688141017.038,-46.875,-20.508,-135.254,-45.410,17.090
1688141017.042,-48.340,-16.113,-135.742,-50.781,-5.859
1688141017.045,-26.367,-15.625,-127.930,-41.992,-142.090
1688141017.049,-32.227,-20.996,-123.047,-25.391,-76.172
1688141017.053,-44.434,-24.414,-120.117,-24.414,278.320
1688141017.057,-55.664,-28.809,-107.910,-34.668,145.508
1688141017.061,-44.434,-32.227,-106.445,-32.227,-150.391
1688141017.062,-24.902,-31.250,-112.305,-30.273,-59.082
1688141017.066,-25.391,-33.203,-110.352,-41.992,-46.875
1688141017.070,-35.645,-41.992,-108.398,-45.410,-132.812
1688141017.074,-52.734,-42.969,-112.305,-41.016,-133.301
1688141017.078,-57.617,-42.969,-108.887,-43.945,-29.785
1688141017.082,-46.875,-45.410,-101.562,-37.598,15.137
1688141017.086,-30.273,-41.504,-99.609,-23.438,-5.371
1688141017.089,-35.645,-37.598,-101.074,-28.809,-63.477
1688141017.093,-51.270,-39.062,-106.445,-32.715,90.820
1688141017.097,-44.922,-41.016,-103.516,-27.832,160.156
1688141017.101,-38.574,-43.457,-96.680,-31.738,-27.344
1688141017.105,-44.434,-48.828,-92.285,-46.387,-28.809
1688141017.107,-62.012,-46.875,-90.332,-40.039,160.645
1688141017.111,-69.824,-49.316,-85.938,-41.992,72.754
1688141017.115,-53.711,-52.246,-90.820,-54.688,-210.938
1688141017.119,-40.527,-49.805,-95.703,-48.828,-142.578
1688141017.123,-28.809,-45.410,-88.867,-47.363,-90.332
1688141017.127,-34.180,-47.363,-94.238,-52.734,5.859
1688141017.131,-53.223,-49.316,-96.680,-51.270,-26.367
1688141017.134,-59.570,-49.805,-88.867,-34.668,-64.941
1688141017.138,-36.621,-52.246,-92.285,-23.926,206.543
1688141017.142,-33.203,-51.270,-94.238,-32.227,9.277
1688141017.146,-52.246,-54.199,-94.727,-35.156,-240.234
1688141017.150,-62.012,-55.664,-98.145,-38.086,-195.312
1688141017.153,-53.223,-47.363,-103.516,-35.645,-194.336
1688141017.157,-37.598,-46.387,-104.492,-36.621,-98.145
1688141017.161,-36.133,-49.805,-110.352,-41.504,-148.926
1688141017.165,-29.297,-45.898,-109.375,-38.574,-101.074
1688141017.169,-36.133,-43.457,-101.074,-46.387,-1.953
1688141017.173,-56.641,-48.340,-102.051,-57.129,-35.645
1688141017.177,-63.477,-46.875,-104.004,-56.152,-76.660
1688141017.180,-58.105,-49.316,-107.910,-43.457,88.867
1688141017.184,-67.383,-53.223,-108.887,-43.457,378.418
1688141017.188,-66.895,-47.852,-106.934,-55.664,-33.203
1688141017.192,-55.664,-47.852,-108.398,-59.082,-275.391
1688141017.196,-58.105,-52.734,-104.492,-52.246,-60.059
1688141017.198,-49.316,-54.199,-105.957,-50.781,-80.566
1688141017.202,-42.969,-52.246,-111.328,-49.805,-181.152
1688141017.206,-40.039,-50.781,-103.027,-41.504,-204.102
1688141017.210,-39.062,-54.688,-105.469,-42.480,-152.344
1688141017.214,-42.480,-53.223,-103.027,-44.434,-76.172
1688141017.218,-27.344,-53.223,-103.516,-40.527,-5.371
1688141017.222,-27.832,-56.641,-115.723,-39.551,56.641
1688141017.225,-40.527,-54.688,-120.117,-40.527,249.512
1688141017.229,-47.363,-42.969,-113.770,-40.039,149.902
1688141017.233,-25.391,-35.645,-116.699,-38.086,-141.113
1688141017.237,-27.344,-39.551,-125.000,-44.434,-160.645
1688141017.241,-41.016,-38.574,-129.883,-50.293,-124.023
1688141017.242,-36.133,-40.527,-130.371,-55.176,-155.762
1688141017.246,-46.387,-41.992,-129.883,-62.500,-210.938
1688141017.250,-54.688,-43.945,-132.812,-56.152,-143.066
1688141017.254,-34.668,-50.293,-130.371,-50.781,-92.773
1688141017.258,-21.973,-51.758,-132.324,-50.293,-118.652
1688141017.262,-17.578,-43.457,-134.766,-40.527,-83.008
1688141017.266,-27.832,-43.457,-131.836,-37.109,155.762
1688141017.269,-40.527,-47.852,-123.535,-39.551,254.883
1688141017.273,-34.668,-42.480,-121.094,-24.902,9.766
1688141017.277,-20.020,-42.480,-128.418,-16.113,-19.043
1688141017.281,-26.367,-47.852,-130.371,-21.484,110.840
1688141017.285,-39.551,-53.223,-121.094,-22.949,48.828
1688141017.288,-40.527,-52.246,-117.188,-25.879,-203.613
1688141017.292,-34.180,-51.270,-120.117,-22.949,-187.500
1688141017.296,-20.020,-51.270,-125.977,-20.508,-104.492
1688141017.300,-16.602,-41.992,-131.836,-28.320,-125.000
1688141017.304,-28.320,-41.504,-132.812,-35.645,-208.008
1688141017.308,-41.016,-48.340,-138.672,-33.203,-81.055
1688141017.312,-43.945,-51.758,-141.602,-24.414,295.898
1688141017.315,-30.762,-44.922,-127.441,-32.227,107.910
1688141017.319,-31.250,-37.109,-121.582,-31.738,-149.414
1688141017.323,-42.969,-40.527,-120.605,-31.738,-138.672
1688141017.327,-45.898,-44.922,-119.629,-28.320,-64.941
1688141017.331,-35.156,-35.156,-118.164,-17.578,-106.934
1688141017.332,-18.066,-34.180,-116.211,-30.762,-155.273
1688141017.336,-21.973,-38.086,-122.070,-42.480,-94.727
1688141017.340,-32.227,-32.227,-129.883,-42.480,-89.355
1688141017.344,-35.645,-38.086,-121.094,-36.621,-161.133
1688141017.348,-32.227,-46.875,-110.840,-25.879,-142.090
1688141017.352,-27.832,-44.922,-108.887,-24.902,27.344
1688141017.356,-26.367,-40.039,-104.492,-28.320,52.246
1688141017.359,-29.785,-34.668,-104.492,-31.250,56.152
1688141017.363,-38.086,-37.109,-105.957,-30.273,13.672
1688141017.367,-20.508,-39.551,-104.492,-20.996,104.492
1688141017.371,-10.254,-34.180,-108.887,-18.066,385.254
1688141017.375,-20.508,-38.086,-107.910,-21.484,55.664
1688141017.392,-17.090,-41.992,-105.957,-16.602,-178.711
1688141017.396,-29.785,-37.109,-109.375,-29.297,-5.371
1688141017.400,-33.691,-36.621,-103.516,-31.738,-147.461
1688141017.404,-26.367,-41.992,-101.074,-28.320,-236.816
1688141017.408,-21.973,-41.016,-103.516,-40.527,-99.121
1688141017.412,-33.691,-33.691,-108.887,-35.645,25.391
1688141017.416,-41.016,-29.785,-105.957,-24.414,-94.727
1688141017.419,-43.945,-37.598,-101.562,-28.320,-226.074
1688141017.423,-27.832,-43.457,-105.469,-21.973,-74.707
1688141017.427,-10.742,-44.434,-105.469,-17.090,229.492
1688141017.431,-19.531,-43.945,-93.750,-31.738,46.875
1688141017.435,-30.273,-44.922,-91.797,-29.297,-156.738
1688141017.453,-46.875,-51.758,-91.797,-16.602,-98.145
1688141017.457,-45.410,-50.293,-92.773,-26.367,-45.410
1688141017.461,-25.391,-49.316,-92.773,-25.879,-90.820
1688141017.465,-3.418,-49.805,-90.820,-8.301,-121.094
1688141017.469,-9.277,-35.645,-96.191,-18.555,2.441
1688141017.473,-36.621,-21.973,-96.680,-45.410,-2.441
1688141017.477,-36.621,-25.391,-100.586,-60.059,-22.949
1688141017.480,-21.973,-25.391,-110.840,-50.293,73.242
1688141017.484,-27.832,-19.043,-110.352,-40.527,207.520
1688141017.488,-48.828,-22.949,-108.887,-54.688,324.219
1688141017.492,-42.969,-22.461,-96.191,-48.828,-9.766
1688141017.496,-28.809,-24.902,-90.332,-26.367,-195.312
1688141017.483,-30.762,-33.691,-96.191,-32.715,-68.848
1688141017.487,-19.043,-29.785,-98.633,-53.223,-147.461
1688141017.491,-20.020,-25.391,-97.168,-38.086,-230.469
1688141017.495,-35.156,-27.344,-91.309,-23.926,-104.980
1688141017.499,-33.203,-26.367,-86.426,-38.086,31.250
1688141017.503,-19.531,-20.020,-80.566,-32.227,24.414
1688141017.507,-24.414,-16.602,-74.707,-24.414,33.203
1688141017.510,-42.969,-22.949,-78.125,-35.156,-18.555
1688141017.514,-33.691,-22.949,-79.102,-35.156,-25.879
1688141017.518,-18.066,-21.484,-75.684,-26.855,-51.758
1688141017.522,-29.297,-27.832,-72.266,-29.297,-125.977
1688141017.526,-24.414,-27.832,-78.613,-18.555,-40.527
1688141017.527,-13.672,-22.949,-85.449,-12.695,227.051
1688141017.531,-14.160,-14.160,-75.195,-24.414,3.906
1688141017.535,-19.531,-10.742,-75.684,-16.113,-221.680
1688141017.539,-5.371,-12.207,-89.844,-23.926,-93.750
1688141017.543,-1.465,-11.230,-93.262,-42.480,-87.891
1688141017.547,-31.738,-12.695,-94.238,-30.762,-110.840
1688141017.551,-33.691,-16.113,-94.727,-29.297,-61.035
1688141017.554,-28.320,-17.578,-93.262,-37.598,200.195
1688141017.558,-20.020,-17.090,-89.355,-24.902,514.160
1688141017.562,-14.160,-17.578,-84.961,-27.344,153.320
1688141017.566,-33.691,-27.832,-87.402,-37.109,-199.707
1688141017.570,-38.086,-30.762,-88.867,-27.832,-82.520
1688141017.572,-33.203,-30.273,-85.449,-18.555,-130.371
1688141017.576,-29.297,-30.762,-80.566,-28.320,-189.453
1688141017.580,-30.273,-30.273,-83.984,-43.457,-127.441
1688141017.584,-32.227,-27.832,-83.008,-44.922,-117.188
1688141017.588,-28.320,-23.926,-86.426,-50.293,-119.141
1688141017.592,-29.297,-26.367,-82.520,-40.039,-104.980
1688141017.596,-34.668,-27.832,-75.684,-23.438,16.113
1688141017.599,-26.367,-24.414,-82.520,-25.879,240.234
1688141017.603,-19.531,-19.531,-77.148,-23.926,92.773
1688141017.607,-21.484,-19.043,-68.359,-9.277,-101.074
1688141017.611,-26.855,-25.879,-74.707,-22.461,-132.812
1688141017.615,-29.785,-28.809,-75.684,-31.250,-83.496
1688141017.617,-21.973,-27.344,-71.289,-35.645,-131.836
1688141017.621,-26.367,-29.785,-71.777,-43.945,-202.148
1688141017.625,-37.109,-30.273,-68.848,-28.809,-94.727
1688141017.629,-31.738,-26.855,-70.312,-24.902,-36.621
1688141017.633,-22.949,-26.855,-79.102,-34.668,-119.141
1688141017.637,-25.391,-30.273,-90.820,-39.062,-61.523
1688141017.641,-25.391,-32.227,-97.656,-40.039,195.312
1688141017.644,-37.598,-32.227,-84.473,-36.621,245.117
1688141017.648,-47.363,-35.645,-69.336,-30.273,-134.277
1688141017.652,-38.574,-42.480,-71.777,-32.227,-230.469
1688141017.656,-33.691,-51.270,-80.566,-24.414,83.496
1688141017.660,-41.016,-56.152,-75.684,-20.020,109.863
1688141017.662,-52.734,-49.805,-70.312,-30.273,-163.574
1688141017.666,-38.574,-44.922,-75.195,-32.715,-158.203
1688141017.670,-24.414,-42.969,-73.730,-26.367,40.039
1688141017.674,-28.809,-42.480,-69.824,-23.926,-36.621
1688141017.678,-29.297,-44.434,-71.777,-19.043,-208.008
1688141017.682,-37.109,-41.504,-79.102,-20.508,-22.461
1688141017.686,-36.133,-45.410,-89.355,-27.344,280.762
1688141017.689,-36.133,-48.340,-83.008,-32.227,37.598
1688141017.693,-27.344,-37.598,-71.777,-25.879,-167.969
1688141017.697,-15.137,-33.691,-66.895,-14.648,-107.910
1688141017.701,-28.320,-37.109,-69.336,-19.043,-90.332
1688141017.705,-35.645,-34.180,-71.289,-27.832,-115.723
1688141017.708,-26.367,-32.715,-70.312,-19.531,-125.000
1688141017.712,-16.113,-33.691,-67.871,-1.953,42.969
1688141017.716,-13.672,-35.645,-62.988,-13.672,99.121
1688141017.720,-32.227,-36.133,-63.477,-38.086,-96.191
1688141017.724,-45.410,-36.133,-63.477,-32.715,-165.039
1688141017.728,-36.133,-31.738,-61.523,-19.043,74.707
1688141017.732,-9.766,-25.879,-60.059,-17.578,208.008
1688141017.735,-11.719,-25.391,-57.617,-27.832,48.828
1688141017.739,-30.273,-29.297,-64.453,-26.855,-58.105
1688141017.743,-42.480,-30.273,-76.660,-19.531,72.266
1688141017.747,-54.199,-27.344,-78.613,-27.344,162.109
1688141017.751,-47.363,-22.949,-78.613,-33.203,-124.023
1688141017.768,-33.203,-23.438,-88.867,-32.227,-186.523
1688141017.772,-44.922,-24.902,-88.867,-34.180,-143.555
1688141017.776,-45.410,-26.855,-84.961,-28.809,-184.082
1688141017.780,-43.945,-30.273,-86.426,-25.391,-161.133
1688141017.784,-33.691,-30.762,-82.520,-27.344,21.973
1688141017.788,-25.879,-28.320,-79.102,-23.438,362.793
1688141017.792,-19.043,-25.391,-76.660,-21.484,149.902
1688141017.795,-25.879,-28.809,-72.754,-20.020,-241.211
1688141017.799,-35.156,-35.156,-62.012,-19.531,-167.480
1688141017.803,-30.273,-40.039,-53.223,-23.926,14.648
1688141017.807,-42.969,-44.922,-41.016,-43.457,-122.559
1688141017.811,-41.504,-46.387,-39.551,-40.527,-208.496
1688141017.813,-40.527,-50.293,-37.109,-28.320,-145.508
1688141017.817,-47.363,-54.688,-24.902,-39.551,-177.246
1688141017.821,-34.668,-50.781,-24.902,-25.879,-130.371
1688141017.825,-33.203,-50.781,-32.715,-17.090,-66.895
1688141017.829,-31.738,-49.805,-41.016,-25.879,-66.406
1688141017.833,-29.785,-43.945,-47.363,-25.391,14.160
1688141017.837,-45.410,-38.574,-45.898,-20.020,62.500
1688141017.840,-40.039,-31.738,-42.969,-16.113,28.320
1688141017.844,-26.367,-30.273,-52.734,-16.113,173.828
1688141017.848,-17.090,-38.086,-54.199,-19.531,405.273
1688141017.852,-32.715,-37.109,-48.340,-22.949,80.078
1688141017.856,-34.180,-33.203,-48.828,-27.832,-230.469
1688141017.858,-34.180,-33.203,-52.246,-31.738,-156.250
1688141017.862,-35.156,-29.785,-48.828,-14.648,-172.363
1688141017.866,-23.926,-31.738,-49.805,0.000,-161.621
1688141017.870,-28.320,-33.691,-55.664,-9.766,-125.000
1688141017.874,-31.250,-28.809,-54.688,-27.832,-68.848
1688141017.878,-33.691,-26.367,-59.082,-33.691,-32.227
1688141017.882,-23.926,-23.438,-60.059,-31.738,-77.148
1688141017.885,-16.602,-14.160,-56.641,-31.738,-56.152
1688141017.889,-34.668,-21.973,-63.965,-24.902,193.848
1688141017.893,-38.086,-34.668,-62.500,-18.555,61.523
1688141017.897,-33.203,-30.762,-59.570,-23.926,-209.961
1688141017.901,-25.391,-27.344,-62.988,-22.949,-96.680
1688141017.902,-9.766,-21.973,-59.570,-9.277,31.738
1688141017.906,-20.508,-22.461,-53.711,-5.371,-104.492
1688141017.910,-36.133,-27.832,-54.688,-5.371,-145.020
1688141017.914,-36.133,-31.250,-63.965,0.000,-92.773
1688141017.918,-27.832,-27.344,-63.965,-6.836,-38.086
1688141017.922,-10.254,-22.949,-63.477,-20.996,51.758
1688141017.926,-18.555,-25.391,-63.477,-23.438,-47.363
1688141017.929,-39.062,-27.344,-64.453,-15.137,86.426
1688141017.933,-33.691,-23.926,-64.941,-13.184,392.578
1688141017.937,-20.996,-17.090,-52.734,-22.949,45.410
1688141017.941,-20.996,-18.555,-48.340,-23.926,-170.898
1688141017.945,-20.996,-19.043,-55.664,-20.020,-46.387
1688141017.948,-27.832,-14.160,-52.734,-20.508,-92.773
1688141017.952,-34.180,-13.184,-40.527,-19.043,-133.301
1688141017.956,-25.391,-17.578,-43.457,-20.508,-70.312
1688141017.960,-15.137,-22.461,-46.875,-15.625,72.266
1688141017.964,-27.344,-26.367,-45.898,-19.531,25.879
1688141017.968,-38.086,-28.320,-51.270,-24.414,-91.797
1688141017.972,-41.016,-26.855,-52.734,-38.574,-8.789
1688141017.975,-25.879,-20.020,-50.781,-31.250,238.770
1688141017.979,-13.184,-10.742,-47.852,-21.484,39.062
1688141017.983,-27.344,-18.066,-56.152,-37.598,-220.215
1688141017.987,-38.086,-29.297,-58.594,-33.203,-175.781
1688141017.991,-31.738,-30.273,-53.223,-16.113,-100.586
1688141017.993,-20.996,-28.320,-52.246,-16.113,-133.301
1688141017.997,-23.926,-29.785,-53.223,-26.367,-174.316
1688141018.001,-19.043,-26.855,-55.664,-29.785,-17.578
1688141018.005,-18.066,-22.461,-53.711,-38.086,42.480
1688141018.009,-32.715,-20.508,-57.617,-40.039,-66.895
1688141018.013,-18.555,-22.949,-60.059,-25.391,2.441
1688141018.017,-3.906,-24.902,-60.059,-18.066,178.223
1688141018.020,-20.508,-22.461,-54.199,-16.602,266.602
1688141018.024,-28.809,-21.973,-47.852,-25.391,-47.852
1688141018.028,-24.902,-17.578,-60.059,-30.762,-182.617
1688141018.032,-27.832,-10.254,-69.824,-31.738,83.984
1688141018.036,-21.973,-14.648,-63.477,-31.738,89.355
1688141018.037,-19.531,-18.066,-59.570,-33.691,-122.559
1688141018.041,-29.785,-16.602,-61.035,-43.945,-128.906
1688141018.045,-27.344,-20.508,-68.359,-44.434,20.020
1688141018.049,-30.762,-24.414,-74.707,-38.574,-76.172
1688141018.053,-31.738,-24.902,-76.660,-31.250,-181.152
1688141018.057,-26.855,-20.508,-73.730,-25.391,28.809
1688141018.061,-27.344,-29.297,-62.988,-32.715,350.586
1688141018.064,-30.273,-33.691,-46.387,-34.668,165.039
1688141018.068,-30.273,-30.273,-42.969,-29.785,-182.617
1688141018.072,-30.762,-31.738,-46.387,-30.273,-147.949
1688141018.076,-47.852,-33.203,-44.434,-37.598,-83.008
1688141018.080,-49.316,-38.574,-40.527,-41.016,-148.926
1688141018.083,-36.621,-37.109,-41.992,-39.551,-227.051
1688141018.087,-30.762,-35.645,-46.875,-41.016,-158.203
1688141018.091,-29.785,-34.180,-41.504,-36.621,-88.379
1688141018.095,-23.438,-28.320,-40.039,-33.203,-115.723
1688141018.099,-33.691,-32.227,-44.922,-33.203,-166.016
1688141018.103,-54.688,-41.504,-49.316,-41.992,-11.719
1688141018.107,-50.293,-34.180,-46.387,-41.016,95.215
1688141018.110,-47.363,-24.902,-43.457,-26.367,-24.902
1688141018.114,-36.621,-30.762,-46.875,-34.180,-70.801
1688141018.118,-28.809,-34.180,-48.828,-33.203,163.574
1688141018.122,-43.945,-30.273,-44.434,-18.066,400.879
1688141018.126,-44.434,-25.391,-41.504,-29.297,71.777
1688141018.142,-30.762,-29.297,-50.293,-31.250,-153.809
1688141018.146,-21.973,-29.297,-57.129,-28.320,-90.332
1688141018.150,-20.508,-24.414,-60.059,-28.320,-141.602
1688141018.154,-32.715,-20.996,-56.641,-35.645,-190.430
1688141018.158,-38.574,-21.973,-50.781,-47.852,-177.734
1688141018.162,-37.598,-22.949,-51.270,-40.527,-20.996
1688141018.166,-36.621,-25.879,-51.758,-33.203,18.066
1688141018.169,-31.738,-30.273,-54.199,-37.109,-40.527
1688141018.173,-26.855,-31.738,-60.547,-38.086,-64.453
1688141018.177,-40.527,-34.668,-60.059,-24.902,144.531
1688141018.181,-36.133,-33.203,-51.758,-25.391,71.777
1688141018.185,-19.043,-25.391,-45.898,-24.414,-142.578
1688141018.188,-22.949,-27.344,-45.898,-21.484,-68.359
1688141018.192,-41.016,-30.762,-44.434,-31.250,-22.461
1688141018.196,-43.945,-28.809,-39.551,-37.598,-142.578
1688141018.200,-35.156,-27.832,-43.457,-29.297,-135.742
1688141018.204,-23.438,-26.855,-46.387,-26.367,-62.012
1688141018.208,-7.324,-23.926,-38.574,-33.691,10.742
1688141018.212,-18.066,-23.438,-27.832,-28.809,-3.418
1688141018.215,-41.016,-19.531,-26.367,-28.809,-58.594
1688141018.219,-37.598,-18.066,-30.762,-23.926,133.301
1688141018.223,-28.320,-24.414,-28.809,-13.184,375.977
1688141018.227,-26.855,-23.438,-16.602,-21.484,20.020
1688141018.231,-16.602,-25.879,-15.137,-21.973,-229.004
1688141018.232,-27.344,-29.785,-8.789,-14.160,-44.922
1688141018.236,-34.180,-28.320,0.977,-11.230,-128.906
1688141018.240,-21.973,-26.855,-1.465,-12.695,-208.496
1688141018.244,-32.715,-30.762,-10.742,-28.809,-129.883
1688141018.248,-40.039,-30.273,-6.348,-31.250,-59.570
1688141018.252,-45.898,-29.297,-5.859,-33.203,18.555
1688141018.256,-38.574,-28.809,-11.719,-34.668,12.695
1688141018.259,-12.207,-30.273,-14.160,-11.719,-13.672
1688141018.263,-1.465,-34.668,-17.578,-2.930,188.477
1688141018.267,-17.578,-34.180,-4.395,-28.809,-12.207
1688141018.271,-40.527,-35.156,-2.441,-32.715,-262.695
1688141018.275,-46.875,-45.410,-12.695,-26.855,-114.258
1688141018.278,-37.598,-42.969,-13.184,-39.062,-89.355
1688141018.282,-36.621,-33.691,0.977,-41.504,-140.625
1688141018.286,-47.852,-40.039,-3.906,-50.293,-86.426
1688141018.290,-46.875,-40.527,-14.160,-45.898,-6.836
1688141018.294,-37.109,-35.645,-8.789,-35.645,-12.695
1688141018.298,-36.133,-35.645,-12.207,-28.320,5.859
1688141018.302,-34.180,-34.180,-12.695,-23.438,-12.207
1688141018.305,-29.297,-33.203,-20.996,-19.043,154.785
1688141018.309,-28.320,-37.598,-24.902,-17.578,429.199
1688141018.313,-22.461,-36.133,-16.113,-31.738,77.148
1688141018.317,-32.227,-33.203,-21.973,-37.598,-151.367
1688141018.321,-37.109,-30.762,-26.855,-38.574,-69.336
1688141018.322,-23.926,-25.391,-33.203,-42.969,-125.977
1688141018.326,-34.180,-29.785,-36.133,-33.691,-180.664
1688141018.330,-41.504,-33.691,-35.156,-21.484,-164.062
1688141018.334,-37.598,-28.809,-34.668,-19.043,-64.453
1688141018.338,-29.297,-29.297,-41.016,-26.367,-52.734
1688141018.342,-17.578,-29.785,-41.016,-33.203,3.906
1688141018.346,-26.367,-29.785,-30.273,-35.156,130.859
1688141018.349,-22.461,-26.367,-29.297,-22.949,382.324
1688141018.353,-26.367,-24.902,-18.555,-24.902,209.961
1688141018.357,-15.625,-27.344,-10.742,-26.855,-138.672
1688141018.361,-18.066,-28.809,-12.695,-30.762,-138.672
1688141018.365,-32.227,-29.297,-15.137,-27.344,-141.113
1688141018.367,-48.340,-31.738,-10.742,-20.508,-198.730
1688141018.371,-52.734,-39.062,4.883,-20.508,-147.949
1688141018.375,-24.902,-42.480,4.883,-10.742,-75.684
1688141018.379,-38.086,-33.203,-1.953,-28.809,-66.895
1688141018.383,-42.969,-33.203,-14.160,-46.387,-138.672
1688141018.387,-37.598,-33.691,-17.578,-35.645,-154.785
1688141018.391,-40.039,-33.203,-19.531,-21.973,110.840
1688141018.394,-48.340,-41.992,-21.973,-17.090,383.301
1688141018.398,-53.223,-37.598,-16.113,-25.879,95.215
1688141018.402,-53.223,-37.109,-18.555,-40.527,-113.281
1688141018.406,-46.875,-41.992,-22.461,-37.109,32.715
1688141018.410,-43.945,-42.480,-23.926,-19.043,19.531
1688141018.412,-40.039,-41.504,-22.949,-23.438,-208.496
1688141018.416,-29.785,-39.062,-30.273,-33.203,-189.941
1688141018.420,-32.227,-45.898,-37.598,-42.969,-101.074
1688141018.424,-51.270,-49.805,-45.898,-44.922,-139.648
1688141018.428,-46.387,-41.016,-50.293,-36.621,-156.738
1688141018.432,-29.297,-42.969,-46.875,-15.137,27.832
1688141018.436,-23.438,-50.293,-45.898,-10.742,341.797
1688141018.439,-28.320,-41.992,-41.504,-34.668,52.734
1688141018.443,-41.016,-36.133,-41.016,-36.621,-258.301
1688141018.447,-34.668,-41.504,-48.340,-33.203,-151.367
1688141018.451,-29.297,-38.086,-51.758,-34.180,-4.883
1688141018.455,-38.574,-33.203,-47.852,-36.133,-86.914
1688141018.472,-29.297,-37.109,-50.781,-39.551,-207.031
1688141018.476,-27.832,-46.387,-57.129,-41.016,-140.625
1688141018.480,-36.133,-45.410,-52.246,-40.039,-74.707
1688141018.484,-37.598,-40.039,-51.270,-52.734,-131.836
1688141018.488,-31.738,-36.621,-54.688,-46.875,-141.113
1688141018.492,-38.574,-29.297,-55.176,-37.109,25.879
1688141018.496,-42.480,-25.391,-52.246,-33.691,69.824
1688141018.499,-41.504,-24.902,-46.875,-15.137,-22.949
1688141018.503,-32.715,-23.926,-46.875,-4.395,-61.035
1688141018.507,-8.789,-23.926,-56.152,-7.812,113.281
1688141018.511,-15.137,-21.484,-54.688,-46.387,279.785
1688141018.515,-39.062,-25.391,-53.711,-69.824,-95.215
1688141018.517,-49.316,-27.344,-53.223,-53.223,-140.625
1688141018.521,-38.574,-27.344,-46.875,-43.945,109.375
1688141018.525,-20.996,-22.461,-43.457,-38.086,-18.066
1688141018.529,-24.414,-18.066,-45.410,-29.785,-146.973
1688141018.533,-34.668,-30.273,-45.898,-37.109,-125.000
1688141018.537,-41.504,-34.668,-49.316,-34.180,-76.660
1688141018.541,-28.809,-31.738,-49.805,-31.250,-87.891
1688141018.544,-20.508,-38.086,-46.875,-18.066,-137.695
1688141018.548,-12.207,-40.039,-44.922,0.488,-120.117
1688141018.552,-30.273,-41.016,-43.945,-20.996,165.039
1688141018.556,-51.758,-33.691,-36.133,-32.227,28.809
1688141018.560,-62.988,-32.715,-34.668,-15.625,-191.406
1688141018.562,-60.059,-43.945,-44.434,-14.160,-50.781
1688141018.566,-49.805,-40.527,-49.805,-37.598,-15.625
1688141018.570,-50.781,-32.715,-65.430,-78.613,-134.277
1688141018.574,-53.711,-30.762,-66.406,-81.543,-167.969
1688141018.578,-60.547,-32.715,-58.105,-65.918,-61.035
1688141018.582,-48.828,-24.414,-55.176,-42.969,83.496
1688141018.586,-23.438,-20.508,-45.898,-27.832,41.504
1688141018.589,-33.691,-29.297,-37.598,-20.020,0.000
1688141018.593,-49.805,-34.180,-30.273,-17.578,104.980
1688141018.597,-48.828,-34.668,-31.738,-16.602,277.832
1688141018.601,-46.875,-43.457,-27.344,-18.555,11.230
1688141018.605,-43.457,-50.781,-30.273,-7.324,-200.684
1688141018.607,-27.344,-46.875,-41.016,-9.277,-160.156
1688141018.611,-24.902,-42.480,-41.016,-19.043,-253.418
1688141018.615,-41.992,-34.668,-40.527,-8.789,-258.789
1688141018.619,-39.551,-27.344,-47.363,-0.488,-195.801
1688141018.623,-23.926,-33.203,-50.293,2.441,-128.418
1688141018.627,-32.227,-40.039,-52.734,2.441,-58.105
1688141018.631,-39.062,-32.227,-57.617,0.488,-78.613
1688141018.634,-25.391,-28.809,-59.082,-1.953,-8.789
1688141018.638,-27.344,-32.227,-61.523,-11.230,268.555
1688141018.642,-22.461,-31.250,-56.152,-16.113,148.438
1688141018.646,-19.043,-32.227,-60.547,-3.906,-185.547
1688141018.650,-35.156,-28.320,-70.801,-7.324,-208.008
1688141018.652,-45.410,-24.902,-66.406,-26.855,-167.969
1688141018.656,-39.551,-27.344,-62.988,-25.391,-138.672
1688141018.660,-25.391,-20.996,-70.801,-14.160,-155.273
1688141018.664,-16.113,-22.949,-71.777,-15.137,-128.906
1688141018.668,-30.762,-31.738,-57.617,-17.578,-108.398
1688141018.672,-34.180,-27.344,-54.688,-16.113,-78.613
1688141018.676,-20.508,-23.438,-58.594,-0.977,-96.191
1688141018.679,-8.301,-25.879,-65.918,-26.855,159.668
1688141018.683,-4.883,-23.438,-67.871,-55.176,534.180
1688141018.687,-16.113,-23.438,-61.035,-39.062,164.551
1688141018.691,-22.461,-23.438,-58.105,-33.203,-257.324
1688141018.695,-17.090,-28.809,-60.059,-32.227,-209.473
1688141018.697,-30.762,-27.344,-57.617,-13.184,-187.012
1688141018.701,-29.297,-27.832,-59.570,-4.883,-213.867
1688141018.705,-9.766,-36.133,-69.824,-15.625,-201.172
1688141018.709,-28.320,-36.133,-71.289,-40.039,-174.805
1688141018.713,-27.344,-30.273,-61.523,-61.523,-163.574
1688141018.717,-7.812,-24.902,-55.664,-45.410,-75.195
1688141018.721,-15.137,-22.949,-54.199,-34.668,82.031
1688141018.724,-22.461,-20.996,-42.969,-27.344,215.332
1688141018.728,-26.855,-22.949,-31.738,-16.602,-30.273
1688141018.732,-24.414,-29.785,-38.574,5.859,-232.422
1688141018.736,-30.762,-32.715,-49.805,25.391,-112.305
1688141018.740,-40.527,-32.715,-55.664,-5.859,-59.570
1688141018.742,-21.484,-28.809,-64.941,-51.758,-186.035
1688141018.746,-9.766,-20.020,-72.266,-39.551,-211.914
1688141018.750,-32.715,-16.602,-73.242,1.953,-82.520
1688141018.754,-18.066,-16.113,-63.965,1.465,-62.012
1688141018.758,-6.348,-20.508,-62.012,-49.805,-157.715
1688141018.762,-28.809,-31.738,-77.148,-66.406,-148.438
1688141018.766,-34.668,-35.645,-83.496,-48.828,113.770
1688141018.769,-24.902,-31.738,-72.754,-19.043,272.949
1688141018.773,-16.602,-28.809,-64.941,-0.488,7.812
1688141018.777,-33.203,-27.344,-72.754,-2.930,-193.848
1688141018.781,-31.738,-28.320,-83.984,-7.324,2.930
1688141018.785,-7.324,-20.508,-77.148,-20.020,72.754
1688141018.788,-20.508,-13.672,-71.289,-38.574,-220.703
1688141018.792,-29.785,-21.484,-73.730,-31.738,-155.273
1688141018.796,-26.367,-24.902,-71.289,-29.785,33.203
1688141018.800,-34.668,-23.926,-68.359,-23.438,-70.312
1688141018.804,-21.484,-22.949,-72.266,-24.902,-160.645
1688141018.808,-16.602,-25.391,-77.148,-20.996,-21.484
1688141018.812,-18.066,-20.508,-74.219,-5.371,252.441
1688141018.815,-1.953,-12.695,-67.383,-13.184,66.406
1688141018.819,-10.254,-15.137,-67.871,-32.715,-184.570
1688141018.823,-9.277,-19.043,-66.406,-38.086,-99.609
1688141018.827,-28.809,-22.949,-62.988,-30.762,-41.016
1688141018.831,-32.715,-30.273,-59.082,-30.762,-143.555
1688141018.847,-3.906,-32.227,-60.059,-19.531,-129.883
1688141018.851,-14.160,-33.203,-62.988,-12.207,-96.680
1688141018.855,-23.926,-36.133,-52.734,-15.625,-106.445
1688141018.859,-22.461,-35.156,-41.016,-11.230,-38.574
1688141018.863,-14.648,-23.926,-37.598,-13.672,-90.820
1688141018.867,4.395,-19.531,-43.457,-13.672,135.254
1688141018.871,16.602,-13.184,-46.875,-8.789,422.852
1688141018.874,13.184,-11.719,-46.875,-5.371,1.465
1688141018.878,8.789,-17.578,-51.758,-1.465,-246.582
1688141018.882,-1.953,-20.020,-55.176,1.465,5.371
1688141018.886,-10.254,-22.949,-50.781,-10.742,59.082
1688141018.890,-10.254,-26.855,-56.641,-19.043,-183.594
1688141018.892,-13.672,-25.879,-65.918,-13.672,-195.312
1688141018.896,-14.160,-20.020,-66.895,-4.395,-97.656
1688141018.900,-6.348,-26.855,-60.547,8.301,-118.164
1688141018.904,-5.859,-33.203,-53.711,6.836,-121.582
1688141018.908,-14.648,-32.715,-53.223,-27.344,-69.336
1688141018.912,-6.836,-28.320,-47.363,-51.270,46.875
1688141018.916,-7.324,-21.973,-42.480,-42.969,42.480
1688141018.919,-21.973,-26.855,-41.016,-35.156,-84.473
1688141018.923,-25.391,-33.203,-35.645,-32.227,-81.543
1688141018.927,-15.137,-27.832,-33.691,-10.254,239.258
1688141018.931,-4.395,-25.879,-22.949,-1.953,182.617
1688141018.935,-13.672,-29.785,-22.461,-9.766,-161.133
1688141018.952,-29.297,-35.156,-29.297,-16.113,-145.020
1688141018.956,-21.484,-36.133,-32.227,-24.414,-87.891
1688141018.960,-9.277,-33.691,-26.367,-23.926,-125.488
1688141018.964,-3.418,-32.715,-20.020,-11.719,-138.184
1688141018.968,-12.207,-28.320,-29.297,-16.113,-31.250
1688141018.972,-24.414,-26.855,-34.180,-16.602,0.977
1688141018.976,-23.438,-28.809,-19.531,0.000,5.371
1688141018.979,-7.812,-26.855,-18.066,-34.668,-0.977
1688141018.983,-8.301,-26.855,-29.785,-56.641,170.898
1688141018.987,-29.297,-21.484,-27.832,-27.344,187.988
1688141018.991,-34.668,-21.484,-21.973,-20.020,-127.930
1688141018.995,-18.555,-26.367,-24.414,-32.715,-192.871
1688141018.982,-17.578,-30.273,-31.738,-8.301,152.832
1688141018.986,-27.832,-31.250,-24.902,-2.930,348.633
1688141018.990,-35.156,-31.250,-15.625,-57.617,-77.637
1688141018.994,-21.484,-27.832,-31.738,-66.406,-243.164
1688141018.998,8.789,-27.344,-26.855,-20.508,-75.684
1688141019.002,-33.203,-32.227,18.066,-31.738,-33.203
1688141019.006,-84.961,-32.227,32.715,-67.871,-71.289
1688141019.009,-111.816,-33.203,21.484,-88.867,15.137
1688141019.013,-142.578,-33.203,31.738,-113.281,19.531
1688141019.017,-170.410,-25.879,36.133,-181.152,-95.215
1688141019.021,-184.570,-15.625,46.875,-216.309,-154.297
1688141019.025,-184.570,-19.531,67.871,-203.613,-17.578
1688141019.027,-208.496,-21.973,80.078,-214.355,274.902
1688141019.031,-239.746,0.488,92.285,-237.305,41.504
1688141019.035,-241.699,26.855,97.168,-248.535,-229.980
1688141019.039,-230.957,42.969,111.328,-255.859,-140.625
1688141019.043,-254.395,38.086,113.281,-278.320,-98.145
1688141019.047,-278.809,33.203,96.680,-304.199,-30.762
1688141019.051,-284.668,44.434,116.211,-295.898,-101.562
1688141019.054,-294.434,40.527,141.113,-281.250,74.219
1688141019.058,-289.551,15.625,156.250,-291.504,389.648
1688141019.062,-301.758,15.137,174.805,-326.172,-5.371
1688141019.066,-314.453,30.762,174.316,-353.027,-226.074
1688141019.070,-312.988,23.438,171.875,-354.492,-139.648
1688141019.073,-305.664,16.602,186.035,-343.750,-208.496
1688141019.077,-302.246,31.738,195.801,-317.383,-122.070
1688141019.081,-299.316,33.691,194.336,-304.199,-33.691
1688141019.085,-255.859,25.879,188.965,-291.016,-19.531
1688141019.089,-244.629,5.371,187.988,-275.391,-102.539
1688141019.093,-234.863,-16.602,174.805,-249.512,-141.113
1688141019.097,-191.406,8.301,159.668,-208.984,-41.504
1688141019.100,-181.641,22.949,148.438,-174.316,240.723
1688141019.104,-157.227,5.371,137.207,-177.734,97.168
1688141019.108,-128.906,-4.883,142.090,-160.156,-214.355
1688141019.112,-116.699,-20.508,140.137,-105.957,-136.719
1688141019.116,-88.379,-35.645,113.770,-92.285,-66.895
1688141019.117,-65.918,-36.621,97.656,-86.914,-153.809
1688141019.121,-53.223,-50.293,95.215,-58.594,-227.051
1688141019.125,-36.621,-71.777,88.867,-34.180,-177.246
1688141019.129,-16.602,-74.219,86.426,-9.277,-128.418
1688141019.133,5.371,-68.359,80.078,20.508,-102.051
1688141019.137,39.551,-68.848,73.730,47.363,5.859
1688141019.141,43.457,-66.895,69.336,61.035,159.668
1688141019.144,36.133,-70.312,61.035,58.594,450.195
1688141019.148,32.227,-89.355,57.129,51.758,230.957
1688141019.152,38.574,-91.309,49.805,79.590,-211.914
1688141019.156,54.688,-82.520,41.016,108.398,-173.828
1688141019.160,53.711,-84.961,35.156,100.098,-232.422
1688141019.162,47.363,-82.031,24.414,84.473,-286.133
1688141019.166,40.039,-74.707,20.020,70.312,-191.895
1688141019.170,41.016,-74.219,25.879,67.383,-94.238
1688141019.174,64.453,-77.637,24.414,72.754,-77.148
1688141019.178,64.453,-70.312,16.602,64.453,-122.070
1688141019.182,49.316,-66.406,4.883,54.688,-57.129
1688141019.186,45.898,-68.359,3.906,48.340,205.078
1688141019.189,47.852,-60.547,17.090,60.547,88.867
1688141019.193,49.316,-53.711,20.508,53.223,-143.066
1688141019.197,51.758,-55.176,13.184,47.363,-150.391
1688141019.201,53.223,-53.223,8.301,50.293,-68.848
1688141019.205,37.598,-56.641,10.742,43.457,-48.340
1688141019.207,26.367,-57.129,9.277,41.992,-202.637
1688141019.211,46.875,-52.734,-1.953,52.246,-102.051
1688141019.215,43.945,-55.176,-2.930,45.410,196.777
1688141019.219,17.090,-49.805,7.324,43.457,-10.742
1688141019.223,20.996,-46.875,10.742,41.016,-194.824
1688141019.227,22.461,-53.223,13.184,29.297,44.434
1688141019.231,23.926,-52.734,14.160,13.184,132.324
1688141019.234,35.645,-34.668,12.695,0.488,36.621
1688141019.238,29.785,-24.414,18.555,11.230,-51.270
1688141019.242,15.625,-31.738,20.508,17.090,76.660
1688141019.246,15.137,-32.715,8.789,1.465,373.047
1688141019.250,21.973,-29.785,10.254,5.859,53.711
1688141019.267,26.367,-34.180,18.066,23.926,-166.504
1688141019.271,31.738,-37.598,16.113,20.020,-62.988
1688141019.275,16.602,-46.875,12.695,7.812,-133.789
1688141019.279,9.766,-47.363,8.301,10.742,-173.828
1688141019.283,7.324,-33.691,7.812,25.391,-82.520
1688141019.287,20.508,-35.156,0.488,20.996,129.395
1688141019.291,21.484,-42.480,6.836,8.301,106.445
1688141019.294,-19.043,-34.668,22.461,-16.602,-108.398
1688141019.298,-23.438,-30.762,20.020,-10.742,-109.863
1688141019.302,-6.836,-34.668,13.184,7.812,7.812
1688141019.306,8.789,-27.344,21.973,-9.766,-46.875
1688141019.310,10.254,-27.344,20.996,-23.438,-35.156
1688141019.312,3.906,-29.785,15.625,-22.461,11.230
1688141019.316,-5.371,-35.645,19.531,-7.324,241.211
1688141019.320,-6.348,-42.480,23.926,10.742,52.734
1688141019.324,2.441,-43.945,25.391,-2.441,-201.172
1688141019.328,-3.418,-48.828,25.391,-19.531,-109.863
1688141019.332,-14.160,-41.016,27.832,-8.789,5.371
1688141019.336,-22.949,-35.645,18.555,-17.578,-10.254
1688141019.339,-9.277,-43.945,19.043,-20.508,-98.145
1688141019.343,9.766,-49.805,23.926,14.160,37.598
1688141019.347,-8.789,-48.340,20.508,1.465,356.934
1688141019.351,-15.137,-41.016,14.160,-35.156,68.848
1688141019.355,-15.625,-42.969,14.160,-11.719,-230.469
1688141019.358,-28.809,-52.734,24.414,-2.930,-108.398
1688141019.362,-24.414,-51.758,18.555,-12.695,-88.379
1688141019.366,-16.113,-41.504,7.812,-11.230,-120.117
1688141019.370,-18.066,-37.109,9.766,-14.160,-83.496
1688141019.374,-28.320,-37.109,13.672,-22.949,43.945
1688141019.378,-14.160,-37.109,10.254,-2.930,15.137
1688141019.382,12.695,-35.156,5.371,13.672,-81.543
1688141019.385,-26.855,-32.227,9.766,-6.836,-88.867
1688141019.389,-58.594,-31.738,10.254,-11.230,185.059
1688141019.393,-27.832,-28.809,9.766,-20.996,59.570
1688141019.397,-15.625,-27.832,3.906,-56.152,-168.457
1688141019.401,-23.438,-24.902,-6.348,-46.387,-82.031
1688141019.402,-28.809,-24.902,-12.207,-19.531,-61.523
1688141019.406,-39.062,-32.715,-12.695,-37.598,-139.160
1688141019.410,-47.852,-38.574,-16.113,-53.223,-187.012
1688141019.414,-35.645,-35.156,-19.043,-52.734,-126.953
1688141019.418,-27.832,-32.227,-16.113,-47.852,-11.230
1688141019.422,-29.785,-40.527,-20.508,-37.109,122.559
1688141019.426,-25.879,-34.180,-22.461,-29.297,71.289
1688141019.429,-36.621,-26.367,-22.461,-38.574,143.066
1688141019.433,-43.945,-33.203,-21.484,-49.805,530.273
1688141019.437,-28.320,-35.645,-9.277,-51.270,289.551
1688141019.441,-11.230,-36.133,-5.371,-51.758,-98.145
1688141019.445,-9.277,-32.715,-2.930,-33.203,-108.887
1688141019.447,-25.879,-29.297,3.418,-21.484,-141.602
1688141019.451,-21.484,-28.320,-0.488,-14.160,-175.781
1688141019.455,-20.020,-33.203,-1.465,-20.996,-127.930
1688141019.459,-26.855,-33.203,8.789,-33.691,-27.344
1688141019.463,-9.766,-34.180,11.719,-42.480,-36.621
1688141019.467,-10.254,-36.621,9.766,-37.109,-54.199
1688141019.471,-37.109,-33.203,16.602,-28.809,-20.996
1688141019.474,-35.156,-26.367,20.996,-30.273,339.844
1688141019.478,-31.250,-30.762,19.531,-41.504,270.020
1688141019.482,-37.109,-32.227,14.160,-42.969,-183.594
1688141019.486,-29.785,-30.762,5.371,-38.574,-169.434
1688141019.490,-26.367,-32.227,0.488,-32.227,-101.562
1688141019.492,-30.762,-25.391,1.953,-2.930,-105.469
1688141019.496,-19.531,-25.879,0.977,1.465,-131.836
1688141019.500,-29.785,-32.227,-11.230,-31.250,-95.215
1688141019.504,-46.875,-34.668,-10.254,-44.434,-90.820
1688141019.508,-41.504,-33.203,-11.230,-46.875,-135.254
1688141019.512,-61.035,-31.250,-18.066,-53.223,-59.570
1688141019.516,-57.129,-42.480,-17.090,-43.945,181.152
1688141019.519,-31.738,-41.016,-11.719,-33.203,427.734
1688141019.523,-26.367,-26.855,-14.648,-37.598,71.777
1688141019.527,-40.527,-27.344,-22.461,-42.480,-189.941
1688141019.531,-53.711,-28.809,-21.973,-49.805,60.059
1688141019.535,-41.504,-25.391,-19.043,-57.129,85.938
1688141019.552,-21.484,-30.762,-14.160,-50.293,-171.875
1688141019.556,-8.301,-38.574,-12.695,-26.367,-131.348
1688141019.560,-6.836,-32.227,-20.508,-27.344,-31.738
1688141019.564,-29.297,-24.414,-22.949,-48.340,-89.844
1688141019.568,-28.320,-27.344,-20.508,-48.828,-104.980
1688141019.572,-27.832,-26.855,-24.902,-33.691,72.754
1688141019.576,-22.949,-20.508,-27.344,-9.277,286.133
1688141019.579,-14.160,-21.484,-18.066,-28.809,32.715
1688141019.583,-36.133,-26.855,-16.602,-57.129,-203.125
1688141019.587,-30.762,-28.809,-20.996,-29.785,-142.578
1688141019.591,-17.090,-26.855,-19.043,-16.113,-43.945
1688141019.595,-14.160,-30.762,-19.043,-13.184,-44.434
1688141019.583,-18.066,-29.785,-8.789,-27.344,-87.891
1688141019.587,-24.902,-22.461,-7.812,-55.176,-25.391
1688141019.591,-8.301,-18.066,-10.254,-37.109,33.203
1688141019.595,9.277,-16.602,-8.301,-16.602,-107.422
1688141019.599,-9.277,-27.344,-9.277,-18.066,-165.039
1688141019.603,-21.484,-30.762,-17.090,-23.926,48.828
1688141019.607,-26.367,-31.250,-19.043,-19.043,137.207
1688141019.610,-26.367,-37.109,-14.160,4.883,37.598
1688141019.614,-9.766,-30.273,-16.113,-7.812,-119.141
1688141019.618,-2.930,-30.273,-22.949,-38.574,-14.648
1688141019.622,-19.531,-38.574,-20.996,-36.621,316.895
1688141019.626,-40.527,-28.809,-15.137,-39.062,67.871
1688141019.642,-30.273,-24.902,-20.996,-47.363,-160.645
1688141019.646,-11.719,-31.250,-25.391,-39.551,-81.055
1688141019.650,-32.715,-34.668,-23.926,-36.621,-42.480
1688141019.654,-38.086,-32.227,-25.879,-37.598,-124.023
1688141019.658,-38.086,-28.320,-25.391,-45.410,-163.574
1688141019.662,-33.691,-22.949,-22.461,-43.945,273.438
1688141019.666,-18.066,-17.578,-22.949,-29.297,286.621
1688141019.669,-28.809,-16.602,-30.273,-41.504,-64.453
1688141019.673,-33.691,-22.461,-25.879,-31.738,-93.262
1688141019.677,-34.180,-28.809,-12.695,-36.621,68.848
1688141019.681,-31.250,-21.973,-9.277,-44.434,-61.035
1688141019.685,-9.766,-19.043,-15.137,-26.367,-154.297
1688141019.687,-24.414,-24.414,-12.207,-26.367,-85.938
1688141019.691,-51.758,-34.668,-3.418,-43.457,-115.723
1688141019.695,-52.246,-41.992,-0.488,-37.598,-184.570
1688141019.699,-43.945,-40.039,0.000,-17.090,-145.996
1688141019.703,-31.250,-35.645,-5.371,-29.297,33.203
1688141019.707,-27.344,-35.645,-4.395,-32.227,103.027
1688141019.711,-19.531,-34.668,-3.906,-36.133,-0.977
1688141019.714,-32.715,-33.203,-13.672,-47.852,-39.551
1688141019.718,-42.480,-39.551,-12.207,-36.133,192.871
1688141019.722,-40.527,-33.203,-9.766,-18.066,455.566
1688141019.726,-40.527,-32.227,-6.348,-11.719,86.914
1688141019.730,-38.086,-41.992,-9.766,-41.992,-232.422
1688141019.732,-50.781,-35.645,-10.742,-68.359,-162.598
1688141019.736,-50.293,-30.273,-7.812,-48.828,-199.707
1688141019.740,-43.457,-30.762,-3.906,-32.715,-231.445
1688141019.744,-41.992,-29.785,-1.953,-31.250,-125.488
1688141019.748,-44.922,-37.109,-0.488,-28.809,-31.738
1688141019.752,-37.598,-40.527,-1.953,-48.828,-72.754
1688141019.756,-34.668,-28.809,-6.348,-50.781,-93.750
1688141019.759,-39.551,-20.020,-8.789,-32.227,-9.766
1688141019.763,-28.809,-23.438,-7.324,-28.809,327.148
1688141019.767,-27.344,-21.973,-2.930,-24.902,248.047
1688141019.771,-27.832,-17.090,-11.230,-27.344,-122.559
1688141019.775,-21.973,-20.020,-16.113,-19.043,-101.562
1688141019.777,-19.043,-24.414,-13.184,-17.090,-64.453
1688141019.781,-20.020,-22.461,-11.719,-30.762,-92.773
1688141019.785,-16.113,-18.066,-10.254,-30.273,-101.562
1688141019.789,-19.043,-15.137,-15.137,-30.273,-66.406
1688141019.793,-33.203,-21.484,-17.578,-20.996,-67.871
1688141019.797,-42.480,-33.203,-20.508,-22.949,51.270
1688141019.801,-46.875,-34.668,-20.508,-28.809,77.148
1688141019.804,-44.434,-43.457,-23.438,-49.805,192.871
1688141019.808,-43.945,-33.203,-25.391,-57.129,413.574
1688141019.812,-40.039,-22.461,-17.578,-33.203,10.742
1688141019.816,-32.227,-28.320,-15.625,-31.250,-166.504
1688141019.820,-25.879,-37.598,-17.578,-36.133,48.828
1688141019.822,-4.883,-49.805,-8.301,-28.809,-56.641
1688141019.826,-11.230,-38.574,-10.742,-23.438,-220.703
1688141019.830,-45.898,-23.926,-15.625,-23.926,-184.082
1688141019.834,-48.340,-30.273,-11.230,-36.133,-82.031
1688141019.838,-42.480,-32.715,-13.672,-45.410,-73.242
1688141019.842,-33.691,-30.762,-23.438,-43.945,-86.914
1688141019.846,-19.043,-29.785,-27.832,-37.109,13.184
1688141019.849,-37.598,-28.809,-27.832,-26.367,265.625
1688141019.853,-53.711,-29.785,-27.344,-29.785,85.938
1688141019.857,-41.016,-32.715,-26.855,-27.344,-145.996
1688141019.861,-35.645,-37.598,-27.344,-21.484,-90.332
1688141019.865,-35.156,-36.133,-29.297,-33.691,-75.684
1688141019.868,-40.527,-33.691,-29.297,-32.715,-60.059
1688141019.872,-33.203,-35.645,-30.762,-39.062,-116.699
1688141019.876,-27.832,-31.738,-28.809,-46.875,-91.309
1688141019.880,-32.227,-31.738,-26.367,-28.809,-36.133
1688141019.884,-21.484,-34.180,-37.598,-48.828,-110.352
1688141019.888,-22.949,-27.344,-40.527,-56.641,-146.973
1688141019.892,-46.387,-28.320,-41.016,-40.039,85.449
1688141019.895,-36.621,-34.180,-39.551,-43.457,482.910
1688141019.899,-31.250,-28.320,-28.320,-41.504,99.609
1688141019.903,-36.621,-30.273,-26.855,-49.805,-237.305
1688141019.907,-38.086,-38.574,-33.691,-61.035,-16.602
1688141019.911,-45.898,-38.574,-36.133,-36.621,-41.504
1688141019.927,-30.762,-34.668,-32.227,-23.926,-190.430
1688141019.931,-18.555,-32.715,-32.715,-35.156,-137.695
1688141019.935,-19.043,-30.762,-32.227,-43.945,16.113
1688141019.939,-30.762,-28.809,-30.273,-50.293,-28.320
1688141019.943,-45.410,-31.250,-29.297,-46.387,-128.906
1688141019.947,-44.922,-38.574,-37.598,-52.734,9.277
1688141019.951,-24.414,-44.434,-42.480,-29.785,425.293
1688141019.954,-38.574,-35.156,-27.344,-25.391,345.703
1688141019.958,-44.434,-31.738,-20.996,-48.340,-99.121
1688141019.962,-42.480,-40.527,-26.367,-40.039,-155.762
1688141019.966,-32.227,-38.574,-30.762,-38.086,-115.723
1688141019.970,-32.227,-30.273,-32.715,-44.922,-137.695
1688141019.972,-29.297,-30.273,-35.645,-33.691,-141.113
1688141019.976,-21.973,-35.645,-32.227,-26.855,-136.230
1688141019.980,-41.992,-39.551,-24.414,-35.156,-121.094
1688141019.984,-43.945,-33.203,-22.461,-42.969,-113.770
1688141019.988,-24.902,-27.344,-21.973,-49.316,-87.402
1688141019.992,-24.414,-32.227,-25.879,-51.270,58.594
1688141019.996,-39.551,-34.180,-32.227,-62.012,83.496
1688141019.999,-58.594,-39.551,-31.738,-55.176,-60.547
1688141020.003,-42.480,-44.922,-30.273,-40.039,-54.688
1688141020.007,-12.207,-38.086,-38.574,-29.297,145.996
1688141020.011,-12.695,-28.809,-33.691,-20.996,345.215
1688141020.015,-22.461,-25.879,-26.367,-29.297,-19.043
1688141020.017,-31.250,-26.855,-32.715,-19.043,-207.031
1688141020.021,-25.391,-31.738,-36.133,-10.742,-97.656
1688141020.025,0.000,-34.668,-33.691,-0.488,-177.734
1688141020.029,-7.324,-20.996,-30.762,-11.230,-201.172
1688141020.033,-32.715,-10.742,-34.180,-47.852,-95.215
1688141020.037,-47.852,-13.672,-41.504,-60.059,43.457
1688141020.041,-51.758,-14.648,-41.016,-45.410,42.969
1688141020.044,-37.109,-6.836,-37.598,-35.645,-28.809
1688141020.048,-17.578,7.812,-40.527,-29.297,-63.477
1688141020.052,-14.648,5.859,-41.992,-39.551,217.773
1688141020.056,-25.391,-0.977,-32.227,-43.457,128.418
1688141020.060,-26.855,0.488,-34.668,-40.527,-188.477
1688141020.062,-30.273,-8.789,-44.922,-43.457,-174.316
1688141020.066,-33.691,-11.719,-36.133,-25.879,-121.094
1688141020.070,-41.016,-6.348,-30.273,-43.457,-166.016
1688141020.074,-39.062,-6.836,-32.715,-75.195,-224.121
1688141020.078,-38.086,-14.160,-33.691,-62.500,-99.121
1688141020.082,-46.875,-24.902,-31.250,-53.711,56.152
1688141020.086,-44.434,-19.043,-28.809,-57.129,52.734
1688141020.089,-28.809,-17.578,-30.762,-47.852,-53.223
1688141020.093,-33.691,-34.668,-32.715,-50.293,109.375
1688141020.097,-41.504,-35.156,-34.180,-34.668,380.371
1688141020.101,-36.621,-20.020,-21.973,-17.090,79.102
1688141020.105,-28.320,-22.949,-18.066,-23.438,-200.684
1688141020.107,-11.719,-20.020,-24.414,-16.602,-28.320
1688141020.111,-21.973,-20.020,-24.902,-21.484,-74.219
1688141020.115,-32.715,-23.926,-21.973,-20.508,-178.711
1688141020.119,-20.508,-12.207,-22.461,-23.438,-147.949
1688141020.123,-20.996,-13.672,-24.902,-36.621,-126.465
1688141020.127,-28.809,-23.926,-20.020,-32.227,-13.184
1688141020.131,-23.926,-21.484,-13.184,-28.320,-3.906
1688141020.134,-33.691,-20.996,-19.531,-28.809,-76.172
1688141020.138,-39.551,-24.902,-24.902,-30.273,186.523
1688141020.142,-25.879,-19.531,-19.531,-25.879,64.453
1688141020.146,-22.461,-20.996,-19.043,-18.555,-194.336
1688141020.150,-33.691,-33.203,-26.855,-41.992,-140.625
1688141020.152,-44.922,-35.645,-29.785,-49.805,-33.691
1688141020.156,-47.363,-28.320,-24.414,-40.039,-113.770
1688141020.160,-31.250,-25.391,-19.043,-24.414,-189.453
1688141020.164,-12.695,-29.297,-27.344,-19.531,-92.773
1688141020.168,-40.039,-38.086,-35.156,-41.504,-76.172
1688141020.172,-53.711,-37.598,-31.250,-38.574,-51.758
1688141020.176,-34.180,-33.691,-28.320,-36.133,4.883
1688141020.179,-29.297,-37.109,-26.367,-33.691,221.191
1688141020.183,-20.996,-38.086,-26.855,-21.484,511.719
1688141020.187,-25.391,-43.457,-24.902,-27.832,130.371
1688141020.191,-34.180,-46.387,-19.043,-31.250,-168.945
1688141020.195,-32.715,-37.598,-22.949,-35.156,-91.797
1688141020.212,-21.973,-33.203,-25.879,-27.344,-69.336
1688141020.216,-20.996,-34.668,-23.438,-24.414,-92.285
1688141020.220,-49.316,-31.738,-28.320,-33.203,-60.547
1688141020.224,-42.969,-28.809,-27.832,-24.902,111.328
1688141020.228,-23.438,-34.668,-23.438,-17.090,-11.230
1688141020.232,-25.391,-40.039,-32.715,-7.812,-59.082
1688141020.236,-21.973,-21.484,-44.434,-16.602,82.520
1688141020.239,-23.926,-9.277,-56.152,-41.992,255.859
1688141020.243,-31.738,-11.230,-52.734,-59.570,70.801
1688141020.247,-43.457,-8.301,-50.781,-62.988,-243.652
1688141020.251,-39.062,-2.441,-57.617,-33.203,-178.223
1688141020.255,-24.902,8.301,-55.664,-42.969,-84.961
1688141020.242,-55.176,8.789,-59.570,-78.125,-129.883
1688141020.246,-62.012,7.324,-61.523,-68.848,-159.180
1688141020.250,-25.879,10.254,-67.383,-46.875,-117.676
1688141020.254,-30.762,0.977,-70.801,-41.992,-51.758
1688141020.258,-27.832,-11.230,-61.035,-52.734,-59.082
1688141020.262,-32.227,-7.324,-57.617,-51.270,-69.824
1688141020.266,-32.715,-12.207,-60.059,-51.758,104.004
1688141020.269,-36.621,-15.625,-55.176,-50.781,89.355
1688141020.273,-31.738,-13.672,-45.898,-41.992,3.906
1688141020.277,-22.949,-17.090,-40.527,-48.828,29.297
1688141020.281,-31.738,-17.090,-43.945,-53.223,112.305
1688141020.285,-30.273,-11.719,-41.992,-44.922,322.266
1688141020.287,-6.836,-15.137,-29.297,-26.855,86.426
1688141020.291,-20.508,-26.855,-28.809,-20.508,-193.359
1688141020.295,-27.344,-25.391,-30.273,-27.344,-114.258
1688141020.299,-8.789,-21.973,-26.855,-33.203,-92.773
1688141020.303,-18.555,-24.902,-34.180,-32.227,-231.445
1688141020.307,-25.879,-27.832,-38.086,-34.668,-189.453
1688141020.311,-34.180,-35.156,-36.133,-35.156,140.625
1688141020.314,-38.574,-30.273,-28.320,-45.410,40.527
1688141020.318,-23.438,-21.973,-27.344,-55.176,-145.508
1688141020.322,-24.902,-28.320,-33.203,-47.852,-124.023
1688141020.326,-37.109,-28.809,-31.250,-35.645,27.344
1688141020.330,-39.551,-23.438,-27.832,-40.039,-112.305
1688141020.332,-30.762,-23.926,-31.738,-32.227,-233.398
1688141020.336,-22.949,-20.508,-37.109,-32.715,-113.770
1688141020.340,-6.348,-19.043,-39.551,-39.062,-97.168
1688141020.344,-9.766,-15.137,-32.715,-31.250,-156.738
1688141020.348,-36.621,-18.066,-26.367,-18.066,-128.418
1688141020.352,-31.738,-27.344,-33.691,-22.949,61.035
1688141020.356,-16.113,-23.926,-33.691,-26.367,78.125
1688141020.359,-5.371,-17.578,-32.227,-30.762,-5.859
1688141020.363,-25.391,-21.973,-38.086,-41.504,-91.309
1688141020.367,-27.344,-20.020,-40.527,-25.391,25.879
1688141020.371,-6.348,-21.484,-38.086,-15.625,438.965
1688141020.375,-18.555,-29.785,-33.203,-32.227,122.070
1688141020.392,-26.367,-26.367,-35.645,-21.484,-168.457
1688141020.396,-31.738,-23.438,-39.062,-22.461,-23.926
1688141020.400,-37.598,-33.691,-36.621,-40.039,-69.824
1688141020.404,-25.879,-29.785,-35.156,-18.066,-104.492
1688141020.408,-10.742,-15.137,-40.527,-9.277,-70.312
1688141020.412,-6.836,-19.043,-40.039,-18.555,18.555
1688141020.416,-7.812,-22.949,-31.250,-10.254,10.254
1688141020.419,9.277,-15.137,-31.738,-9.277,-104.980
1688141020.423,-17.578,-14.648,-37.598,-25.391,-69.336
1688141020.427,-43.945,-19.043,-28.809,-24.902,195.312
1688141020.431,-35.645,-20.020,-30.762,-23.438,38.086
1688141020.435,-38.574,-19.043,-52.246,-45.898,-154.297
1688141020.437,-52.246,-14.160,-59.082,-52.734,-72.266
1688141020.441,-48.340,-14.648,-55.176,-44.434,-22.461
1688141020.445,-9.766,-10.254,-51.758,-32.715,-87.891
1688141020.449,-0.488,-5.859,-51.270,-27.832,-145.996
