timestamps,TP9,AF7,AF8,TP10,Right AUX
1690200192.209,-117.676,-39.551,-44.434,-76.660,-201.660
1690200192.213,-76.172,-40.039,-46.875,-63.965,-58.105
1690200192.217,25.879,-40.039,-48.828,-20.020,-26.855
1690200192.221,60.547,-40.039,-42.969,2.930,-77.637
1690200192.225,-31.738,-42.969,-41.992,-30.273,-193.359
1690200192.229,-121.094,-44.922,-43.945,-59.570,109.375
1690200192.233,-86.426,-45.898,-37.109,-43.457,346.680
1690200192.236,26.367,-44.434,-39.062,-20.508,-53.223
1690200192.240,77.148,-45.410,-42.969,6.836,-153.809
1690200192.244,-8.301,-45.898,-37.598,-4.883,-6.836
1690200192.248,-107.422,-44.434,-39.062,-56.641,-54.199
1690200192.252,-90.332,-42.969,-38.574,-58.105,-228.516
1690200192.268,19.043,-44.434,-37.598,-16.602,-124.512
1690200192.272,85.938,-43.457,-37.598,13.184,-11.719
1690200192.276,13.672,-40.039,-39.551,0.977,-43.945
1690200192.280,-100.098,-44.922,-42.480,-36.133,-194.336
1690200192.284,-99.121,-45.410,-39.062,-39.551,-151.367
1690200192.288,13.672,-41.992,-42.969,-10.254,235.840
1690200192.292,87.402,-42.480,-46.387,12.207,179.199
1690200192.295,16.602,-46.387,-47.363,-0.977,-51.270
1690200192.299,-99.121,-48.828,-48.340,-38.086,-10.254
1690200192.303,-105.957,-48.828,-44.434,-53.223,-69.824
1690200192.307,-7.812,-46.875,-47.852,-31.250,-123.047
1690200192.311,75.684,-42.480,-47.852,5.371,-104.004
1690200192.313,39.062,-46.387,-40.039,0.488,55.176
1690200192.317,-74.219,-48.340,-35.156,-40.039,300.781
1690200192.321,-107.910,-42.969,-33.691,-66.406,-6.836
1690200192.325,-16.113,-40.527,-34.180,-27.832,-258.301
1690200192.329,82.520,-38.574,-37.109,25.879,-148.926
1690200192.333,46.387,-45.898,-41.992,13.184,-90.820
1690200192.337,-76.172,-52.246,-41.504,-31.250,-50.781
1690200192.340,-120.605,-47.363,-37.598,-48.340,-130.859
1690200192.344,-32.715,-47.852,-39.551,-27.832,74.707
1690200192.348,72.754,-42.969,-39.062,13.184,322.754
1690200192.352,63.965,-32.227,-35.156,16.113,22.461
1690200192.356,-47.363,-34.668,-39.551,-24.414,-121.582
1690200192.358,-110.352,-38.086,-37.109,-44.922,-147.949
1690200192.362,-41.016,-39.551,-35.645,-21.973,-219.238
1690200192.366,62.012,-39.551,-39.062,15.137,-191.406
1690200192.370,74.219,-34.180,-33.203,28.320,-73.242
1690200192.374,-25.879,-36.133,-30.762,-3.906,-106.445
1690200192.378,-100.586,-34.668,-29.297,-27.832,-84.473
1690200192.382,-26.855,-14.648,-15.137,3.906,49.805
1690200192.385,102.539,1.953,0.977,57.129,110.840
1690200192.389,132.812,4.883,10.742,80.566,430.664
1690200192.393,35.645,9.766,13.184,50.781,308.105
1690200192.397,-50.293,12.695,11.230,11.719,-211.426
1690200192.401,-3.906,10.254,10.254,25.391,-153.320
1690200192.403,102.051,9.766,6.836,63.965,-36.133
1690200192.407,132.324,5.859,-0.977,71.289,-147.461
1690200192.411,41.504,-0.488,-7.812,34.668,-143.066
1690200192.415,-54.199,-2.441,-8.301,-4.395,-131.348
1690200192.419,-31.250,-2.441,-7.812,-0.977,-179.199
1690200192.423,77.148,-9.766,-12.207,44.922,-71.777
1690200192.427,117.188,-17.578,-18.066,64.453,24.414
1690200192.430,30.273,-24.902,-23.926,26.855,232.910
1690200192.434,-78.125,-28.809,-30.762,-18.066,171.387
1690200192.438,-82.031,-29.785,-29.297,-25.391,-256.348
1690200192.442,31.250,-33.203,-27.832,12.207,-144.043
1690200192.446,95.215,-31.738,-33.203,41.504,62.012
1690200192.448,19.531,-32.715,-39.062,17.090,-54.688
1690200192.452,-95.703,-40.039,-43.945,-30.762,-192.871
1690200192.456,-101.074,-41.992,-42.969,-44.922,-135.254
1690200192.460,1.465,-41.992,-43.457,-8.789,-16.602
1690200192.464,80.566,-37.598,-40.039,28.809,-49.316
1690200192.468,31.738,-36.621,-38.086,9.766,-46.875
1690200192.472,-78.613,-40.039,-41.992,-36.621,71.289
1690200192.475,-108.398,-47.363,-44.922,-40.039,375.977
1690200192.479,-20.996,-42.969,-44.922,-11.719,180.176
1690200192.483,70.312,-41.016,-47.852,13.672,-159.180
1690200192.487,37.598,-43.945,-45.898,8.789,-15.137
1690200192.491,-81.543,-44.922,-45.410,-39.551,-75.195
1690200192.508,-125.000,-48.828,-45.410,-59.570,-223.633
1690200192.512,-36.133,-49.805,-44.434,-34.668,-176.270
1690200192.516,58.594,-54.199,-49.316,1.953,8.789
1690200192.520,39.551,-55.176,-48.340,2.441,31.250
1690200192.524,-66.895,-52.734,-43.945,-42.480,-174.805
1690200192.528,-115.234,-53.711,-42.480,-62.500,-152.832
1690200192.532,-39.062,-54.199,-45.410,-21.973,186.035
1690200192.535,66.895,-52.734,-49.316,20.996,279.785
1690200192.539,60.059,-46.875,-48.340,12.207,-10.254
1690200192.543,-53.223,-46.875,-45.898,-20.508,-75.684
1690200192.547,-121.094,-53.711,-47.363,-42.969,-111.816
1690200192.551,-56.641,-49.805,-46.387,-31.250,-147.461
1690200192.538,49.805,-52.246,-41.016,1.953,-110.840
1690200192.542,64.941,-59.082,-44.434,7.812,-43.945
1690200192.546,-13.184,-53.223,-52.246,-9.277,-66.406
1690200192.550,-81.543,-50.781,-47.852,-33.203,-129.395
1690200192.554,-61.523,-58.105,-38.574,-51.270,-173.340
1690200192.558,9.766,-57.129,-39.062,-27.344,-16.113
1690200192.562,34.668,-53.223,-45.898,-15.625,132.812
1690200192.565,-61.035,-51.758,-43.945,-58.594,-62.012
1690200192.569,-170.898,-45.898,-37.109,-100.586,-178.223
1690200192.573,-150.391,-48.340,-37.109,-98.145,-89.844
1690200192.577,-41.992,-54.199,-38.086,-57.129,349.609
1690200192.581,-0.977,-50.293,-36.621,-41.016,315.918
1690200192.613,-92.773,-54.199,-40.039,-91.797,-114.258
1690200192.617,-193.359,-54.199,-43.457,-145.020,-164.551
1690200192.621,-170.898,-48.340,-41.504,-137.207,-147.949
1690200192.625,-64.941,-48.828,-38.574,-100.098,-126.465
1690200192.629,0.000,-44.922,-40.039,-65.918,-103.516
1690200192.633,-42.480,-41.992,-40.039,-59.570,-10.742
1690200192.637,-144.531,-40.039,-41.992,-100.098,37.598
1690200192.640,-145.020,-44.434,-47.363,-103.516,-11.230
1690200192.644,-30.273,-51.758,-47.852,-51.758,-147.461
1690200192.648,43.457,-55.664,-49.805,-14.160,126.953
1690200192.652,-11.230,-53.711,-45.898,-17.578,284.668
1690200192.656,-119.629,-56.152,-44.922,-57.617,-155.762
1690200192.643,-132.324,-62.012,-45.410,-71.777,-222.656
1690200192.647,-21.973,-56.152,-41.504,-35.156,-116.211
1690200192.651,64.941,-56.641,-48.340,-6.836,-90.820
1690200192.655,23.438,-58.105,-55.176,-18.066,-127.930
1690200192.659,-83.008,-56.152,-52.246,-48.828,-77.148
1690200192.663,-113.770,-57.129,-51.270,-62.012,22.461
1690200192.667,-30.762,-52.734,-55.176,-43.945,22.949
1690200192.670,61.035,-49.316,-53.223,-8.789,20.020
1690200192.674,46.875,-53.711,-49.316,3.418,110.352
1690200192.678,-63.965,-52.734,-50.781,-28.320,38.086
1690200192.682,-118.652,-49.805,-52.734,-53.223,-154.785
1690200192.686,-40.527,-52.246,-49.805,-27.832,-168.945
1690200192.688,63.477,-52.246,-50.293,15.625,20.508
1690200192.692,59.082,-49.805,-49.316,39.551,482.422
1690200192.696,-50.293,-47.852,-48.828,-8.789,317.383
1690200192.700,-117.188,-48.828,-54.688,-68.848,-210.449
1690200192.704,-45.410,-54.688,-55.176,-42.480,-147.461
1690200192.708,59.082,-53.223,-51.270,0.977,48.340
1690200192.712,56.152,-45.898,-53.711,-3.906,42.969
1690200192.715,-34.668,-42.969,-52.734,-31.250,-124.512
1690200192.719,-104.492,-47.852,-46.875,-45.410,-4.883
1690200192.723,-52.246,-51.758,-47.852,-35.645,63.477
1690200192.727,59.082,-50.781,-49.316,-1.953,-161.133
1690200192.731,85.449,-51.270,-43.945,22.949,-98.633
1690200192.733,-10.742,-54.199,-41.992,0.000,-32.715
1690200192.737,-97.656,-50.293,-38.574,-31.250,-143.066
1690200192.741,-60.059,-42.480,-34.668,-32.227,-240.723
1690200192.745,53.223,-46.387,-39.551,-0.977,-119.629
1690200192.749,90.820,-47.852,-41.504,22.461,-12.207
1690200192.753,-6.836,-46.387,-41.992,-2.441,-16.602
1690200192.757,-108.398,-52.246,-41.504,-40.039,-24.902
1690200192.760,-78.613,-48.828,-42.969,-30.762,-5.859
1690200192.764,33.203,-47.852,-42.480,17.090,352.539
1690200192.768,76.172,-46.387,-39.551,28.809,284.180
1690200192.772,1.953,-41.992,-41.504,-6.836,-139.160
1690200192.776,-102.051,-50.781,-42.969,-44.434,-148.926
1690200192.779,-103.516,-51.758,-41.504,-50.293,-162.109
1690200192.783,7.812,-44.922,-41.992,-15.625,-103.027
1690200192.787,85.449,-43.945,-37.598,21.484,-19.531
1690200192.791,24.414,-44.922,-35.156,11.230,46.387
1690200192.795,-95.703,-44.434,-41.992,-35.645,-0.488
1690200192.799,-106.934,-41.504,-44.922,-48.340,-154.785
1690200192.803,-3.418,-41.016,-43.945,-19.531,-77.148
1690200192.806,76.172,-43.945,-44.922,19.531,312.012
1690200192.810,37.109,-41.016,-47.852,20.020,291.016
1690200192.814,-73.730,-36.133,-45.410,-32.715,-135.254
1690200192.818,-116.211,-43.457,-42.969,-54.688,-209.473
1690200192.822,-18.066,-49.316,-50.781,-18.555,-185.059
1690200192.823,83.984,-47.852,-48.828,22.949,-163.574
1690200192.827,47.852,-54.199,-48.828,12.695,-160.156
1690200192.831,-61.523,-56.152,-53.223,-28.320,-125.977
1690200192.835,-106.934,-48.340,-51.758,-43.945,-64.453
1690200192.839,-23.438,-47.852,-50.781,-16.602,-72.754
1690200192.843,86.426,-50.293,-49.316,32.227,-29.785
1690200192.847,67.871,-50.293,-45.410,39.551,108.398
1690200192.850,-45.898,-54.199,-46.875,6.836,462.402
1690200192.854,-105.957,-54.688,-48.828,-27.344,423.828
1690200192.858,-44.434,-44.922,-49.316,-25.879,-59.082
1690200192.862,60.059,-43.457,-50.781,11.230,-99.609
1690200192.866,62.988,-46.387,-46.875,14.648,-83.496
1690200192.868,-45.898,-48.828,-49.805,-30.273,-208.496
1690200192.872,-124.512,-52.734,-55.176,-67.871,-238.281
1690200192.876,-58.105,-49.316,-48.828,-41.992,-175.293
1690200192.880,60.059,-40.039,-41.016,6.348,-112.793
1690200192.884,75.195,-36.133,-39.062,19.531,-84.961
1690200192.888,-22.949,-39.551,-39.551,-5.371,-87.402
1690200192.892,-105.957,-38.574,-37.109,-32.227,5.859
1690200192.895,-67.383,-41.504,-39.062,-28.320,39.551
1690200192.899,44.434,-41.992,-43.945,3.906,-77.148
1690200192.903,77.637,-39.551,-45.898,26.367,-104.980
1690200192.907,-13.672,-42.480,-43.945,8.301,190.430
1690200192.911,-108.398,-43.457,-38.574,-44.434,194.824
1690200192.928,-89.355,-39.062,-40.039,-63.965,-183.594
1690200192.932,23.438,-41.992,-41.992,-9.766,-165.039
1690200192.936,74.707,-43.457,-39.062,20.996,-59.082
1690200192.940,-3.418,-43.457,-38.574,-0.977,-98.145
1690200192.944,-101.562,-44.434,-40.039,-37.598,-187.012
1690200192.948,-86.914,-41.992,-41.016,-35.645,-35.645
1690200192.952,21.973,-40.039,-41.504,-0.488,205.078
1690200192.955,88.867,-34.180,-37.598,24.414,65.430
1690200192.959,15.625,-31.250,-37.109,10.254,-135.742
1690200192.963,-88.379,-41.504,-39.551,-26.367,-86.914
1690200192.967,-92.285,-47.852,-40.527,-27.832,241.699
1690200192.971,-12.207,-40.527,-41.992,-17.090,105.957
1690200192.973,52.246,-37.598,-45.898,-13.184,-186.523
1690200192.977,-6.348,-42.969,-48.828,-28.809,-99.609
1690200192.981,-128.418,-48.340,-47.852,-71.289,-106.934
1690200192.985,-147.949,-48.828,-47.363,-93.750,-231.934
1690200192.989,-35.645,-44.922,-43.457,-55.664,-202.148
1690200192.993,54.199,-39.551,-40.039,-11.230,54.199
1690200192.997,13.184,-41.016,-40.039,-15.625,159.668
1690200193.000,-93.262,-41.016,-37.598,-53.711,-57.617
1690200193.004,-123.047,-33.691,-34.668,-66.895,-291.016
1690200193.008,-27.832,-35.156,-39.551,-24.414,31.250
1690200193.012,71.777,-38.086,-41.992,11.230,262.695
1690200193.016,43.945,-35.645,-41.504,-3.418,69.824
1690200193.018,-69.336,-33.691,-39.062,-33.691,0.000
1690200193.022,-119.141,-39.062,-40.039,-54.199,-20.508
1690200193.026,-40.527,-38.574,-43.457,-46.875,-39.062
1690200193.030,65.430,-34.180,-41.016,2.930,-140.137
1690200193.034,60.059,-41.016,-39.551,13.672,-63.965
1690200193.038,-48.828,-46.387,-35.645,-27.832,18.555
1690200193.042,-119.629,-42.969,-36.621,-53.711,-73.242
1690200193.045,-53.711,-40.039,-36.621,-34.668,-151.367
1690200193.049,58.594,-39.062,-33.691,13.184,-44.434
1690200193.053,74.219,-41.016,-37.109,30.762,360.352
1690200193.057,-32.715,-41.992,-38.574,-11.230,183.105
1690200193.061,-123.047,-40.039,-37.598,-49.316,-274.414
1690200193.063,-61.523,-39.551,-40.527,-34.180,-243.164
1690200193.067,54.199,-41.016,-40.527,15.625,0.000
1690200193.071,74.707,-41.992,-38.574,37.109,23.926
1690200193.075,-25.879,-47.363,-40.527,-3.418,-180.664
1690200193.079,-113.281,-46.875,-39.062,-37.109,-74.219
1690200193.083,-67.871,-40.527,-37.109,-33.691,88.379
1690200193.087,35.156,-41.504,-38.086,-5.371,-1.953
1690200193.090,78.125,-38.574,-37.598,19.043,-135.254
1690200193.094,1.953,-38.086,-39.062,5.859,71.777
1690200193.098,-106.934,-41.992,-41.504,-35.156,126.953
1690200193.102,-85.938,-37.109,-39.062,-44.922,-206.055
1690200193.106,35.645,-32.227,-36.621,-2.441,-150.391
1690200193.108,84.473,-34.180,-39.551,20.508,-15.137
1690200193.112,3.418,-36.133,-38.574,-9.277,-96.191
1690200193.116,-103.516,-39.551,-37.109,-49.805,-232.910
1690200193.120,-107.910,-41.016,-39.551,-54.199,-145.996
1690200193.124,-8.301,-40.527,-38.086,-15.137,64.453
1690200193.128,71.777,-40.527,-36.621,10.742,174.805
1690200193.132,21.973,-40.527,-43.457,-1.465,62.988
1690200193.135,-94.727,-42.969,-46.875,-36.621,24.414
1690200193.139,-109.863,-44.922,-44.922,-41.016,308.594
1690200193.143,1.465,-42.480,-40.527,-5.371,216.797
1690200193.147,86.914,-36.621,-39.551,26.367,-76.660
1690200193.151,38.574,-35.645,-38.574,17.090,-61.035
1690200193.153,-79.590,-40.527,-37.598,-34.668,-158.203
1690200193.157,-109.375,-37.109,-37.598,-56.152,-258.301
1690200193.161,-7.324,-32.227,-34.668,-27.344,-171.875
1690200193.165,92.773,-30.273,-29.785,11.230,-51.758
1690200193.169,50.781,-25.879,-29.297,12.695,-26.367
1690200193.173,-67.871,-24.414,-30.273,-20.020,-13.184
1690200193.177,-108.887,-25.879,-32.227,-47.852,-26.855
1690200193.180,-20.996,-33.203,-37.109,-22.461,191.406
1690200193.184,79.102,-37.598,-32.715,32.227,338.867
1690200193.188,55.664,-33.691,-28.320,25.391,-16.602
1690200193.192,-55.664,-33.691,-31.738,-13.184,-186.035
1690200193.196,-117.676,-38.574,-30.762,-33.691,-177.246
1690200193.198,-43.945,-42.480,-34.180,-22.949,-203.125
1690200193.202,68.359,-40.039,-35.645,12.207,-155.762
1690200193.206,65.918,-41.992,-30.762,26.855,-22.461
1690200193.210,-41.992,-44.922,-36.621,-6.836,-59.570
1690200193.214,-119.629,-39.551,-36.621,-48.828,-175.293
1690200193.218,-62.012,-38.086,-38.086,-42.480,-96.191
1690200193.222,49.805,-42.480,-42.480,5.859,125.488
1690200193.225,62.988,-45.898,-41.504,26.367,405.762
1690200193.229,-30.762,-40.527,-42.969,-12.207,145.020
1690200193.233,-114.746,-41.016,-43.457,-58.105,-261.719
1690200193.237,-74.219,-44.434,-46.387,-53.223,-152.344
1690200193.241,41.504,-38.574,-48.828,-11.230,-38.086
1690200193.243,78.125,-37.598,-48.340,10.742,-88.379
1690200193.247,-6.836,-38.086,-45.898,-14.648,-162.109
1690200193.251,-102.539,-41.504,-41.504,-49.805,-38.574
1690200193.255,-79.102,-41.992,-40.039,-51.270,51.758
1690200193.259,41.504,-36.133,-37.109,-19.043,-108.398
1690200193.263,97.168,-31.250,-31.738,13.672,-35.156
1690200193.267,16.602,-36.621,-31.738,-1.465,232.422
1690200193.270,-95.703,-38.574,-33.203,-43.945,159.180
1690200193.274,-100.098,-36.621,-37.109,-58.594,-218.750
1690200193.278,12.695,-45.410,-37.598,-18.066,-173.828
1690200193.282,75.195,-44.434,-34.668,17.090,-49.805
1690200193.286,6.836,-42.480,-36.621,-2.441,-38.086
1690200193.289,-103.027,-44.922,-39.551,-46.875,-190.918
1690200193.293,-111.816,-43.945,-42.480,-55.664,-257.324
1690200193.297,-4.395,-43.457,-45.898,-18.555,-67.383
1690200193.301,78.125,-38.086,-43.457,14.160,4.395
1690200193.305,29.785,-36.133,-42.480,5.859,-101.074
1690200193.309,-84.961,-45.410,-48.340,-30.273,-17.578
1690200193.313,-110.352,-48.340,-48.340,-45.410,136.230
1690200193.316,-18.555,-46.387,-41.504,-13.184,58.594
1690200193.320,66.895,-44.922,-39.551,20.020,1.465
1690200193.324,31.738,-48.340,-41.504,5.859,89.355
1690200193.328,-84.961,-51.758,-44.434,-32.227,220.215
1690200193.332,-124.023,-51.270,-42.969,-56.152,-74.219
1690200193.348,-21.973,-51.270,-39.062,-35.645,-176.270
1690200193.352,79.590,-49.316,-42.969,8.789,-8.301
1690200193.356,53.711,-48.340,-41.992,11.230,1.465
1690200193.360,-57.129,-51.758,-38.086,-29.785,-122.070
1690200193.364,-121.582,-52.734,-44.922,-60.547,-239.258
1690200193.368,-47.363,-52.734,-47.852,-32.227,113.770
1690200193.372,65.918,-55.176,-43.457,14.160,343.262
1690200193.375,59.082,-50.781,-44.922,10.254,-41.016
1690200193.379,-52.246,-51.270,-49.316,-29.297,-161.621
1690200193.383,-124.512,-55.176,-48.828,-66.895,-40.527
1690200193.387,-59.570,-50.293,-49.316,-49.316,-76.660
1690200193.391,60.059,-48.828,-47.852,-4.395,-154.785
1690200193.393,74.219,-53.711,-47.852,2.441,-103.516
1690200193.397,-28.809,-54.199,-52.734,-21.973,-91.309
1690200193.401,-103.027,-54.199,-44.922,-38.574,-125.488
1690200193.405,-34.180,-54.199,-34.180,-12.207,-214.355
1690200193.409,84.961,-42.480,-40.527,20.996,-31.250
1690200193.413,78.125,-33.203,-53.223,2.441,229.980
1690200193.417,-39.062,-30.762,-57.617,-45.898,53.223
1690200193.420,-125.488,-28.809,-61.035,-77.148,-89.844
1690200193.424,-93.750,-31.250,-64.941,-67.871,-47.852
1690200193.428,7.324,-29.297,-68.848,-36.621,312.012
1690200193.432,44.434,-17.090,-72.754,-31.250,279.785
1690200193.436,-43.457,-9.277,-76.172,-66.895,-81.055
1690200193.438,-147.461,-13.184,-79.590,-108.398,-193.848
1690200193.442,-123.535,-13.672,-76.660,-110.352,-217.285
1690200193.446,-13.672,-6.348,-74.707,-73.730,-188.477
1690200193.450,45.410,-3.906,-78.613,-48.340,-141.602
1690200193.454,-37.598,-6.836,-83.008,-72.754,-101.562
1690200193.458,-129.395,-11.230,-81.055,-100.098,-66.895
1690200193.462,-100.586,-16.113,-74.219,-81.543,-66.406
1690200193.465,-10.742,-24.414,-78.125,-50.781,-37.598
1690200193.469,65.918,-29.297,-79.590,-17.578,256.836
1690200193.473,14.648,-30.273,-69.824,-28.320,343.750
1690200193.477,-98.145,-31.738,-68.359,-77.637,-78.125
1690200193.481,-108.398,-37.109,-68.359,-79.590,-193.359
1690200193.483,-7.324,-39.062,-62.988,-35.156,-96.680
1690200193.487,82.520,-39.062,-61.035,-7.812,-71.777
1690200193.491,45.898,-39.551,-61.523,-12.695,-72.754
1690200193.495,-68.359,-40.039,-61.035,-46.387,-126.953
1690200193.499,-104.492,-41.992,-57.617,-66.895,-158.691
1690200193.503,-4.883,-38.086,-54.199,-26.367,-83.984
1690200193.507,100.098,-34.180,-53.711,16.113,-69.824
1690200193.510,68.359,-33.691,-55.176,4.395,30.273
1690200193.514,-41.016,-41.992,-57.617,-24.902,334.473
1690200193.518,-92.773,-40.039,-55.664,-38.086,250.977
1690200193.522,-18.555,-29.297,-51.270,-13.672,-117.188
1690200193.526,90.332,-37.109,-50.781,32.227,0.488
1690200193.528,76.660,-46.875,-49.316,34.668,108.887
1690200193.532,-40.039,-49.316,-47.363,-8.789,-130.859
1690200193.536,-104.004,-53.711,-49.805,-37.598,-236.328
1690200193.540,-34.668,-51.758,-45.898,-18.555,-207.031
1690200193.544,77.148,-49.316,-39.551,22.949,-119.629
1690200193.548,82.031,-44.922,-37.598,33.203,13.672
1690200193.552,-24.902,-43.457,-37.598,-0.488,-4.395
1690200193.555,-100.098,-46.875,-41.016,-33.203,114.258
1690200193.559,-50.781,-44.922,-40.039,-25.391,112.793
1690200193.563,64.941,-41.992,-36.133,16.113,-173.340
1690200193.567,96.680,-41.504,-36.133,35.645,-128.906
1690200193.571,0.977,-41.504,-38.086,7.812,-58.105
1690200193.573,-93.262,-41.016,-44.922,-33.203,-100.586
1690200193.577,-65.918,-45.898,-49.316,-39.551,-229.980
1690200193.581,47.852,-47.852,-46.875,1.953,-144.531
1690200193.585,91.797,-44.434,-42.480,34.180,90.332
1690200193.589,6.836,-44.434,-41.992,-1.465,3.906
1690200193.593,-92.773,-44.434,-42.480,-44.434,-177.734
1690200193.597,-74.707,-43.945,-39.551,-35.156,-63.477
1690200193.600,41.992,-44.434,-40.039,14.160,416.992
1690200193.604,88.379,-44.434,-38.574,31.738,326.660
1690200193.608,5.371,-42.969,-35.645,-1.953,-177.734
1690200193.612,-94.727,-41.504,-36.133,-37.109,-186.523
1690200193.616,-86.914,-38.574,-36.133,-41.016,-143.555
1690200193.619,29.297,-35.645,-37.598,0.000,-178.711
1690200193.623,93.750,-37.109,-44.434,29.297,-83.496
1690200193.627,21.973,-39.062,-44.922,11.230,28.320
1690200193.631,-82.031,-39.551,-41.504,-31.738,-95.215
1690200193.635,-87.402,-37.109,-39.062,-42.480,-179.688
1690200193.639,12.695,-37.598,-38.574,-6.836,-133.789
1690200193.643,89.844,-39.062,-41.016,33.691,178.711
1690200193.646,46.875,-37.598,-38.086,29.785,297.363
1690200193.650,-72.266,-36.621,-38.574,-18.555,-126.953
1690200193.654,-104.492,-40.039,-42.480,-40.527,-244.629
1690200193.658,0.488,-35.156,-41.504,-7.812,-156.250
1690200193.662,93.262,-32.715,-38.086,30.762,-91.797
1690200193.663,51.758,-35.156,-41.504,27.344,-87.891
1690200193.667,-62.988,-36.133,-36.133,-6.348,-79.590
1690200193.671,-100.098,-35.156,-30.273,-29.297,-74.707
1690200193.675,-13.672,-34.668,-39.062,-16.602,-139.648
1690200193.679,78.613,-37.598,-41.504,16.602,-81.055
1690200193.683,58.105,-35.645,-42.480,26.367,145.020
1690200193.687,-47.852,-36.133,-42.480,-5.859,389.648
1690200193.690,-107.910,-35.156,-41.504,-47.852,149.902
1690200193.694,-41.992,-37.598,-47.363,-36.133,-166.504
1690200193.698,62.012,-44.434,-48.340,8.301,42.969
1690200193.702,59.570,-40.527,-44.434,15.625,278.809
1690200193.706,-48.828,-35.645,-45.898,-20.996,-9.277
1690200193.723,-123.535,-38.086,-49.805,-59.570,-247.070
1690200193.727,-65.918,-40.039,-46.875,-45.410,-145.020
1690200193.731,60.059,-32.227,-42.480,12.207,-78.613
1690200193.735,80.566,-30.273,-42.969,25.879,-67.871
1690200193.739,-24.902,-36.133,-44.434,-20.508,-107.910
1690200193.743,-113.770,-43.457,-48.340,-50.781,-79.590
1690200193.747,-63.477,-43.457,-46.875,-34.668,33.691
1690200193.750,49.805,-41.016,-45.410,5.371,67.871
1690200193.754,67.871,-43.945,-50.293,19.531,-62.988
1690200193.758,-22.461,-48.340,-49.805,-3.418,118.164
1690200193.762,-109.375,-49.805,-46.387,-44.434,165.039
1690200193.766,-78.613,-43.945,-41.016,-45.410,-199.219
1690200193.768,37.109,-41.016,-37.109,-3.906,-131.348
1690200193.772,83.984,-40.039,-38.086,15.625,0.977
1690200193.776,-5.859,-39.551,-42.480,-6.348,-115.234
1690200193.780,-105.957,-41.992,-47.363,-48.828,-238.770
1690200193.784,-88.867,-41.992,-43.945,-45.898,-142.578
1690200193.788,24.414,-38.086,-39.551,-5.371,47.363
1690200193.792,83.984,-34.668,-37.598,20.508,50.781
1690200193.795,7.324,-37.598,-35.645,7.324,-13.184
1690200193.799,-102.539,-42.969,-39.062,-30.273,-4.395
1690200193.803,-109.375,-48.828,-41.016,-36.133,325.684
1690200193.807,-6.836,-44.434,-44.922,-2.441,343.262
1690200193.811,70.801,-38.574,-42.969,18.066,-71.777
1690200193.813,20.508,-41.504,-43.945,-3.906,-115.234
1690200193.817,-89.844,-41.016,-52.246,-46.387,-188.965
1690200193.821,-108.398,-37.598,-46.875,-62.988,-254.883
1690200193.825,-8.301,-42.969,-47.363,-39.062,-186.035
1690200193.829,79.102,-43.945,-46.875,5.371,-78.125
1690200193.833,48.340,-40.039,-39.062,6.836,24.414
1690200193.837,-66.406,-44.434,-36.133,-31.738,-8.301
1690200193.840,-113.281,-47.363,-38.574,-54.199,-200.195
1690200193.844,-16.113,-45.410,-39.062,-21.484,28.809
1690200193.848,83.008,-41.992,-37.598,9.277,226.562
1690200193.852,54.199,-36.133,-37.109,2.930,-29.297
1690200193.856,-56.641,-37.109,-35.156,-23.438,-72.266
1690200193.858,-117.188,-39.062,-37.598,-50.781,-45.410
1690200193.862,-41.016,-36.133,-38.574,-32.227,-23.926
1690200193.866,68.359,-36.133,-38.574,6.836,-55.176
1690200193.870,57.129,-38.086,-42.969,16.602,-29.297
1690200193.874,-53.223,-39.551,-42.480,-20.996,-22.461
1690200193.878,-117.188,-41.504,-40.039,-51.758,-105.957
1690200193.882,-49.316,-35.156,-38.086,-23.438,-127.930
1690200193.885,58.105,-34.668,-38.086,20.020,58.594
1690200193.889,65.918,-41.992,-42.969,33.691,474.609
1690200193.893,-42.969,-45.410,-47.363,-10.254,266.602
1690200193.897,-135.254,-45.410,-47.852,-64.453,-240.234
1690200193.901,-83.984,-43.945,-45.410,-56.152,-179.688
1690200193.903,47.363,-39.062,-37.109,0.000,-79.590
1690200193.907,74.219,-38.574,-34.668,17.090,-109.863
1690200193.911,-32.227,-40.527,-38.086,-27.832,-97.168
1690200193.915,-119.629,-32.227,-40.039,-65.430,23.926
1690200193.919,-73.730,-23.438,-45.410,-60.059,-13.672
1690200193.923,40.039,-27.344,-41.992,-19.043,-35.156
1690200193.927,48.828,-29.297,-24.414,-16.602,-57.129
1690200193.930,-65.918,-29.297,-18.555,-48.828,63.477
1690200193.934,-171.387,-31.738,-19.531,-87.891,132.324
1690200193.938,-153.320,-28.320,-19.043,-109.375,-212.891
1690200193.942,-46.387,-34.180,-16.113,-83.008,-154.785
1690200193.946,7.812,-43.945,-8.301,-52.246,-19.531
1690200193.948,-81.543,-45.898,-1.953,-65.430,-94.238
1690200193.952,-195.801,-43.457,0.000,-116.211,-220.215
1690200193.956,-196.777,-56.152,0.488,-135.254,-187.012
1690200193.960,-89.844,-61.523,5.371,-94.238,-45.410
1690200193.964,-14.160,-54.688,10.254,-61.035,6.836
1690200193.968,-80.078,-55.176,10.254,-84.473,43.457
1690200193.972,-193.359,-62.500,12.207,-126.953,15.625
1690200193.975,-208.008,-67.383,19.531,-123.047,354.980
1690200193.979,-100.586,-61.035,19.043,-83.496,372.559
1690200193.983,-12.207,-56.152,15.625,-61.035,-77.148
1690200193.987,-54.199,-55.664,18.555,-76.172,-14.160
1690200193.991,-147.461,-55.664,19.043,-105.957,81.543
1690200193.993,-181.641,-61.523,16.113,-123.535,-180.176
1690200193.997,-96.680,-67.383,9.766,-86.914,-186.035
1690200194.001,12.207,-64.453,6.348,-38.086,-17.090
1690200194.005,0.977,-57.617,2.930,-40.527,-33.203
1690200194.009,-115.234,-60.547,-2.930,-75.195,-82.031
1690200194.013,-161.133,-61.523,-11.719,-87.402,-63.477
1690200194.017,-59.082,-57.617,-13.184,-37.598,186.035
1690200194.020,53.711,-55.664,-12.695,17.090,321.777
1690200194.024,43.457,-49.316,-21.484,14.160,-3.418
1690200194.028,-65.918,-48.340,-30.273,-23.926,-173.340
1690200194.032,-120.605,-54.688,-38.086,-45.410,-80.078
1690200194.036,-45.410,-55.176,-41.016,-26.855,-126.465
1690200194.038,73.730,-49.805,-44.922,18.066,-177.734
1690200194.042,87.402,-49.316,-53.711,37.598,-56.152
1690200194.046,-16.602,-54.688,-61.035,0.000,-76.660
1690200194.050,-83.008,-51.270,-62.500,-33.691,-176.758
1690200194.054,-29.297,-46.875,-61.523,-16.602,-229.980
1690200194.058,85.449,-47.363,-58.105,39.551,-17.090
1690200194.062,118.164,-41.504,-56.641,61.035,304.688
1690200194.065,15.137,-33.691,-66.895,15.625,130.371
1690200194.069,-67.383,-35.645,-68.848,-19.531,-162.598
1690200194.073,-8.301,-34.180,-64.941,5.371,-142.578
1690200194.077,103.516,-30.273,-69.824,51.758,308.594
1690200194.081,129.883,-29.785,-73.242,64.941,282.227
1690200194.098,49.316,-20.020,-75.195,41.992,-105.957
1690200194.102,-21.973,-17.578,-72.266,31.250,-127.441
1690200194.106,15.137,-24.414,-71.289,44.922,-183.105
1690200194.110,130.859,-26.855,-68.848,82.520,-230.957
1690200194.114,185.059,-33.203,-65.430,110.840,-164.062
1690200194.118,108.398,-40.039,-71.289,95.703,-4.395
1690200194.122,2.930,-43.457,-70.312,62.500,-28.809
1690200194.125,24.902,-41.992,-65.430,68.848,-210.449
1690200194.129,151.855,-42.969,-55.176,121.582,-200.195
1690200194.133,212.402,-49.805,-49.805,162.109,149.414
1690200194.137,151.855,-51.270,-51.758,155.762,191.406
1690200194.141,52.246,-53.711,-57.129,119.141,-206.543
1690200194.143,37.598,-57.129,-56.152,101.562,-192.871
1690200194.147,133.789,-59.082,-46.875,130.371,6.348
1690200194.151,212.891,-55.176,-44.434,168.945,-22.949
1690200194.155,164.062,-49.316,-39.062,162.109,-61.035
1690200194.159,57.129,-44.922,-36.621,123.047,-68.359
1690200194.163,31.738,-44.922,-38.574,103.027,-59.570
1690200194.167,108.398,-43.457,-37.598,126.953,15.137
1690200194.170,188.965,-43.457,-38.574,147.461,24.414
1690200194.174,146.973,-45.898,-37.109,137.207,42.969
1690200194.178,27.344,-44.922,-33.691,107.422,306.641
1690200194.182,-20.020,-41.016,-31.250,61.523,174.805
1690200194.186,51.270,-35.645,-34.668,66.895,-166.016
1690200194.188,141.113,-36.621,-39.062,98.633,-21.973
1690200194.192,113.770,-39.551,-39.551,84.473,4.395
1690200194.196,-4.395,-37.109,-41.016,44.922,-159.180
1690200194.200,-61.035,-37.598,-37.598,18.066,-191.406
1690200194.204,8.301,-36.621,-35.645,44.434,-35.645
1690200194.208,108.398,-36.133,-35.645,80.566,165.039
1690200194.212,102.051,-37.598,-34.668,75.684,81.055
1690200194.215,-10.742,-36.133,-36.133,35.645,-194.824
1690200194.219,-83.496,-41.016,-35.645,3.418,-59.570
1690200194.223,-15.137,-37.109,-33.203,25.879,104.492
1690200194.227,90.820,-32.227,-31.738,53.711,-117.188
1690200194.231,95.703,-34.180,-34.180,52.246,-90.820
1690200194.248,-3.906,-35.645,-35.645,28.809,-97.656
1690200194.252,-92.773,-37.109,-35.156,-11.230,-169.922
1690200194.256,-47.852,-35.645,-35.645,-8.789,-156.738
1690200194.260,72.266,-34.180,-34.668,38.086,-75.195
1690200194.264,96.680,-34.180,-37.598,55.664,28.809
1690200194.268,2.441,-33.691,-37.598,30.273,46.875
1690200194.272,-87.891,-39.062,-33.691,-8.789,-55.664
1690200194.275,-58.594,-43.945,-37.109,-12.207,-34.668
1690200194.279,60.547,-41.016,-41.016,34.180,476.074
1690200194.283,104.980,-32.227,-38.574,55.176,496.582
1690200194.287,26.367,-27.344,-43.457,22.461,-33.691
1690200194.291,-64.941,-33.691,-47.363,-8.789,-137.695
1690200194.278,-60.547,-36.133,-36.621,-15.625,-180.176
1690200194.282,42.969,-31.250,-32.227,14.160,-229.492
1690200194.286,109.375,-34.668,-34.668,50.293,-154.297
1690200194.290,39.551,-39.551,-36.133,41.992,-111.328
1690200194.294,-70.801,-41.016,-35.156,8.301,-167.969
1690200194.298,-60.059,-41.504,-33.203,-1.465,-127.930
1690200194.302,45.410,-41.504,-33.203,28.809,-0.488
1690200194.305,104.004,-36.621,-36.133,58.105,60.547
1690200194.309,41.504,-33.203,-34.668,35.156,64.453
1690200194.313,-69.824,-35.156,-33.203,-10.742,-15.625
1690200194.317,-86.426,-35.156,-33.203,-29.785,-163.086
1690200194.321,11.230,-40.039,-34.180,0.977,98.145
1690200194.323,87.891,-37.598,-39.551,37.109,182.129
1690200194.327,45.898,-31.250,-36.133,24.902,-108.398
1690200194.331,-62.500,-34.668,-31.250,-12.207,-200.684
1690200194.335,-101.562,-38.086,-34.668,-24.902,-70.801
1690200194.339,-12.207,-39.551,-33.203,-0.977,-68.848
1690200194.343,83.984,-34.180,-30.762,30.273,-87.402
1690200194.347,64.941,-32.227,-34.668,29.785,82.520
1690200194.350,-50.781,-39.551,-33.691,4.883,395.996
1690200194.354,-111.816,-41.016,-34.668,-26.367,217.773
1690200194.358,-30.762,-35.645,-36.133,-21.973,-249.023
1690200194.362,80.078,-27.344,-35.156,25.391,39.062
1690200194.366,74.219,-27.832,-34.668,35.645,197.754
1690200194.368,-37.598,-29.785,-34.180,0.000,-157.227
1690200194.372,-100.098,-30.762,-31.250,-30.273,-244.141
1690200194.376,-28.320,-31.738,-27.344,-19.531,-155.762
1690200194.380,82.520,-29.297,-29.785,25.391,-109.375
1690200194.384,86.914,-31.250,-31.738,38.574,-73.242
1690200194.388,-13.184,-30.762,-32.227,1.953,-51.270
1690200194.392,-93.262,-35.156,-36.621,-30.273,167.969
1690200194.395,-52.246,-40.039,-37.109,-13.672,193.848
1690200194.399,62.012,-35.156,-31.250,16.113,-122.559
1690200194.403,80.566,-34.180,-30.762,21.484,-142.090
1690200194.407,-20.996,-33.203,-34.180,-6.348,-126.465
1690200194.411,-92.285,-35.645,-35.645,-37.109,-181.152
1690200194.414,-46.875,-38.086,-37.109,-22.461,-107.910
1690200194.418,60.547,-36.133,-36.133,20.020,-6.836
1690200194.422,96.191,-37.598,-41.992,35.156,33.203
1690200194.426,-4.883,-37.109,-45.898,4.395,-41.016
1690200194.430,-106.934,-37.109,-42.969,-35.645,-189.453
1690200194.434,-83.496,-35.645,-41.992,-25.391,-47.852
1690200194.438,29.297,-38.574,-36.621,21.484,258.301
1690200194.441,90.820,-40.039,-34.668,27.344,178.223
1690200194.445,9.766,-34.668,-41.992,-18.066,-77.148
1690200194.449,-103.027,-35.645,-45.410,-55.176,-92.773
1690200194.453,-94.238,-40.527,-42.480,-47.852,78.613
1690200194.457,18.555,-38.086,-42.969,-20.508,-77.637
1690200194.473,89.844,-37.109,-41.016,1.953,-187.500
1690200194.477,24.414,-39.062,-35.156,-8.789,-101.074
1690200194.481,-89.844,-39.551,-39.062,-36.621,-170.410
1690200194.485,-104.004,-44.922,-40.527,-43.457,-126.953
1690200194.489,3.418,-46.387,-38.086,-12.207,-68.359
1690200194.493,89.355,-43.945,-39.062,23.438,134.277
1690200194.497,40.039,-43.945,-41.992,8.789,370.117
1690200194.500,-78.613,-39.551,-44.434,-41.016,9.277
1690200194.504,-101.562,-36.133,-39.062,-60.059,-211.914
1690200194.508,-2.930,-34.668,-35.645,-27.344,-90.332
1690200194.512,80.078,-32.227,-38.574,12.695,-58.594
1690200194.516,45.898,-33.691,-42.480,12.695,-159.180
1690200194.518,-65.430,-37.598,-47.852,-27.344,-177.734
1690200194.522,-115.723,-43.457,-46.387,-54.688,-149.902
1690200194.526,-38.574,-41.504,-44.922,-29.785,-85.449
1690200194.530,71.777,-35.156,-43.945,13.672,-90.332
1690200194.534,54.199,-36.133,-41.504,8.789,-53.223
1690200194.538,-60.059,-41.992,-45.898,-26.367,35.645
1690200194.542,-116.699,-42.480,-43.457,-54.199,-63.477
1690200194.545,-46.387,-40.527,-36.133,-42.969,-92.285
1690200194.549,61.035,-41.016,-35.156,0.000,157.715
1690200194.553,58.105,-39.551,-37.598,19.531,543.457
1690200194.557,-58.105,-36.621,-37.109,-27.832,418.457
1690200194.561,-127.930,-36.621,-39.062,-71.289,-84.473
1690200194.563,-54.199,-37.598,-39.062,-35.645,-157.227
1690200194.567,61.035,-38.574,-35.156,22.949,-101.074
1690200194.571,74.219,-38.086,-36.133,32.227,-122.070
1690200194.575,-35.156,-36.133,-41.504,-19.531,-185.547
1690200194.579,-119.141,-38.086,-44.434,-54.199,-176.270
1690200194.583,-62.012,-41.504,-43.945,-36.621,-88.379
1690200194.587,62.988,-40.039,-41.992,10.742,-5.859
1690200194.590,95.703,-36.621,-37.109,31.738,-125.000
1690200194.594,-1.465,-42.480,-38.086,11.230,79.102
1690200194.598,-97.656,-43.945,-41.016,-25.391,241.211
1690200194.602,-73.730,-41.992,-44.922,-37.598,-221.191
1690200194.606,41.992,-43.945,-44.434,2.930,-240.723
1690200194.608,92.773,-40.527,-39.551,37.109,-75.195
1690200194.612,16.602,-42.969,-37.598,11.719,-147.949
1690200194.616,-81.543,-43.945,-37.598,-30.273,-250.977
1690200194.620,-73.730,-42.480,-41.016,-27.344,-201.660
1690200194.624,32.715,-47.363,-45.410,1.953,-62.500
1690200194.628,84.473,-45.410,-44.922,22.461,20.508
1690200194.632,15.137,-45.898,-44.922,4.395,-9.277
1690200194.635,-78.613,-46.387,-44.434,-31.250,41.016
1690200194.639,-83.496,-44.434,-41.016,-42.969,40.527
1690200194.643,20.996,-43.945,-44.922,-10.254,-143.555
1690200194.647,101.074,-39.551,-46.875,41.992,-120.117
1690200194.651,45.898,-41.992,-46.387,27.832,79.590
1690200194.653,-81.055,-47.363,-47.363,-19.043,368.652
1690200194.657,-99.609,-45.898,-44.434,-37.598,159.180
1690200194.661,3.906,-42.480,-43.945,-16.113,-181.152
1690200194.665,84.961,-38.574,-42.480,14.648,-18.555
1690200194.669,51.270,-38.086,-42.480,12.207,-16.113
1690200194.673,-59.570,-41.504,-45.410,-21.973,-81.055
1690200194.677,-109.375,-41.016,-46.875,-44.922,-155.762
1690200194.680,-20.996,-40.039,-44.434,-8.789,45.410
1690200194.684,78.613,-43.457,-45.410,25.391,229.492
1690200194.688,49.316,-42.969,-46.875,13.672,-56.152
1690200194.692,-62.500,-48.828,-45.410,-21.973,-161.133
1690200194.696,-113.281,-53.711,-45.898,-50.293,-137.695
1690200194.699,-34.180,-49.805,-46.875,-25.391,-150.879
1690200194.703,72.266,-47.363,-43.457,13.672,-53.223
1690200194.707,68.359,-47.363,-39.551,13.184,49.316
1690200194.711,-39.551,-44.922,-41.992,-18.555,46.875
1690200194.715,-109.375,-43.945,-45.898,-36.133,-113.281
1690200194.719,-45.410,-46.387,-41.504,-18.555,-164.551
1690200194.723,69.824,-44.922,-37.598,19.043,-52.246
1690200194.726,79.102,-44.922,-37.598,37.109,388.184
1690200194.730,-33.691,-47.852,-38.086,-3.418,295.410
1690200194.734,-106.934,-43.945,-39.551,-44.434,-211.426
1690200194.738,-49.805,-41.016,-39.551,-18.066,-97.168
1690200194.742,65.918,-41.992,-38.574,24.414,-11.230
1690200194.743,88.867,-36.621,-36.133,38.574,-98.145
1690200194.747,-12.695,-33.691,-38.574,10.742,-117.676
1690200194.751,-104.980,-35.156,-42.480,-41.504,-112.305
1690200194.755,-71.777,-37.109,-44.434,-45.898,-62.012
1690200194.759,40.527,-38.086,-48.340,-4.395,-11.719
1690200194.763,83.496,-36.621,-40.527,18.066,18.555
1690200194.767,-6.836,-40.039,-33.691,1.465,289.062
1690200194.770,-103.516,-38.086,-38.086,-38.086,346.191
1690200194.774,-79.102,-30.762,-39.551,-41.992,-124.023
1690200194.778,29.785,-30.762,-36.133,1.465,-196.777
1690200194.782,90.820,-32.227,-35.645,23.926,-82.520
1690200194.786,9.766,-35.156,-34.180,-2.930,-105.957
1690200194.788,-102.051,-39.062,-35.645,-51.270,-176.270
1690200194.792,-91.797,-39.062,-41.504,-56.641,-218.262
1690200194.796,11.230,-40.039,-40.039,-18.066,-85.449
1690200194.800,75.684,-37.598,-39.551,16.602,2.441
1690200194.804,18.066,-33.691,-45.410,-0.488,-74.219
1690200194.808,-90.332,-36.133,-47.852,-48.828,-12.207
1690200194.812,-107.422,-40.527,-42.969,-53.223,173.340
1690200194.815,-11.719,-41.016,-41.016,-18.555,55.664
1690200194.819,68.848,-40.527,-38.574,14.648,-57.129
1690200194.823,25.879,-42.480,-36.133,5.859,33.691
1690200194.827,-78.613,-45.410,-36.133,-22.949,267.090
1690200194.831,-105.957,-40.527,-35.645,-43.457,30.762
1690200194.848,-5.859,-35.645,-32.715,-17.578,-242.188
1690200194.852,86.914,-38.086,-32.715,25.391,-64.941
1690200194.856,52.246,-41.016,-33.691,20.508,-85.449
1690200194.860,-57.617,-39.062,-38.574,-19.531,-185.059
1690200194.864,-108.887,-37.598,-42.969,-53.711,-217.285
1690200194.868,-30.762,-33.691,-40.039,-18.066,-14.160
1690200194.872,77.637,-33.203,-37.598,25.879,237.305
1690200194.875,57.617,-36.621,-36.621,12.695,68.359
1690200194.879,-53.223,-36.621,-35.645,-24.902,-126.953
1690200194.883,-100.586,-39.062,-37.598,-43.457,159.668
1690200194.887,-37.598,-38.574,-38.086,-26.855,220.703
1690200194.891,68.359,-34.180,-39.062,9.766,-127.441
1690200194.893,68.848,-41.992,-41.016,19.043,-140.137
1690200194.897,-38.086,-46.387,-40.039,-12.207,-107.910
1690200194.901,-112.305,-41.504,-37.598,-44.922,-160.645
1690200194.905,-59.570,-38.086,-38.086,-30.762,-175.781
1690200194.909,57.129,-36.621,-35.156,20.020,-67.383
1690200194.913,91.309,-37.109,-36.621,49.316,77.637
1690200194.917,7.324,-35.156,-38.086,18.066,39.062
1690200194.920,-101.074,-34.180,-34.668,-57.617,-35.156
1690200194.924,-91.309,-39.551,-36.621,-79.590,-18.555
1690200194.928,7.812,-38.574,-39.062,-38.086,317.383
1690200194.932,21.973,-35.156,-40.039,-33.691,260.742
1690200194.936,-84.473,-32.227,-38.086,-83.984,-87.891
1690200194.953,-195.312,-33.691,-36.133,-134.277,-20.996
1690200194.957,-197.266,-34.180,-39.551,-150.879,-32.715
1690200194.961,-102.051,-33.203,-42.969,-137.207,-151.855
1690200194.965,-59.082,-35.645,-49.805,-128.906,-129.395
1690200194.969,-151.367,-36.621,-55.664,-160.156,-112.793
1690200194.973,-265.137,-39.062,-51.758,-199.707,-81.543
1690200194.977,-258.789,-40.527,-48.340,-211.914,-96.191
1690200194.980,-155.273,-40.527,-50.781,-194.824,-174.316
1690200194.984,-93.262,-45.898,-51.758,-152.344,127.441
1690200194.988,-151.367,-41.992,-47.363,-160.645,235.352
1690200194.992,-259.766,-35.156,-43.945,-213.867,-177.246
1690200194.996,-267.090,-40.039,-47.852,-220.215,-251.953
1690200194.998,-147.461,-38.574,-47.852,-176.270,-124.512
1690200195.002,-56.152,-38.574,-44.434,-131.348,-28.320
1690200195.006,-91.797,-40.527,-42.969,-136.719,-43.457
1690200195.010,-181.152,-38.086,-44.434,-161.133,-118.652
1690200195.014,-188.477,-41.992,-43.945,-153.809,-85.938
1690200195.018,-82.520,-45.898,-43.945,-108.887,-8.301
1690200195.022,18.066,-44.922,-43.457,-55.664,36.133
1690200195.025,-9.766,-46.387,-41.016,-49.805,181.641
1690200195.029,-121.582,-47.852,-41.016,-80.078,225.098
1690200195.033,-156.250,-48.828,-42.480,-92.285,-123.047
1690200195.037,-60.547,-47.852,-42.480,-63.965,-215.820
1690200195.041,41.992,-43.457,-43.457,-22.949,-13.672
1690200195.028,25.391,-41.992,-41.016,-7.812,371.582
1690200195.032,-83.496,-40.527,-42.480,-59.570,176.758
1690200195.036,-131.348,-37.598,-44.922,-94.727,-280.273
1690200195.040,-48.828,-37.109,-38.574,-55.664,-237.793
1690200195.044,62.500,-34.668,-32.715,-2.441,-58.105
1690200195.048,61.035,-33.203,-33.691,7.324,67.871
1690200195.052,-49.316,-42.969,-42.480,-35.156,-7.812
1690200195.055,-120.605,-43.457,-42.480,-65.430,-64.453
1690200195.059,-56.641,-39.062,-35.156,-44.434,-76.172
1690200195.063,58.594,-43.457,-35.645,-5.859,-104.492
1690200195.067,63.965,-43.457,-41.016,1.465,-84.473
1690200195.071,-34.668,-44.434,-43.945,-28.809,136.230
1690200195.073,-111.816,-44.434,-42.969,-63.965,106.445
1690200195.077,-71.777,-39.551,-41.992,-61.035,-234.863
1690200195.081,42.969,-38.086,-39.551,-17.090,-145.996
1690200195.085,77.637,-36.621,-46.387,3.906,-5.859
1690200195.089,-16.113,-39.551,-44.922,-23.926,-45.410
1690200195.093,-109.375,-44.434,-40.527,-54.199,-68.359
1690200195.097,-76.172,-44.922,-42.969,-42.480,34.668
1690200195.100,44.922,-47.852,-36.133,9.766,416.504
1690200195.104,90.332,-41.504,-30.762,33.203,373.535
1690200195.108,6.836,-36.621,-32.227,-0.977,-148.926
1690200195.112,-88.867,-46.387,-35.645,-31.250,-79.102
1690200195.116,-64.453,-48.340,-38.574,-25.391,57.129
1690200195.118,46.875,-40.527,-43.457,7.812,-91.309
1690200195.122,105.469,-39.062,-36.621,30.273,-99.609
1690200195.126,39.551,-40.039,-30.273,14.648,-16.602
1690200195.130,-72.754,-48.828,-30.762,-16.602,-42.969
1690200195.134,-71.777,-57.617,-28.809,-23.438,-178.223
1690200195.138,36.133,-45.410,-34.180,17.578,-149.414
1690200195.142,100.098,-26.367,-44.922,60.547,245.605
1690200195.145,32.227,-18.066,-44.434,39.062,317.871
1690200195.149,-88.379,-22.949,-34.180,-15.625,-160.156
1690200195.153,-103.516,-29.297,-36.133,-28.809,-248.047
1690200195.157,0.977,-31.250,-41.016,2.930,-120.605
1690200195.161,87.402,-30.273,-36.621,39.551,-87.402
1690200195.163,42.480,-31.250,-34.668,28.809,-130.859
1690200195.167,-77.637,-37.598,-37.109,-23.438,-130.371
1690200195.171,-117.188,-42.969,-39.551,-54.688,-157.227
1690200195.175,-15.625,-36.133,-40.527,-25.879,-152.832
1690200195.179,72.754,-38.574,-42.969,3.418,-140.625
1690200195.183,33.691,-47.363,-46.875,-0.977,75.195
1690200195.187,-70.801,-49.805,-51.758,-29.297,278.809
1690200195.190,-125.000,-45.898,-49.805,-63.477,24.902
1690200195.194,-43.457,-40.527,-42.969,-40.527,-193.848
1690200195.198,66.406,-41.016,-43.945,11.719,-34.668
1690200195.202,59.570,-41.992,-47.363,15.137,160.156
1690200195.206,-53.223,-45.898,-43.945,-25.391,-48.340
1690200195.209,-121.582,-50.293,-39.551,-54.199,-224.609
1690200195.213,-49.316,-52.246,-40.527,-35.645,-39.062
1690200195.217,67.383,-48.340,-39.062,25.391,116.211
1690200195.221,76.660,-44.922,-37.598,36.133,-44.922
1690200195.225,-27.344,-49.316,-38.086,-6.348,-142.090
1690200195.229,-103.027,-47.363,-39.551,-30.762,-23.926
1690200195.233,-41.992,-43.457,-43.457,-19.043,88.867
1690200195.236,80.078,-39.062,-39.062,17.578,-28.809
1690200195.240,99.609,-38.086,-37.109,42.480,-160.645
1690200195.244,-2.930,-44.434,-43.457,23.438,6.348
1690200195.248,-90.332,-44.922,-48.828,-20.996,-4.883
1690200195.252,-54.688,-42.480,-47.852,-27.832,-266.113
1690200195.269,55.176,-44.434,-42.969,12.695,-151.855
1690200195.273,86.426,-41.016,-39.551,28.809,-16.602
1690200195.277,-10.254,-40.527,-41.992,-1.953,-37.598
1690200195.281,-105.957,-39.062,-42.969,-38.574,-176.270
1690200195.285,-82.031,-39.062,-39.551,-35.156,-198.730
1690200195.289,35.645,-42.480,-34.180,9.277,57.617
1690200195.293,96.680,-40.527,-34.180,36.133,119.141
1690200195.296,14.648,-41.504,-38.574,9.766,-1.465
1690200195.300,-95.703,-47.363,-39.551,-34.668,-35.645
1690200195.304,-84.473,-45.898,-38.574,-34.668,239.746
1690200195.308,39.062,-36.133,-38.086,0.000,154.785
1690200195.312,111.328,-27.832,-41.504,24.414,-140.137
1690200195.313,38.574,-27.832,-39.551,18.555,-0.977
1690200195.317,-78.125,-36.133,-39.062,-25.879,-63.965
1690200195.321,-89.844,-37.109,-42.969,-42.969,-218.750
1690200195.325,13.672,-36.133,-44.434,-0.488,-180.176
1690200195.329,92.773,-41.016,-40.039,38.086,-2.441
1690200195.333,39.062,-40.039,-38.086,15.137,117.188
1690200195.337,-77.148,-32.715,-35.645,-26.367,-4.883
1690200195.340,-105.469,-38.574,-36.621,-39.062,-101.562
1690200195.344,-16.113,-44.434,-35.156,-10.742,107.910
1690200195.348,74.219,-39.062,-35.156,32.227,337.402
1690200195.352,43.457,-35.156,-30.762,8.301,17.578
1690200195.356,-67.383,-38.086,-32.227,-37.598,-166.504
1690200195.358,-110.352,-41.504,-38.086,-44.922,-150.391
1690200195.362,-23.438,-41.992,-34.180,-17.578,-174.805
1690200195.366,80.566,-37.598,-32.227,20.508,-130.371
1690200195.370,57.617,-36.621,-34.668,17.578,-68.359
1690200195.374,-57.617,-42.480,-37.109,-23.438,-78.613
1690200195.378,-117.676,-41.992,-38.574,-47.363,-137.207
1690200195.382,-43.945,-41.992,-36.621,-28.320,-108.887
1690200195.385,65.918,-42.480,-33.203,12.207,51.270
1690200195.389,62.500,-45.898,-30.762,22.461,463.867
1690200195.393,-46.387,-42.969,-35.645,-18.555,410.156
1690200195.397,-117.188,-34.180,-36.621,-53.223,-179.199
1690200195.401,-56.641,-34.668,-32.715,-30.273,-275.391
1690200195.403,56.641,-28.809,-33.203,7.812,-124.512
1690200195.407,70.801,-25.879,-36.621,20.508,-110.352
1690200195.411,-30.762,-33.691,-41.992,-3.906,-170.898
1690200195.415,-109.863,-34.668,-42.480,-40.527,-145.996
1690200195.419,-65.918,-35.156,-41.992,-34.668,-134.766
1690200195.423,49.805,-41.504,-42.480,4.395,-56.641
1690200195.427,84.473,-45.898,-39.062,29.297,10.254
1690200195.430,-2.441,-48.828,-35.645,25.391,165.527
1690200195.434,-98.145,-45.410,-32.227,-13.184,143.555
1690200195.438,-88.379,-37.109,-35.156,-40.527,-184.082
1690200195.442,10.742,-35.645,-43.457,-15.625,-145.020
1690200195.446,59.082,-35.156,-46.875,8.301,83.008
1690200195.450,-22.949,-35.156,-48.340,-21.484,1.953
1690200195.454,-129.395,-39.062,-47.363,-70.312,-204.590
1690200195.458,-114.746,-36.621,-46.387,-72.754,-149.902
1690200195.462,5.859,-31.738,-45.410,-17.578,-34.668
1690200195.466,75.195,-32.227,-42.969,14.648,-28.809
1690200195.470,6.836,-34.668,-38.574,-19.043,-18.555
1690200195.474,-94.727,-37.598,-34.180,-53.223,33.691
1690200195.477,-95.703,-38.574,-35.156,-50.781,102.051
1690200195.481,6.348,-38.086,-38.086,-29.297,10.254
1690200195.485,87.891,-32.227,-36.621,-0.977,-111.816
1690200195.489,39.551,-32.715,-36.621,1.953,-17.090
1690200195.493,-77.637,-39.551,-39.062,-34.668,217.773
1690200195.494,-101.562,-35.645,-39.551,-56.641,20.508
1690200195.498,-1.953,-36.133,-38.574,-24.414,-182.617
1690200195.502,85.449,-36.133,-35.645,22.949,-4.395
1690200195.506,45.410,-32.227,-37.109,16.602,41.504
1690200195.510,-74.707,-33.691,-37.598,-37.109,-155.762
1690200195.514,-107.910,-32.715,-36.133,-57.129,-223.145
1690200195.518,-20.020,-33.691,-39.551,-10.254,128.418
1690200195.521,79.102,-37.109,-37.598,36.133,247.070
1690200195.525,55.664,-33.203,-37.109,12.207,-90.820
1690200195.529,-55.176,-29.785,-39.551,-23.926,-196.289
1690200195.533,-102.051,-38.086,-41.992,-46.875,-194.336
1690200195.537,-25.391,-42.480,-42.969,-27.344,-121.582
1690200195.553,82.520,-36.621,-36.621,21.973,-77.148
1690200195.557,74.219,-35.645,-34.668,37.109,-38.086
1690200195.561,-33.203,-33.691,-37.109,6.836,40.527
1690200195.565,-96.191,-33.691,-44.922,-36.621,-28.320
1690200195.569,-45.410,-41.504,-50.781,-34.668,-139.648
1690200195.573,57.129,-44.434,-48.340,6.348,-68.359
1690200195.577,70.312,-41.016,-45.898,25.391,432.129
1690200195.580,-31.738,-41.016,-49.316,-10.254,442.871
1690200195.584,-109.375,-38.086,-53.223,-54.688,-141.602
1690200195.588,-57.617,-37.109,-50.781,-41.504,-127.441
1690200195.592,50.781,-39.062,-49.316,3.906,35.645
1690200195.596,75.684,-36.621,-48.340,12.695,-112.793
1690200195.598,-23.926,-39.551,-47.363,-23.926,-211.914
1690200195.602,-119.629,-42.480,-47.852,-60.547,-165.039
1690200195.606,-76.660,-40.527,-44.434,-45.898,-143.555
1690200195.610,39.062,-41.016,-39.062,1.953,-186.035
1690200195.614,91.797,-44.434,-37.109,27.344,-111.328
1690200195.618,8.789,-44.434,-39.551,-2.930,51.758
1690200195.622,-113.281,-38.574,-43.457,-65.918,78.125
1690200195.625,-95.215,-35.156,-46.387,-69.824,20.508
1690200195.629,26.855,-31.738,-43.457,-15.137,-81.543
1690200195.633,87.402,-32.715,-41.992,19.531,148.438
1690200195.637,9.277,-37.109,-47.363,-2.930,270.508
1690200195.641,-103.516,-32.715,-44.434,-52.734,-174.316
1690200195.643,-98.633,-31.250,-41.992,-51.270,-273.926
1690200195.647,16.113,-36.133,-42.480,-1.953,-172.363
1690200195.651,93.750,-34.668,-41.016,27.832,-141.113
1690200195.655,25.391,-31.738,-39.551,4.883,-149.414
1690200195.659,-92.285,-37.598,-37.109,-40.039,-98.145
1690200195.663,-104.492,-37.109,-36.621,-57.129,-14.160
1690200195.667,-2.441,-37.109,-36.621,-18.066,34.180
1690200195.670,78.125,-42.480,-43.457,22.949,51.758
1690200195.674,31.738,-43.945,-40.527,8.789,108.398
1690200195.678,-84.961,-47.363,-38.574,-26.367,317.383
1690200195.682,-114.746,-44.434,-38.086,-38.086,179.199
1690200195.686,-11.230,-38.086,-30.273,-16.602,-211.914
1690200195.688,86.426,-35.156,-28.809,20.020,-53.711
1690200195.692,56.641,-30.762,-28.809,20.996,53.711
1690200195.696,-59.082,-30.273,-34.668,-21.973,-169.434
1690200195.700,-103.027,-27.344,-35.156,-50.781,-247.559
1690200195.704,-20.996,-27.344,-33.691,-22.461,-181.641
1690200195.708,75.195,-28.809,-37.598,20.508,-49.805
1690200195.712,66.406,-28.809,-36.133,19.531,-15.137
1690200195.715,-40.039,-27.832,-37.598,-21.973,-172.363
1690200195.719,-103.516,-27.832,-39.062,-45.410,10.742
1690200195.723,-27.344,-27.344,-38.086,-20.020,194.824
1690200195.727,74.707,-26.855,-42.480,7.812,6.348
1690200195.731,66.895,-28.320,-41.016,8.301,-62.500
1690200195.733,-37.109,-29.785,-41.016,-24.902,-55.176
1690200195.737,-123.047,-31.738,-42.969,-71.289,-125.000
1690200195.741,-67.383,-31.738,-40.039,-58.594,-238.281
1690200195.745,48.340,-32.227,-36.621,-8.301,-131.348
1690200195.749,60.059,-33.203,-39.551,6.348,-14.648
1690200195.753,-29.785,-35.645,-45.410,-24.414,38.574
1690200195.757,-114.746,-40.527,-48.340,-58.105,-25.879
1690200195.760,-72.754,-39.551,-45.410,-37.109,-12.695
1690200195.764,53.223,-40.039,-39.062,23.438,344.727
1690200195.768,84.961,-35.156,-42.969,33.203,312.500
1690200195.772,-8.789,-29.785,-44.922,-0.977,-94.727
1690200195.776,-108.398,-38.574,-40.527,-40.039,-216.309
1690200195.778,-87.402,-40.527,-38.086,-49.316,-137.207
1690200195.782,20.508,-38.086,-35.645,-14.648,-125.488
1690200195.786,65.430,-40.039,-36.621,0.000,-172.852
1690200195.790,-15.137,-43.945,-37.109,-24.902,-41.016
1690200195.794,-115.234,-41.992,-32.715,-60.059,-45.410
1690200195.798,-104.980,-38.086,-31.738,-62.012,-137.207
1690200195.802,-0.488,-41.504,-32.715,-31.738,-71.289
1690200195.805,65.430,-46.387,-36.133,3.906,211.914
1690200195.809,-4.395,-45.898,-38.574,-11.230,269.531
1690200195.813,-112.793,-39.062,-34.668,-48.828,-116.211
1690200195.817,-113.770,-37.598,-32.715,-40.039,-160.645
1690200195.821,-2.441,-39.062,-31.738,-18.555,-84.961
1690200195.823,77.148,-40.527,-37.109,2.930,-41.016
1690200195.827,18.555,-41.504,-38.574,-4.395,-60.059
1690200195.831,-89.844,-42.969,-38.574,-41.992,-124.512
1690200195.835,-100.586,-41.992,-38.574,-44.434,-29.785
1690200195.839,-3.418,-36.133,-37.598,-9.277,-58.105
1690200195.843,87.891,-35.645,-38.574,18.066,-6.348
1690200195.847,55.176,-32.715,-40.527,5.371,67.383
1690200195.850,-60.059,-34.668,-44.434,-16.113,365.234
1690200195.854,-100.098,-39.062,-47.363,-37.598,318.848
1690200195.858,-12.695,-32.227,-46.875,-21.973,-189.941
1690200195.862,91.797,-26.367,-41.016,32.715,-81.543
1690200195.866,77.637,-22.949,-35.156,41.504,-10.254
1690200195.868,-32.715,-24.902,-34.668,1.953,-203.613
1690200195.872,-88.379,-29.297,-35.156,-25.879,-226.562
1690200195.876,-20.020,-29.785,-36.133,2.930,-125.977
1690200195.880,85.449,-27.832,-37.598,43.945,-68.359
1690200195.884,79.590,-29.297,-39.062,37.109,-40.527
1690200195.888,-37.598,-31.738,-40.039,2.441,-63.965
1690200195.892,-107.422,-34.668,-42.480,-29.297,182.129
1690200195.895,-50.781,-39.062,-48.828,-30.762,329.102
1690200195.899,56.152,-35.645,-48.828,-7.324,-27.832
1690200195.903,72.266,-33.203,-47.852,0.977,-113.281
1690200195.907,-26.855,-35.156,-48.828,-29.785,-21.973
1690200195.911,-117.188,-33.691,-49.805,-68.359,-119.141
1690200195.913,-77.637,-35.645,-47.363,-55.664,-232.910
1690200195.917,35.645,-34.668,-43.457,-2.930,-138.184
1690200195.921,51.758,-33.203,-42.480,8.789,-51.270
1690200195.925,-46.387,-38.086,-43.457,-25.879,-94.238
1690200195.929,-130.371,-39.062,-45.898,-64.453,-202.148
1690200195.933,-92.773,-41.992,-43.945,-59.082,-104.980
1690200195.937,20.996,-45.410,-42.480,-11.230,187.012
1690200195.940,59.570,-42.969,-43.457,20.996,143.066
1690200195.944,-22.461,-44.434,-41.504,-20.996,22.949
1690200195.948,-125.488,-52.246,-42.969,-64.453,8.301
1690200195.952,-113.281,-53.223,-43.945,-48.828,-2.930
1690200195.956,3.906,-49.316,-42.969,-9.766,-61.523
1690200195.973,78.125,-43.457,-43.457,22.461,-106.445
1690200195.977,11.719,-43.457,-43.457,15.625,78.613
1690200195.981,-100.586,-49.316,-41.504,-26.855,209.473
1690200195.985,-102.539,-48.340,-43.945,-53.711,-67.383
1690200195.989,4.883,-47.852,-46.875,-20.020,-186.523
1690200195.993,85.938,-47.852,-45.898,14.648,-49.805
1690200195.997,34.180,-41.992,-43.457,7.324,44.922
1690200196.000,-79.590,-39.062,-41.992,-33.691,-98.633
1690200196.004,-95.215,-43.457,-42.480,-58.594,-313.965
1690200196.008,11.230,-48.828,-38.574,-4.883,-12.207
1690200196.012,99.609,-44.922,-35.645,40.039,247.559
1690200196.016,42.969,-34.180,-40.039,1.465,-43.945
1690200196.019,-89.844,-30.273,-44.434,-54.199,-169.922
1690200196.023,-123.535,-29.785,-47.852,-74.219,-98.633
1690200196.027,-23.926,-25.391,-48.340,-45.898,-107.422
1690200196.031,79.590,-18.555,-45.898,-3.906,-138.184
1690200196.035,55.664,-20.996,-48.340,2.930,-13.672
1690200196.039,-67.383,-26.367,-51.270,-33.203,50.781
1690200196.043,-121.094,-28.320,-48.828,-57.129,-118.164
1690200196.046,-31.250,-30.762,-45.410,-32.227,-107.422
1690200196.050,70.801,-27.832,-42.480,9.766,36.133
1690200196.054,52.734,-32.227,-40.527,16.602,351.562
1690200196.058,-57.617,-36.621,-41.016,-29.785,262.207
1690200196.062,-116.211,-29.785,-43.457,-66.406,-240.234
1690200196.063,-39.551,-28.809,-45.410,-41.016,-156.250
1690200196.067,71.777,-26.367,-43.945,-0.977,81.055
1690200196.071,77.637,-27.344,-39.551,8.301,-37.109
1690200196.075,-25.391,-34.180,-37.598,-22.949,-143.555
1690200196.079,-101.562,-29.297,-37.598,-53.223,-58.105
1690200196.083,-40.527,-26.855,-38.086,-28.320,3.906
1690200196.087,74.707,-23.926,-39.062,10.742,-12.695
1690200196.090,87.402,-26.367,-35.645,21.484,-68.848
1690200196.094,-12.207,-35.645,-35.645,2.441,139.648
1690200196.098,-103.516,-36.621,-39.551,-37.598,275.879
1690200196.102,-74.219,-35.156,-38.086,-42.480,-81.543
1690200196.106,42.969,-35.156,-36.621,3.906,-142.578
1690200196.108,88.867,-34.180,-37.109,31.738,-56.152
1690200196.112,-3.906,-31.738,-34.180,0.488,-87.402
1690200196.116,-108.398,-33.203,-36.133,-49.316,-166.992
1690200196.120,-88.867,-33.691,-42.480,-45.898,-145.020
1690200196.124,27.832,-29.785,-40.039,-3.906,-0.977
1690200196.128,84.961,-34.668,-40.039,12.207,51.758
1690200196.132,3.906,-36.621,-41.992,-14.160,-15.137
1690200196.135,-108.398,-37.109,-40.039,-56.641,-74.707
1690200196.139,-103.027,-41.016,-38.574,-54.688,253.906
1690200196.143,7.812,-38.574,-38.574,-12.207,286.621
1690200196.147,69.824,-37.598,-40.039,4.395,-37.109
1690200196.151,7.812,-37.598,-44.434,-13.184,-52.246
1690200196.153,-96.191,-38.086,-47.363,-48.828,-115.234
1690200196.157,-106.445,-39.551,-46.875,-58.105,-218.262
1690200196.161,-4.883,-43.457,-48.340,-30.273,-179.199
1690200196.165,73.730,-43.457,-48.828,0.488,-47.852
1690200196.169,25.879,-39.551,-47.363,-7.812,-15.137
1690200196.173,-84.473,-44.434,-45.410,-40.039,-28.320
1690200196.177,-109.375,-47.363,-40.039,-48.340,-75.684
1690200196.180,-17.090,-45.898,-32.715,-9.766,199.707
1690200196.184,71.777,-45.410,-30.273,25.391,426.758
1690200196.188,38.086,-37.598,-33.691,4.395,5.859
1690200196.192,-74.707,-37.598,-34.180,-40.039,-192.383
1690200196.196,-115.723,-47.363,-35.156,-59.082,-119.629
1690200196.198,-35.645,-43.945,-38.086,-33.203,-155.273
1690200196.202,62.500,-41.016,-36.621,5.371,-168.457
1690200196.206,50.293,-44.434,-35.156,0.488,-110.352
1690200196.210,-62.500,-43.457,-37.109,-28.320,-74.707
1690200196.214,-122.559,-42.969,-37.598,-51.270,-169.434
1690200196.218,-48.828,-45.410,-40.527,-43.457,-156.250
1690200196.222,57.617,-40.039,-40.527,-5.859,62.500
1690200196.225,54.199,-40.527,-36.133,13.672,434.570
1690200196.229,-59.570,-47.363,-37.109,-25.391,314.453
1690200196.233,-136.230,-44.922,-42.480,-72.266,-260.742
1690200196.237,-62.012,-37.109,-50.781,-46.387,-189.453
1690200196.241,77.148,-35.645,-48.828,27.832,48.828
1690200196.243,81.055,-40.039,-30.762,45.898,-112.305
1690200196.247,-43.457,-45.898,-24.414,-17.090,-169.434
1690200196.251,-134.277,-52.734,-24.414,-56.641,-134.277
1690200196.255,-90.332,-55.664,-18.066,-38.574,-148.438
1690200196.259,16.602,-61.035,-14.648,0.977,-92.285
1690200196.263,42.969,-69.336,-14.648,12.695,-35.645
1690200196.267,-40.039,-75.195,-12.695,-14.160,149.414
1690200196.270,-139.648,-81.543,-4.883,-53.711,207.520
1690200196.274,-130.371,-82.031,3.418,-69.824,-134.766
1690200196.278,-18.066,-86.426,4.883,-20.996,-167.480
1690200196.282,34.668,-92.773,6.348,10.254,-94.238
1690200196.286,-49.805,-91.797,11.230,-18.555,-86.426
1690200196.288,-151.855,-93.262,13.672,-60.059,-171.875
1690200196.292,-139.160,-94.727,17.090,-50.293,-194.336
1690200196.296,-20.020,-89.844,17.090,2.930,-8.789
1690200196.300,58.594,-81.543,10.254,30.762,18.066
1690200196.304,-1.465,-76.172,7.324,13.672,-118.652
1690200196.308,-110.840,-76.660,3.418,-24.414,-102.539
1690200196.312,-118.652,-74.707,-1.953,-22.461,124.512
1690200196.315,-22.949,-73.730,-0.977,13.184,119.629
1690200196.319,50.781,-73.730,-0.488,32.227,-79.102
1690200196.323,8.789,-67.383,0.977,32.227,-24.902
1690200196.327,-92.285,-62.500,-0.488,2.441,142.578
1690200196.331,-111.328,-60.547,-6.348,-26.367,-65.430
1690200196.334,-15.137,-61.035,-10.254,9.766,-152.344
1690200196.338,71.777,-61.035,-16.113,43.457,69.336
1690200196.342,44.434,-53.223,-18.066,30.273,44.434
1690200196.346,-70.312,-52.734,-18.555,-8.301,-154.297
1690200196.350,-112.305,-49.805,-20.508,-36.133,-255.371
1690200196.354,-20.508,-48.340,-17.578,-3.906,37.598
1690200196.358,71.777,-50.293,-21.484,39.062,231.445
1690200196.361,50.293,-45.410,-24.902,26.367,-25.879
1690200196.365,-60.547,-48.828,-27.344,-21.973,-141.113
1690200196.369,-118.164,-52.734,-35.156,-42.969,-34.180
1690200196.373,-43.457,-46.387,-38.086,-18.555,33.691
1690200196.377,60.059,-43.457,-37.598,8.789,-37.598
1690200196.393,60.547,-41.992,-36.621,11.230,-31.250
1690200196.397,-51.270,-44.922,-39.062,-26.367,-50.781
1690200196.401,-123.535,-46.875,-43.457,-63.965,-153.809
1690200196.405,-51.758,-47.363,-43.945,-41.504,-138.184
1690200196.409,61.035,-45.898,-36.621,15.137,52.734
1690200196.413,67.383,-46.875,-30.762,32.227,344.238
1690200196.417,-38.574,-53.711,-38.574,-18.555,246.094
1690200196.420,-115.234,-47.852,-41.016,-57.129,-86.914
1690200196.424,-64.453,-44.434,-38.574,-42.969,-95.215
1690200196.428,52.734,-44.434,-39.062,5.859,247.559
1690200196.432,78.613,-37.109,-40.527,17.090,152.344
1690200196.436,-20.508,-33.691,-43.945,-15.625,-167.969
1690200196.438,-103.516,-29.785,-43.457,-50.781,-185.059
1690200196.442,-69.824,-29.785,-40.527,-58.105,-248.535
1690200196.446,35.645,-31.738,-38.574,-18.555,-195.801
1690200196.450,83.984,-33.691,-39.062,17.090,-106.445
1690200196.454,-6.348,-36.621,-38.574,0.488,-115.234
1690200196.458,-108.887,-37.109,-32.715,-39.551,-173.828
1690200196.462,-82.031,-40.039,-29.785,-36.133,-149.902
1690200196.465,34.180,-38.086,-30.273,14.648,-23.438
1690200196.469,104.980,-33.203,-27.832,47.363,215.332
1690200196.473,35.645,-33.691,-27.344,19.531,283.691
1690200196.477,-74.219,-28.809,-33.691,-29.297,-93.262
1690200196.481,-76.172,-28.809,-40.527,-48.340,-261.719
1690200196.483,20.020,-32.715,-41.992,-20.508,-160.645
1690200196.487,90.820,-31.250,-40.039,16.602,-88.379
1690200196.491,25.391,-31.738,-40.527,7.324,-151.855
1690200196.495,-84.961,-37.109,-39.551,-27.344,-193.359
1690200196.499,-98.145,-36.133,-31.250,-43.945,-151.367
1690200196.503,-4.883,-33.691,-25.879,-14.648,-66.895
1690200196.507,80.078,-36.621,-30.762,31.250,-7.324
1690200196.510,41.992,-34.180,-31.738,20.020,40.039
1690200196.514,-70.801,-28.320,-31.738,-20.996,34.668
1690200196.518,-105.469,-29.297,-31.738,-41.992,-151.367
1690200196.522,-17.090,-28.809,-32.715,-28.320,-240.234
1690200196.526,73.730,-33.203,-35.645,18.066,-28.809
1690200196.528,52.246,-41.016,-34.668,30.273,424.805
1690200196.532,-58.105,-38.086,-30.273,-17.578,296.875
1690200196.536,-110.352,-39.062,-31.250,-49.316,-211.914
1690200196.540,-25.879,-42.480,-36.133,-22.461,-213.379
1690200196.544,71.289,-39.062,-36.621,16.113,-81.055
1690200196.548,60.547,-38.574,-38.574,14.160,122.559
1690200196.552,-45.410,-41.016,-37.598,-17.090,114.746
1690200196.555,-114.746,-44.434,-38.086,-40.527,126.953
1690200196.559,-45.410,-41.016,-41.016,-29.297,127.441
1690200196.563,57.617,-37.598,-42.480,2.930,-146.973
1690200196.567,53.711,-40.527,-41.992,14.648,-139.648
1690200196.571,-45.410,-46.875,-41.504,-14.160,-86.914
1690200196.573,-110.840,-46.387,-43.457,-49.805,-177.734
1690200196.577,-68.848,-45.898,-47.363,-43.945,-250.977
1690200196.581,40.039,-42.969,-44.434,-0.977,-148.926
1690200196.585,76.172,-36.621,-35.156,7.812,-3.906
1690200196.589,-20.508,-38.086,-37.109,-23.926,-60.059
1690200196.593,-104.004,-36.621,-41.992,-50.293,-86.914
1690200196.597,-59.570,-34.180,-39.062,-34.668,-9.277
1690200196.600,49.805,-35.156,-36.133,16.602,311.523
1690200196.604,78.125,-31.738,-35.156,26.855,295.898
1690200196.608,-10.742,-31.738,-36.133,-11.230,-138.672
1690200196.612,-105.469,-36.133,-38.086,-43.945,-107.910
1690200196.616,-83.984,-36.133,-36.621,-36.621,21.484
1690200196.619,19.531,-36.133,-37.598,-7.324,-105.957
1690200196.623,77.637,-37.598,-35.645,30.273,-43.457
1690200196.627,13.184,-41.504,-33.691,17.090,136.230
1690200196.631,-89.355,-41.504,-34.668,-39.062,9.766
1690200196.635,-82.520,-38.574,-33.203,-46.875,-206.543
1690200196.639,21.973,-39.062,-34.180,-6.836,-116.211
1690200196.643,86.426,-40.039,-36.133,26.855,256.348
1690200196.646,24.414,-38.574,-35.645,18.066,324.219
1690200196.650,-90.332,-38.086,-35.156,-33.691,-109.375
1690200196.654,-112.793,-46.875,-32.715,-55.664,-217.773
1690200196.658,-14.160,-51.270,-32.227,-19.531,-146.973
1690200196.662,68.848,-52.734,-31.738,17.090,-144.531
1690200196.663,19.531,-49.316,-32.227,10.742,-147.949
1690200196.667,-86.426,-50.293,-37.598,-25.391,-116.211
1690200196.671,-115.723,-51.758,-31.250,-50.781,-95.215
1690200196.675,-23.438,-48.340,-16.602,-14.648,-102.051
1690200196.679,66.895,-43.945,-14.648,27.832,36.133
1690200196.683,27.344,-44.434,-21.484,14.160,149.902
1690200196.687,-88.379,-48.340,-26.855,-24.414,313.477
1690200196.690,-129.395,-45.898,-27.344,-52.246,254.395
1690200196.694,-39.062,-44.922,-27.832,-30.762,-140.137
1690200196.698,63.965,-43.945,-28.809,16.602,-70.312
1690200196.702,52.734,-41.992,-32.227,31.738,105.469
1690200196.706,-54.199,-40.039,-32.227,-7.324,-139.648
1690200196.723,-113.281,-40.039,-27.832,-41.016,-253.418
1690200196.727,-44.922,-39.551,-32.227,-22.461,-150.391
1690200196.731,59.570,-40.039,-38.086,14.648,-86.426
1690200196.735,59.082,-43.457,-40.527,14.648,-111.816
1690200196.739,-41.992,-43.457,-39.062,-20.508,-150.879
1690200196.743,-108.398,-41.992,-39.551,-48.828,-60.547
1690200196.747,-52.734,-42.969,-41.992,-39.551,-20.020
1690200196.750,49.316,-44.922,-38.086,-3.418,-63.965
1690200196.754,69.336,-44.434,-39.551,1.465,-69.336
1690200196.758,-29.297,-48.828,-38.574,-28.809,87.891
1690200196.762,-121.582,-51.758,-40.527,-57.129,206.055
1690200196.766,-76.660,-48.828,-40.527,-57.129,-80.566
1690200196.768,40.527,-47.852,-42.969,-8.301,-116.699
1690200196.772,76.172,-44.434,-41.016,17.578,41.992
1690200196.776,-10.254,-40.527,-37.109,-12.695,-12.695
1690200196.780,-107.422,-44.434,-44.922,-54.688,-218.262
1690200196.784,-91.797,-43.457,-49.805,-61.035,-152.832
1690200196.788,22.949,-40.039,-50.293,-11.719,63.477
1690200196.792,75.195,-42.480,-52.246,21.973,115.234
1690200196.795,-9.277,-42.480,-51.758,-11.719,33.203
1690200196.799,-110.840,-44.434,-50.293,-65.430,-70.801
1690200196.803,-103.516,-50.293,-53.223,-48.340,263.672
1690200196.807,2.441,-47.852,-57.129,-5.371,353.027
1690200196.811,69.824,-41.016,-54.688,4.883,-29.785
1690200196.813,7.324,-44.922,-53.223,-6.836,-129.883
1690200196.817,-93.262,-51.270,-52.246,-40.039,-169.922
1690200196.821,-90.332,-48.340,-50.293,-44.922,-214.355
1690200196.825,1.465,-47.852,-47.852,-21.973,-169.434
1690200196.829,62.012,-50.781,-44.922,-0.488,-39.062
1690200196.833,13.672,-48.340,-43.945,0.488,52.246
1690200196.837,-85.449,-48.828,-41.504,-29.785,-26.855
1690200196.840,-105.957,-49.805,-40.039,-50.293,-206.543
1690200196.844,-10.254,-54.688,-41.992,-14.648,56.641
1690200196.848,78.125,-54.688,-40.527,20.508,286.133
1690200196.852,42.969,-46.875,-37.109,6.836,-82.031
1690200196.856,-64.941,-47.852,-39.062,-30.273,-145.508
1690200196.858,-101.562,-45.410,-40.039,-43.457,-10.742
1690200196.862,-12.695,-39.062,-36.133,-9.277,-62.500
1690200196.866,84.473,-37.598,-35.156,24.414,-145.996
1690200196.870,62.500,-35.645,-35.156,19.531,-106.445
1690200196.874,-46.875,-39.062,-37.109,-22.949,-101.074
1690200196.878,-106.934,-44.922,-41.504,-50.781,-165.039
1690200196.882,-39.062,-43.945,-45.410,-27.344,-170.410
1690200196.885,69.824,-44.434,-47.852,15.137,-67.383
1690200196.889,71.289,-48.340,-42.969,34.668,411.133
1690200196.893,-35.156,-47.363,-40.527,-11.230,340.820
1690200196.897,-107.910,-41.504,-37.598,-62.012,-154.297
1690200196.901,-40.527,-34.180,-34.668,-41.504,-114.746
1690200196.904,65.918,-32.715,-33.691,9.277,-53.223
1690200196.908,71.289,-37.109,-32.715,18.066,-120.605
1690200196.912,-33.203,-40.039,-34.180,-18.555,-113.770
1690200196.916,-115.723,-40.039,-35.156,-46.387,-41.504
1690200196.920,-65.918,-41.016,-38.574,-40.527,-60.059
1690200196.924,45.410,-38.086,-38.086,7.324,-41.016
1690200196.928,71.777,-33.691,-32.715,29.297,61.035
1690200196.931,-19.531,-37.109,-32.715,-2.441,178.223
1690200196.935,-109.863,-39.551,-35.156,-42.480,105.957
1690200196.939,-84.473,-37.109,-36.133,-47.852,-216.797
1690200196.943,31.250,-38.574,-34.180,-3.906,-157.715
1690200196.947,87.891,-37.598,-30.762,28.320,-45.898
1690200196.963,-1.465,-36.133,-34.668,0.000,-98.633
1690200196.967,-101.074,-39.062,-38.086,-40.039,-134.766
1690200196.971,-69.336,-37.109,-37.109,-28.809,-110.352
1690200196.975,34.180,-36.133,-31.738,4.395,-46.387
1690200196.979,76.660,-39.551,-23.926,18.066,-19.531
1690200196.983,-0.488,-45.898,-21.973,-5.859,4.883
1690200196.987,-103.516,-50.293,-19.531,-46.387,1.465
1690200196.990,-99.121,-53.711,-17.090,-43.457,315.430
1690200196.994,8.301,-53.223,-17.578,2.441,405.273
1690200196.998,78.125,-46.387,-18.066,24.414,-50.781
1690200197.002,20.020,-43.457,-17.578,9.277,-108.398
1690200197.006,-94.238,-45.410,-20.508,-32.715,-95.215
1690200196.993,-112.305,-46.387,-27.344,-53.711,-237.305
1690200196.997,-2.441,-48.340,-33.691,-23.926,-181.641
1690200197.001,80.566,-47.852,-34.180,16.113,-50.293
1690200197.005,32.715,-49.316,-35.156,13.184,-65.918
1690200197.009,-87.891,-47.852,-39.062,-41.016,-183.594
1690200197.013,-122.070,-42.969,-38.086,-57.129,-154.785
1690200197.017,-23.438,-44.922,-34.180,-20.508,73.730
1690200197.020,78.125,-41.504,-32.715,15.137,154.785
1690200197.024,45.898,-39.551,-36.133,11.719,-13.672
1690200197.028,-72.266,-39.551,-38.574,-32.227,-209.473
1690200197.032,-118.164,-41.016,-36.621,-48.828,-0.977
1690200197.036,-39.062,-44.434,-37.109,-15.137,259.277
1690200197.038,62.988,-42.480,-32.715,3.418,-29.785
1690200197.042,56.152,-42.480,-29.785,5.859,-130.859
1690200197.046,-53.711,-43.945,-35.156,-17.090,-91.797
1690200197.050,-115.723,-46.387,-32.715,-51.270,-174.805
1690200197.054,-45.410,-48.340,-32.715,-28.809,-157.227
1690200197.058,63.477,-48.340,-33.691,21.484,16.113
1690200197.062,69.824,-44.922,-31.738,39.062,264.648
1690200197.065,-33.203,-42.480,-35.156,9.766,112.305
1690200197.069,-111.816,-44.922,-36.621,-34.180,-238.770
1690200197.073,-54.199,-46.875,-35.645,-36.621,-112.793
1690200197.077,53.711,-51.758,-40.527,9.766,341.797
1690200197.081,61.523,-46.875,-39.551,19.043,200.684
1690200197.084,-32.715,-45.410,-37.109,-30.273,-191.406
1690200197.088,-121.094,-53.223,-41.992,-64.941,-187.012
1690200197.092,-81.543,-51.270,-40.039,-55.176,-128.418
1690200197.096,47.852,-46.875,-35.645,-8.789,-189.941
1690200197.100,83.496,-44.434,-38.086,10.742,-153.320
1690200197.104,-12.695,-47.363,-46.387,-17.578,66.895
1690200197.108,-115.234,-52.734,-47.852,-60.059,0.000
1690200197.111,-88.867,-47.363,-44.922,-60.547,-212.891
1690200197.115,20.508,-42.969,-43.457,-13.672,-221.680
1690200197.119,67.383,-47.852,-41.504,17.090,44.922
1690200197.123,-1.953,-46.387,-41.992,-4.883,101.074
1690200197.127,-101.562,-38.086,-41.504,-46.387,-197.266
1690200197.143,-95.215,-37.109,-42.969,-45.898,-146.973
1690200197.147,15.137,-41.504,-40.527,-6.836,-8.789
1690200197.151,73.730,-41.504,-38.574,16.113,29.785
1690200197.155,8.789,-40.039,-41.016,-0.977,-13.184
1690200197.159,-87.402,-40.039,-36.621,-37.598,-10.254
1690200197.163,-100.586,-41.016,-35.645,-46.387,235.352
1690200197.167,2.441,-36.621,-36.133,-10.742,131.348
1690200197.170,90.332,-36.133,-35.156,24.414,-63.477
1690200197.174,37.598,-41.504,-36.621,13.184,-41.992
1690200197.178,-76.660,-43.945,-36.621,-27.344,166.992
1690200197.182,-105.957,-42.969,-37.598,-46.875,40.527
1690200197.186,-16.113,-40.527,-38.086,-28.320,-198.730
1690200197.189,76.172,-39.551,-35.645,7.812,-56.152
1690200197.193,45.410,-35.645,-30.762,13.672,-24.902
1690200197.197,-61.035,-31.250,-29.785,-31.738,-79.102
1690200197.201,-107.422,-35.156,-36.133,-62.500,-163.574
1690200197.205,-20.996,-33.203,-33.203,-24.414,-50.781
1690200197.209,76.172,-30.762,-30.273,12.695,123.535
1690200197.213,48.828,-33.203,-34.668,8.789,119.629
1690200197.216,-65.918,-36.133,-34.668,-24.414,-64.453
1690200197.220,-124.023,-40.039,-34.180,-45.410,-23.438
1690200197.224,-46.387,-40.039,-35.645,-26.367,143.555
1690200197.228,67.871,-35.156,-33.691,11.230,-54.199
1690200197.232,67.871,-40.039,-32.715,22.949,-51.758
1690200197.233,-44.922,-41.992,-39.551,-19.043,-87.402
1690200197.237,-114.746,-40.039,-41.504,-57.617,-170.898
1690200197.241,-56.152,-40.039,-34.180,-43.945,-196.289
1690200197.245,45.410,-38.574,-35.156,-5.859,-109.375
1690200197.249,59.570,-39.551,-35.645,8.789,-8.789
1690200197.253,-33.203,-40.527,-39.062,-24.902,7.324
1690200197.257,-109.863,-43.945,-40.039,-56.641,7.812
1690200197.260,-67.383,-47.852,-36.133,-41.504,-24.902
1690200197.264,46.387,-48.828,-32.715,4.883,407.715
1690200197.268,81.543,-41.992,-32.715,24.414,502.441
1690200197.272,-15.625,-41.992,-36.621,-20.020,-56.152
1690200197.276,-110.352,-47.852,-39.062,-59.082,-191.406
1690200197.278,-75.684,-42.969,-36.133,-46.875,-170.410
1690200197.282,40.527,-38.086,-30.762,-3.906,-229.492
1690200197.286,91.309,-35.645,-26.855,13.672,-187.988
1690200197.290,3.906,-35.645,-29.297,-6.836,-73.242
1690200197.294,-102.539,-39.551,-31.250,-37.109,-108.887
1690200197.298,-95.215,-43.457,-31.250,-53.223,-153.320
1690200197.302,12.207,-42.480,-33.203,-12.695,-127.930
1690200197.305,81.055,-42.480,-30.273,32.227,192.383
1690200197.309,16.113,-44.434,-29.785,5.371,372.070
1690200197.313,-96.191,-41.016,-30.273,-46.387,-85.449
1690200197.317,-98.633,-38.086,-31.250,-41.992,-281.738
1690200197.321,13.184,-38.574,-32.227,-1.465,-138.184
1690200197.323,92.773,-37.109,-33.691,19.043,-73.730
1690200197.327,44.922,-33.203,-30.273,11.719,-118.164
1690200197.331,-73.730,-33.203,-29.297,-22.949,-116.699
1690200197.335,-109.375,-38.086,-37.109,-49.805,-134.766
1690200197.339,-8.301,-41.016,-40.039,-25.391,-141.113
1690200197.343,86.914,-35.645,-36.133,13.184,-50.293
1690200197.347,49.316,-34.180,-34.180,20.996,146.973
1690200197.350,-66.895,-39.551,-36.621,-18.066,161.621
1690200197.354,-111.328,-38.574,-38.574,-51.270,-76.172
1690200197.358,-19.043,-34.180,-38.086,-24.414,-139.648
1690200197.362,79.102,-35.645,-36.133,26.855,65.918
1690200197.366,61.035,-41.504,-36.133,40.039,404.785
1690200197.368,-58.105,-36.621,-38.574,-5.371,263.184
1690200197.372,-118.164,-34.180,-40.039,-52.734,-201.660
1690200197.376,-39.551,-37.598,-34.668,-30.762,-237.305
1690200197.380,61.523,-37.598,-35.156,7.324,-123.535
1690200197.384,60.059,-33.691,-36.133,4.883,-132.324
1690200197.388,-47.852,-33.691,-35.645,-23.438,-158.203
1690200197.392,-114.258,-47.852,-39.551,-36.621,121.094
1690200197.395,-34.180,-52.734,-35.645,-2.930,224.609
1690200197.399,74.707,-34.180,-44.434,24.414,-115.234
1690200197.403,68.848,-26.367,-55.664,6.836,-149.414
1690200197.407,-34.668,-26.855,-56.641,-29.785,-92.285
1690200197.411,-110.352,-28.809,-58.105,-62.012,-175.781
1690200197.414,-55.664,-28.809,-60.547,-55.664,-161.133
1690200197.418,62.988,-24.414,-57.617,-10.254,-66.406
1690200197.422,89.844,-26.367,-56.152,7.812,7.812
1690200197.426,-8.301,-31.738,-60.059,-26.855,-61.523
1690200197.430,-111.816,-40.039,-62.500,-59.570,-236.328
1690200197.434,-70.801,-39.062,-60.547,-41.992,-127.441
1690200197.438,58.105,-35.645,-51.758,12.207,198.730
1690200197.441,96.680,-35.156,-50.781,27.344,205.566
1690200197.445,9.766,-36.621,-48.340,-2.930,-20.020
1690200197.449,-85.449,-34.668,-41.992,-29.785,-116.211
1690200197.453,-67.383,-34.180,-41.504,-28.809,-10.742
1690200197.457,35.156,-38.086,-44.434,1.953,-84.473
1690200197.458,99.609,-38.574,-43.945,33.691,-181.641
1690200197.462,20.996,-40.527,-44.434,0.977,-98.633
1690200197.466,-95.215,-43.945,-48.340,-45.410,-98.145
1690200197.470,-88.379,-39.551,-46.387,-38.574,-143.555
1690200197.474,12.207,-35.156,-45.898,-5.371,-132.324
1690200197.478,89.355,-36.621,-43.457,23.438,170.410
1690200197.482,29.785,-38.086,-42.480,13.672,351.074
1690200197.485,-93.262,-41.016,-46.875,-36.621,-20.996
1690200197.489,-99.609,-41.992,-49.316,-46.875,-252.441
1690200197.493,8.301,-41.504,-44.922,-4.883,-22.949
1690200197.497,87.891,-38.086,-39.551,18.555,109.375
1690200197.501,45.410,-34.668,-37.598,5.859,-98.633
1690200197.518,-76.660,-38.086,-40.039,-31.250,-171.875
1690200197.522,-116.211,-42.969,-44.922,-57.129,-189.453
1690200197.526,-20.508,-41.016,-44.922,-29.785,-145.996
1690200197.530,72.754,-35.645,-45.410,6.836,-92.773
1690200197.534,41.992,-35.645,-43.945,4.395,-40.039
1690200197.538,-68.359,-41.992,-41.504,-26.367,58.594
1690200197.542,-106.934,-44.922,-43.457,-41.504,-9.766
1690200197.545,-25.391,-41.992,-41.504,-20.508,-89.355
1690200197.549,75.684,-39.551,-40.039,18.066,67.871
1690200197.553,63.477,-42.480,-43.457,30.762,416.016
1690200197.557,-44.434,-46.387,-42.969,-16.602,334.473
1690200197.561,-109.375,-40.527,-36.133,-54.199,-134.277
1690200197.563,-49.316,-36.133,-35.156,-38.086,-144.531
1690200197.567,60.547,-40.527,-41.016,-5.859,-72.266
1690200197.571,63.965,-40.527,-43.945,0.000,-147.461
1690200197.575,-44.434,-39.551,-45.410,-36.133,-173.340
1690200197.579,-118.164,-41.992,-40.527,-64.941,-168.457
1690200197.583,-57.129,-42.480,-38.574,-41.992,-59.570
1690200197.587,55.664,-40.527,-38.086,2.441,67.871
1690200197.590,68.359,-35.156,-30.762,11.719,10.742
1690200197.594,-27.344,-40.039,-33.691,-7.812,158.691
1690200197.598,-110.840,-43.945,-42.969,-40.527,275.879
1690200197.602,-75.684,-39.062,-42.969,-52.246,-104.004
1690200197.606,42.480,-35.156,-36.621,-8.301,-171.875
1690200197.608,83.496,-35.645,-32.715,15.625,-33.691
1690200197.612,-8.301,-41.016,-34.668,-12.695,-117.188
1690200197.616,-109.375,-42.480,-37.598,-49.316,-252.441
1690200197.620,-89.355,-45.898,-41.504,-46.387,-251.953
1690200197.624,26.855,-43.945,-40.039,0.977,-160.645
1690200197.628,90.820,-38.574,-36.133,34.668,-5.859
1690200197.632,10.742,-40.527,-41.504,1.465,36.621
1690200197.635,-103.027,-43.457,-43.945,-42.969,-45.410
1690200197.639,-90.332,-41.992,-42.969,-29.785,257.812
1690200197.643,14.648,-35.645,-41.504,9.766,287.109
1690200197.647,75.684,-34.668,-42.480,26.855,-0.488
1690200197.651,13.672,-49.805,-48.340,3.906,76.660
1690200197.668,-97.168,-55.176,-48.828,-42.480,-24.414
1690200197.672,-109.375,-46.387,-42.969,-54.688,-241.699
1690200197.676,1.953,-43.457,-40.039,-18.555,-176.270
1690200197.680,83.984,-40.039,-40.527,20.508,-72.266
1690200197.684,35.645,-38.086,-39.551,1.465,-78.613
1690200197.688,-76.660,-40.527,-40.039,-43.457,-105.957
1690200197.692,-110.840,-39.551,-41.016,-52.734,-118.652
1690200197.695,-15.625,-39.551,-41.016,-17.578,137.207
1690200197.699,75.684,-35.645,-41.992,18.066,292.969
1690200197.703,41.016,-33.203,-41.504,3.906,0.000
1690200197.707,-71.777,-39.062,-44.922,-36.133,-125.000
1690200197.711,-118.164,-43.457,-46.875,-51.758,-159.180
1690200197.699,-30.762,-43.945,-43.945,-25.879,-104.492
1690200197.703,74.707,-41.504,-43.457,16.113,-55.176
1690200197.707,46.875,-43.457,-42.480,16.113,-94.727
1690200197.711,-64.941,-47.363,-38.574,-21.484,-27.832
1690200197.715,-115.723,-42.969,-43.457,-44.434,-124.512
1690200197.719,-47.363,-41.016,-46.875,-27.832,-220.703
1690200197.723,55.176,-40.039,-40.527,20.020,-1.953
1690200197.726,61.523,-37.598,-35.156,32.227,197.266
1690200197.730,-44.434,-38.574,-35.645,-10.254,15.137
1690200197.734,-119.629,-39.062,-35.156,-48.340,-164.551
1690200197.738,-59.082,-37.109,-38.574,-31.738,-96.680
1690200197.742,53.223,-39.062,-38.574,20.508,284.668
1690200197.743,72.266,-34.180,-35.645,24.414,242.676
1690200197.747,-20.996,-29.297,-36.133,-15.625,-142.090
1690200197.751,-106.445,-33.691,-41.016,-55.176,-165.039
1690200197.755,-66.895,-30.273,-42.480,-45.898,-132.812
1690200197.759,39.551,-31.250,-43.945,2.930,-124.512
1690200197.763,75.684,-40.527,-41.992,18.066,-56.641
1690200197.767,-5.859,-41.992,-35.645,4.883,202.148
1690200197.770,-89.844,-38.574,-38.086,-17.578,240.234
1690200197.774,-60.059,-36.133,-41.016,-30.273,-161.621
1690200197.778,33.691,-39.551,-43.945,-6.348,-304.199
1690200197.782,61.035,-39.551,-39.062,6.348,-154.297
1690200197.786,-22.949,-33.691,-36.621,-21.973,-135.742
1690200197.788,-122.559,-33.203,-43.457,-64.941,-200.684
1690200197.792,-101.074,-39.551,-39.062,-64.453,-123.047
1690200197.796,12.695,-39.062,-38.086,-21.484,-17.578
1690200197.800,68.359,-37.598,-41.992,-2.930,-35.156
1690200197.804,3.906,-41.016,-41.016,-19.043,-134.277
1690200197.808,-105.957,-45.898,-41.992,-52.246,-29.785
1690200197.812,-113.281,-51.758,-40.527,-61.523,185.547
1690200197.815,-4.395,-49.316,-39.551,-23.438,30.273
1690200197.819,80.566,-41.992,-37.109,17.090,-0.977
1690200197.823,31.250,-39.062,-33.691,13.184,139.648
1690200197.827,-86.914,-46.875,-33.691,-16.602,303.711
1690200197.831,-116.699,-43.945,-34.180,-50.293,93.750
1690200197.833,-12.695,-37.598,-40.039,-30.762,-230.469
1690200197.837,83.496,-42.969,-41.504,17.578,-83.496
1690200197.841,46.387,-46.387,-34.180,11.719,-50.781
1690200197.845,-75.684,-40.527,-33.203,-33.691,-188.965
1690200197.849,-114.258,-36.133,-40.039,-57.617,-217.773
1690200197.853,-15.137,-40.527,-41.504,-24.414,104.492
1690200197.857,75.684,-44.434,-41.504,6.836,183.105
1690200197.860,47.852,-42.480,-41.992,-0.488,-59.570
1690200197.864,-50.781,-40.039,-39.062,-27.344,-117.188
1690200197.868,-101.562,-41.992,-35.645,-39.062,42.969
1690200197.872,-30.273,-43.945,-37.598,-19.531,121.582
1690200197.876,75.684,-37.598,-37.109,11.230,-105.469
1690200197.908,68.359,-35.156,-31.738,21.973,-154.785
1690200197.912,-38.574,-38.086,-32.715,-7.812,-128.906
1690200197.916,-115.723,-39.062,-35.645,-50.293,-131.836
1690200197.920,-57.129,-37.598,-30.762,-36.133,-155.762
1690200197.924,58.594,-32.227,-29.297,8.789,-77.637
1690200197.928,72.266,-29.297,-34.668,22.461,135.742
1690200197.932,-28.320,-37.598,-41.016,-15.625,104.004
1690200197.935,-116.699,-45.898,-43.457,-56.152,-77.637
1690200197.939,-65.430,-44.434,-42.480,-33.691,-102.051
1690200197.943,58.105,-41.504,-34.668,28.320,254.395
1690200197.947,82.031,-39.062,-31.738,41.504,331.055
1690200197.951,-16.113,-38.086,-38.086,-13.672,-47.363
1690200197.938,-115.234,-41.504,-41.016,-46.387,-128.906
1690200197.942,-88.867,-39.062,-38.574,-44.434,-61.523
1690200197.946,29.297,-38.086,-39.551,-20.508,-162.598
1690200197.950,80.566,-39.062,-41.016,5.371,-127.441
1690200197.954,-1.465,-35.645,-37.109,-7.324,-45.410
1690200197.958,-94.238,-34.668,-40.039,-46.875,-59.082
1690200197.962,-77.148,-32.715,-40.527,-45.410,-73.730
1690200197.965,36.621,-32.715,-36.133,-1.953,-81.055
1690200197.969,95.215,-35.645,-32.227,20.996,19.043
1690200197.973,11.719,-37.109,-32.715,-7.812,4.883
1690200197.977,-88.379,-35.156,-30.762,-44.434,-140.137
1690200197.981,-89.355,-35.645,-31.738,-45.898,-181.641
1690200197.983,8.301,-38.574,-38.086,0.977,126.953
1690200197.987,76.660,-30.273,-39.551,37.109,273.438
1690200197.991,17.578,-25.879,-42.969,2.930,-97.656
1690200197.995,-95.703,-37.109,-44.434,-33.691,-216.309
1690200197.999,-97.656,-46.387,-42.480,-31.738,-134.277
1690200198.003,10.742,-47.363,-44.434,-9.766,-53.223
1690200198.007,74.707,-42.969,-46.387,8.301,-28.320
1690200198.010,26.855,-42.480,-47.363,1.465,-11.230
1690200198.014,-81.055,-48.340,-48.828,-31.250,287.598
1690200198.018,-118.652,-47.852,-44.922,-57.129,199.707
1690200198.022,-30.273,-42.969,-41.992,-46.387,-181.152
1690200198.026,70.801,-42.480,-43.457,-5.859,-82.031
1690200198.028,41.504,-39.062,-40.527,3.418,-13.184
1690200198.032,-72.754,-37.598,-36.621,-39.062,-176.270
1690200198.036,-112.305,-38.574,-34.180,-62.012,-320.312
1690200198.040,-31.738,-42.969,-41.992,-22.949,-132.324
1690200198.044,69.824,-43.945,-46.387,17.090,21.484
1690200198.048,61.523,-39.062,-44.922,12.695,36.133
1690200198.052,-42.480,-35.645,-39.551,-20.020,-57.617
1690200198.055,-107.422,-36.133,-33.691,-40.527,-31.738
1690200198.059,-49.316,-40.039,-37.598,-27.344,144.531
1690200198.063,56.641,-39.062,-39.062,-1.465,-60.059
1690200198.067,66.895,-39.551,-37.109,10.254,-90.820
1690200198.071,-38.574,-41.016,-39.062,-18.066,-51.270
1690200198.073,-117.188,-41.992,-41.016,-47.852,-171.875
1690200198.077,-55.664,-33.203,-35.645,-40.039,-217.285
1690200198.081,59.082,-29.785,-37.598,1.465,-76.660
1690200198.085,77.637,-31.738,-42.969,25.879,-5.859
1690200198.089,-23.926,-36.133,-41.016,-19.531,-27.344
1690200198.093,-106.934,-41.992,-40.527,-58.105,-71.289
1690200198.097,-65.918,-40.039,-37.598,-36.133,-70.801
1690200198.100,49.805,-44.922,-38.086,20.508,411.133
1690200198.104,92.285,-45.410,-43.457,44.434,449.219
1690200198.108,13.672,-39.062,-42.969,13.672,-111.816
1690200198.112,-92.773,-47.363,-38.574,-23.438,-146.973
1690200198.116,-89.844,-50.293,-38.574,-41.016,-28.320
1690200198.118,26.855,-42.480,-39.551,-5.371,-168.457
1690200198.122,86.914,-41.504,-39.551,33.691,-137.695
1690200198.126,15.137,-39.062,-36.133,16.113,-37.109
1690200198.130,-92.285,-38.574,-31.738,-28.320,-99.609
1690200198.134,-80.566,-39.551,-35.645,-30.762,-230.469
1690200198.138,34.668,-40.527,-38.574,9.277,-181.641
1690200198.142,106.445,-45.410,-36.621,37.598,205.566
1690200198.145,47.363,-50.293,-37.598,29.297,265.625
1690200198.149,-72.754,-48.828,-37.109,-17.578,-46.387
1690200198.153,-93.262,-46.875,-36.133,-37.109,-74.707
1690200198.157,8.301,-48.340,-35.645,-1.465,41.016
1690200198.161,93.750,-41.504,-29.297,34.668,33.691
1690200198.163,46.875,-34.668,-26.855,27.832,-121.094
1690200198.167,-70.801,-32.227,-29.785,-5.859,-159.668
1690200198.171,-98.633,-34.180,-23.438,-26.855,-161.621
1690200198.175,-4.395,-42.480,-27.832,-7.324,-178.711
1690200198.179,85.449,-44.434,-35.156,29.297,-131.836
1690200198.183,51.758,-46.875,-34.668,24.414,27.832
1690200198.187,-60.059,-46.387,-35.645,-14.648,235.840
1690200198.190,-109.863,-41.992,-36.133,-41.016,42.969
1690200198.194,-34.180,-44.922,-39.551,-29.297,-209.473
1690200198.198,72.266,-43.457,-36.133,14.648,-46.387
1690200198.202,64.453,-37.598,-34.668,28.320,176.270
1690200198.206,-57.617,-41.504,-42.969,-19.531,36.133
1690200198.209,-121.582,-50.781,-45.898,-46.387,-208.496
1690200198.213,-37.109,-46.387,-38.086,-18.066,-63.477
1690200198.217,75.195,-39.551,-30.762,21.484,74.219
1690200198.221,79.590,-40.039,-31.250,19.531,-111.816
1690200198.225,-25.391,-38.574,-32.715,-21.484,-180.664
1690200198.229,-106.445,-36.133,-35.645,-51.270,-67.383
1690200198.233,-52.734,-35.156,-37.598,-39.551,44.434
1690200198.236,52.734,-34.180,-38.086,-7.812,1.465
1690200198.240,70.801,-35.156,-39.062,3.906,-112.793
1690200198.244,-32.227,-48.828,-41.016,-16.602,62.988
1690200198.248,-118.652,-54.688,-41.992,-41.016,75.195
1690200198.252,-71.777,-42.480,-43.945,-38.574,-198.242
1690200198.268,43.945,-34.668,-41.504,-3.418,-141.602
1690200198.272,77.637,-36.621,-38.574,15.625,-48.340
1690200198.276,-21.484,-39.551,-39.551,-12.695,-110.352
1690200198.280,-117.188,-36.621,-38.574,-51.270,-216.797
1690200198.284,-84.473,-37.598,-37.109,-51.270,-166.016
1690200198.288,25.879,-43.945,-40.039,-7.324,258.301
1690200198.292,72.266,-41.504,-42.480,18.066,301.758
1690200198.295,-4.883,-38.574,-42.480,2.930,-59.082
1690200198.299,-100.586,-37.109,-39.062,-21.973,-60.059
1690200198.303,-91.309,-35.156,-38.086,-46.875,-62.500
1690200198.307,12.695,-30.273,-37.109,-31.250,-76.660
1690200198.311,82.031,-26.367,-40.527,-0.488,-53.223
1690200198.313,17.090,-32.715,-47.852,-11.230,38.086
1690200198.317,-96.191,-33.691,-44.434,-39.551,208.984
1690200198.321,-100.098,-31.250,-42.480,-48.340,-56.152
1690200198.325,5.859,-32.227,-41.992,-15.625,-241.699
1690200198.329,78.125,-26.855,-40.527,19.531,-25.879
1690200198.333,16.602,-26.367,-43.945,5.371,110.352
1690200198.337,-88.867,-29.785,-41.504,-39.062,24.902
1690200198.340,-106.445,-29.785,-40.039,-62.988,-142.090
1690200198.344,-14.648,-30.762,-44.434,-26.855,50.293
1690200198.348,76.660,-26.367,-41.016,18.066,291.504
1690200198.352,41.992,-21.484,-40.527,6.836,0.977
1690200198.356,-63.965,-23.926,-42.480,-29.297,-126.953
1690200198.358,-99.609,-21.973,-36.621,-48.828,-145.996
1690200198.362,-17.090,-22.461,-37.598,-24.414,-137.695
1690200198.366,80.078,-23.438,-38.574,13.184,-25.879
1690200198.370,57.617,-24.902,-38.086,15.137,-23.438
1690200198.374,-67.871,-29.297,-39.551,-20.508,-130.371
1690200198.378,-122.070,-38.086,-40.527,-50.293,-94.727
1690200198.382,-36.621,-41.016,-38.086,-28.320,44.922
1690200198.385,61.035,-36.621,-39.551,14.648,123.535
1690200198.389,66.895,-33.691,-42.480,34.180,478.516
1690200198.393,-38.574,-32.227,-39.551,-0.488,481.445
1690200198.397,-120.605,-24.902,-40.527,-52.246,-69.336
1690200198.401,-61.523,-27.832,-39.551,-41.992,-207.031
1690200198.403,52.734,-33.691,-35.156,4.883,-112.793
1690200198.407,73.730,-30.273,-35.156,14.160,-153.809
1690200198.411,-20.508,-29.785,-36.133,-11.230,-223.633
1690200198.415,-103.516,-30.762,-35.645,-40.039,-187.500
1690200198.419,-63.477,-33.203,-33.691,-29.785,-165.527
1690200198.423,50.781,-34.668,-32.715,6.836,-36.621
1690200198.427,79.590,-29.297,-34.180,13.184,24.902
1690200198.430,-17.578,-30.273,-37.109,-6.836,86.426
1690200198.434,-107.910,-31.738,-41.504,-44.922,142.578
1690200198.438,-80.078,-35.645,-42.480,-64.941,-150.391
1690200198.442,33.203,-38.574,-40.039,-17.090,-216.309
1690200198.446,87.891,-33.691,-34.180,26.855,-27.344
1690200198.448,-4.395,-30.762,-41.504,-1.953,-19.531
1690200198.452,-107.910,-31.250,-45.410,-52.246,-211.914
1690200198.456,-73.730,-33.691,-39.062,-42.480,-203.125
1690200198.460,35.645,-38.086,-40.039,3.906,-98.145
1690200198.464,88.867,-35.156,-35.645,24.414,-87.891
1690200198.468,5.859,-34.180,-36.621,-3.906,-80.566
1690200198.472,-112.793,-37.109,-42.969,-55.176,-110.840
1690200198.475,-101.074,-39.062,-41.016,-51.758,279.297
1690200198.479,4.883,-32.227,-31.250,-7.324,315.430
1690200198.483,76.660,-23.438,-31.738,8.301,-125.000
1690200198.487,22.949,-28.320,-38.086,-6.348,-49.316
1690200198.491,-88.379,-32.715,-36.133,-41.992,6.348
1690200198.493,-101.562,-34.668,-37.598,-55.664,-118.652
1690200198.497,-10.254,-36.133,-42.969,-29.785,-189.453
1690200198.501,81.543,-38.086,-43.457,11.719,-50.293
1690200198.505,49.805,-37.598,-40.039,11.719,6.348
1690200198.509,-77.148,-33.691,-42.969,-37.109,-185.059
1690200198.513,-116.211,-37.598,-43.945,-51.758,-185.059
1690200198.517,-17.578,-43.945,-42.480,-10.742,215.332
1690200198.520,76.660,-41.016,-40.527,22.461,365.234
1690200198.524,51.758,-36.621,-34.180,5.859,-14.648
1690200198.528,-59.082,-38.574,-34.180,-31.738,-166.016
1690200198.532,-113.770,-44.434,-36.133,-49.805,-151.855
1690200198.536,-35.156,-42.480,-37.109,-17.578,-151.855
1690200198.539,71.289,-37.598,-39.062,23.926,-111.328
1690200198.543,62.500,-37.598,-37.598,28.320,-65.918
1690200198.547,-43.457,-35.156,-39.062,-13.672,-68.359
1690200198.551,-112.793,-34.180,-41.992,-57.129,-154.785
1690200198.555,-44.434,-35.156,-40.527,-37.598,-220.703
1690200198.559,72.266,-36.133,-37.109,12.207,-69.824
1690200198.563,67.383,-37.598,-34.180,31.250,379.395
1690200198.566,-47.852,-43.457,-37.109,-6.836,310.059
1690200198.570,-126.465,-46.387,-40.039,-53.223,-177.734
1690200198.574,-73.730,-46.387,-37.598,-37.109,-188.965
1690200198.578,46.387,-41.504,-36.621,22.461,97.656
1690200198.582,67.383,-33.203,-34.668,33.691,20.020
1690200198.583,-28.809,-29.785,-32.715,-3.418,-139.160
1690200198.587,-120.605,-37.598,-37.109,-43.945,-106.934
1690200198.591,-86.914,-42.480,-42.969,-44.922,-113.281
1690200198.595,36.621,-41.992,-42.969,-6.348,-93.750
1690200198.599,78.125,-41.992,-39.551,13.184,-77.148
1690200198.603,-13.184,-45.898,-39.062,-0.977,192.383
1690200198.607,-116.211,-49.805,-42.480,-42.969,259.277
1690200198.610,-94.727,-44.434,-37.598,-58.105,-87.891
1690200198.614,22.949,-37.598,-31.250,-21.484,-184.082
1690200198.618,83.008,-34.668,-30.762,21.484,67.871
1690200198.622,10.254,-33.691,-31.738,7.324,134.766
1690200198.626,-96.680,-36.621,-37.109,-46.875,-158.203
1690200198.643,-95.215,-37.598,-40.039,-47.363,-175.781
1690200198.647,12.695,-35.645,-39.551,-4.395,-87.891
1690200198.651,82.031,-35.645,-40.527,23.926,-59.570
1690200198.655,13.184,-40.039,-41.504,5.859,-77.637
1690200198.659,-97.656,-42.969,-41.992,-32.227,-111.328
1690200198.663,-106.934,-46.875,-43.945,-47.852,-25.879
1690200198.667,-7.324,-43.457,-39.062,-19.531,27.344
1690200198.670,74.219,-36.133,-35.156,15.625,36.133
1690200198.674,30.762,-37.109,-34.668,6.836,110.352
1690200198.678,-81.543,-42.969,-39.062,-29.785,235.352
1690200198.682,-118.164,-40.527,-44.434,-61.523,4.395
1690200198.686,-22.949,-37.109,-39.062,-38.086,-258.301
1690200198.688,71.289,-40.527,-37.109,16.602,-35.645
1690200198.692,39.062,-42.480,-38.086,18.555,229.492
1690200198.696,-70.312,-41.504,-37.109,-34.668,-30.273
1690200198.700,-113.281,-39.062,-38.086,-54.199,-256.836
1690200198.704,-34.668,-34.668,-39.062,-29.785,-155.273
1690200198.708,62.500,-34.180,-39.551,-1.465,6.836
1690200198.712,45.898,-36.621,-38.086,0.000,59.570
1690200198.715,-64.941,-37.598,-42.969,-36.621,-124.023
1690200198.719,-116.211,-40.527,-44.434,-50.293,-72.754
1690200198.723,-37.109,-42.480,-41.992,-27.344,198.242
1690200198.727,62.500,-40.527,-39.551,6.348,-0.488
1690200198.731,57.129,-41.016,-32.715,16.602,-79.590
1690200198.733,-45.898,-45.410,-36.621,-17.090,102.539
1690200198.737,-115.234,-42.480,-40.527,-52.246,-41.992
1690200198.741,-55.664,-38.574,-35.156,-31.738,-198.730
1690200198.745,60.059,-37.598,-35.156,12.695,-87.402
1690200198.749,74.219,-37.109,-36.621,20.508,-11.719
1690200198.753,-29.297,-39.062,-38.574,-3.906,36.621
1690200198.757,-109.375,-40.527,-41.992,-35.156,-18.066
1690200198.760,-61.035,-39.062,-36.621,-29.297,-68.359
1690200198.764,59.082,-37.598,-33.691,11.719,277.344
1690200198.768,90.332,-37.109,-36.621,29.785,316.895
1690200198.772,-7.324,-33.691,-35.156,-5.859,-111.816
1690200198.776,-96.191,-30.762,-35.156,-36.621,-198.242
1690200198.778,-71.777,-33.691,-40.039,-29.297,-91.309
1690200198.782,34.180,-37.109,-38.574,0.488,-80.566
1690200198.786,94.727,-33.691,-34.180,19.531,-131.348
1690200198.790,9.277,-39.062,-33.203,-3.418,-7.812
1690200198.794,-110.352,-41.992,-34.668,-43.457,-25.391
1690200198.798,-94.727,-47.852,-33.203,-46.875,-146.484
1690200198.802,16.113,-47.852,-33.203,-8.301,-76.660
1690200198.805,80.078,-41.992,-32.715,18.066,111.816
1690200198.809,12.695,-45.898,-32.227,3.418,185.059
1690200198.813,-109.375,-42.969,-35.645,-41.504,-168.945
1690200198.817,-114.258,-39.062,-37.598,-52.734,-280.273
1690200198.821,-5.859,-38.086,-38.574,-20.020,-165.039
1690200198.824,70.801,-38.086,-39.551,12.695,-81.543
1690200198.828,18.555,-37.598,-34.668,0.488,-115.234
1690200198.832,-91.797,-41.504,-35.156,-49.805,-129.883
1690200198.836,-114.258,-41.992,-35.645,-62.500,-41.016
1690200198.840,-17.578,-39.551,-31.250,-24.902,-68.848
1690200198.844,72.754,-45.410,-34.668,11.230,-2.441
1690200198.848,27.832,-50.781,-41.016,-5.371,9.766
1690200198.851,-80.078,-47.852,-44.922,-30.762,327.637
1690200198.855,-118.164,-42.969,-43.457,-46.387,321.289
1690200198.859,-33.691,-41.992,-39.062,-42.480,-180.664
1690200198.863,77.148,-41.504,-37.109,-0.977,-54.688
1690200198.867,59.082,-39.062,-37.109,11.230,39.062
1690200198.868,-60.059,-37.598,-40.039,-34.180,-122.070
1690200198.872,-111.816,-39.062,-42.480,-63.965,-201.172
1690200198.876,-31.738,-47.363,-41.016,-38.086,-141.113
1690200198.880,74.219,-48.340,-39.551,-1.953,-49.316
1690200198.884,74.219,-40.527,-42.969,15.625,-61.035
1690200198.888,-28.320,-41.504,-40.039,-4.883,-34.668
1690200198.892,-101.562,-47.852,-36.133,-38.574,204.102
1690200198.895,-49.805,-49.316,-38.086,-24.414,282.227
1690200198.899,67.871,-45.410,-38.574,12.695,-17.090
1690200198.903,84.961,-42.480,-35.645,26.855,-59.082
1690200198.907,-17.578,-40.039,-33.691,0.488,-6.348
1690200198.911,-102.051,-41.504,-35.156,-42.969,-91.309
1690200198.913,-63.477,-48.828,-35.645,-37.109,-210.938
1690200198.917,58.105,-49.805,-34.180,10.254,-125.000
1690200198.921,89.355,-41.992,-35.645,28.809,36.133
1690200198.925,-19.043,-41.016,-40.039,-4.883,-49.316
1690200198.929,-117.188,-43.945,-42.480,-37.598,-250.488
1690200198.933,-78.613,-41.992,-41.016,-27.832,-196.289
1690200198.937,40.039,-41.504,-38.086,6.348,254.395
1690200198.940,82.031,-41.016,-35.156,25.879,218.262
1690200198.944,-7.812,-42.480,-33.691,-10.254,-108.887
1690200198.948,-103.516,-45.898,-34.180,-53.711,-85.938
1690200198.952,-78.613,-44.434,-32.227,-37.598,195.801
1690200198.956,30.273,-37.109,-31.738,0.977,110.840
1690200198.958,93.750,-34.668,-30.762,19.531,-160.156
1690200198.962,26.855,-36.621,-34.668,3.418,-106.445
1690200198.966,-91.309,-39.551,-37.109,-35.645,-126.953
1690200198.970,-97.168,-38.574,-33.203,-42.480,-223.145
1690200198.974,14.160,-38.086,-35.645,-7.812,-180.664
1690200198.978,87.402,-40.527,-41.504,24.902,91.309
1690200198.982,29.785,-39.551,-41.992,8.301,157.715
1690200198.985,-82.031,-38.086,-39.551,-36.133,-96.191
1690200198.989,-88.379,-36.133,-37.598,-44.922,-246.094
1690200198.993,9.766,-36.133,-37.598,-6.348,20.996
1690200198.997,84.961,-37.598,-39.551,24.902,201.172
1690200199.001,40.039,-35.645,-36.133,13.672,-83.008
1690200199.018,-78.125,-36.133,-35.645,-25.391,-209.473
1690200199.022,-107.910,-41.016,-33.691,-47.852,-177.246
1690200199.026,-19.043,-45.410,-33.203,-14.160,-108.398
1690200199.030,75.195,-44.434,-36.133,11.230,-86.426
1690200199.034,52.734,-37.598,-38.574,0.000,-18.066
1690200199.038,-62.500,-36.133,-44.434,-22.949,66.406
1690200199.042,-114.746,-36.133,-42.969,-48.340,-39.062
1690200199.045,-34.668,-31.738,-39.062,-33.203,-126.465
1690200199.049,65.918,-30.273,-42.969,6.348,-53.711
1690200199.053,58.594,-33.203,-41.992,20.996,311.035
1690200199.057,-47.852,-32.227,-38.086,-14.648,248.047
1690200199.061,-112.793,-33.691,-41.992,-54.199,-255.371
1690200199.078,-42.480,-40.527,-43.945,-32.715,-148.438
1690200199.082,61.523,-40.527,-39.551,2.441,9.766
1690200199.086,65.918,-36.133,-39.551,6.348,-50.293
1690200199.090,-30.273,-36.621,-37.598,-20.508,-112.305
1690200199.094,-111.328,-42.480,-34.668,-57.617,-126.465
1690200199.098,-61.035,-46.875,-39.551,-54.199,-82.031
1690200199.102,53.711,-41.016,-41.016,-5.371,53.223
1690200199.105,66.406,-41.504,-45.898,8.789,62.988
1690200199.109,-33.691,-47.852,-49.316,-16.602,123.535
1690200199.113,-122.070,-48.828,-43.457,-52.246,207.031
1690200199.117,-75.684,-43.945,-41.504,-51.270,-52.734
1690200199.121,40.039,-43.457,-46.387,0.977,-81.055
1690200199.108,72.754,-49.316,-46.387,19.043,-38.086
1690200199.112,-15.137,-47.363,-43.945,-7.324,-44.922
1690200199.116,-106.445,-44.434,-41.016,-35.645,-135.254
1690200199.120,-80.566,-43.945,-38.086,-41.504,-133.789
1690200199.124,32.227,-42.969,-40.527,-5.859,63.965
1690200199.128,86.914,-40.039,-42.480,24.414,128.418
1690200199.132,9.766,-32.715,-39.551,11.230,15.137
1690200199.135,-105.957,-34.180,-38.086,-31.738,18.066
1690200199.139,-97.656,-39.062,-38.086,-44.922,101.562
1690200199.143,13.672,-34.180,-36.621,-14.160,-46.387
1690200199.147,80.566,-32.227,-38.086,12.207,-134.277
1690200199.151,21.973,-37.109,-38.086,13.672,-12.207
1690200199.153,-88.379,-43.945,-42.969,-19.531,268.066
1690200199.157,-97.656,-44.922,-47.852,-46.875,114.258
1690200199.161,4.395,-40.039,-45.410,-26.855,-225.098
1690200199.165,83.984,-37.598,-42.480,11.719,-126.953
1690200199.169,31.250,-34.180,-41.016,-2.441,-123.535
1690200199.173,-80.078,-36.621,-39.062,-44.922,-155.762
1690200199.177,-108.887,-41.504,-41.016,-56.152,-131.348
1690200199.180,-18.555,-41.992,-45.410,-28.809,88.867
1690200199.184,71.289,-39.062,-41.992,5.859,282.227
1690200199.188,54.199,-30.273,-41.016,8.301,-10.254
1690200199.192,-41.504,-29.297,-37.598,-14.648,-182.129
1690200199.196,-99.121,-40.527,-27.344,-38.086,-187.012
1690200199.198,-29.297,-48.340,-23.926,-19.043,-164.062
1690200199.202,78.125,-47.363,-21.484,18.555,-129.883
1690200199.206,72.754,-42.969,-23.926,29.297,-114.746
1690200199.210,-58.105,-44.434,-22.949,-20.508,-33.203
1690200199.214,-134.277,-49.316,-19.531,-62.500,-145.508
1690200199.218,-52.246,-50.781,-23.926,-25.391,-172.363
1690200199.222,55.664,-51.270,-25.391,20.020,78.613
1690200199.225,61.035,-51.270,-27.344,29.297,454.590
1690200199.229,-35.645,-48.340,-28.320,-7.324,305.664
1690200199.233,-108.398,-41.016,-27.832,-48.340,-262.695
1690200199.237,-53.711,-40.527,-28.320,-37.598,-210.449
1690200199.241,62.012,-43.945,-28.809,5.371,15.137
1690200199.243,79.590,-39.551,-26.367,22.461,-98.145
1690200199.247,-24.414,-35.156,-26.855,-17.090,-169.922
1690200199.251,-105.957,-40.039,-32.227,-45.898,-69.824
1690200199.255,-59.082,-48.340,-33.203,-26.855,-48.340
1690200199.259,57.617,-48.340,-30.273,20.508,-106.445
1690200199.263,93.750,-39.062,-32.715,46.387,16.602
1690200199.267,-5.859,-34.180,-42.480,0.977,213.867
1690200199.270,-105.957,-32.715,-48.828,-54.199,186.523
1690200199.274,-78.125,-27.832,-53.223,-54.199,-205.566
1690200199.278,46.387,-24.902,-54.688,-8.301,-203.125
1690200199.282,98.633,-20.508,-58.105,26.855,40.527
1690200199.286,7.812,-21.484,-65.430,-3.906,-45.410
1690200199.288,-95.703,-22.461,-68.848,-57.129,-262.207
1690200199.292,-72.266,-20.996,-67.383,-50.781,-256.348
1690200199.296,36.621,-20.996,-64.941,-9.277,-78.125
1690200199.300,97.168,-20.508,-60.547,10.742,-21.484
1690200199.304,35.156,-20.996,-52.246,1.953,-61.523
1690200199.308,-76.660,-23.926,-49.805,-30.273,-70.801
1690200199.312,-90.332,-29.297,-54.199,-38.574,146.484
1690200199.315,17.090,-29.785,-54.199,-12.695,162.109
1690200199.319,97.656,-27.832,-50.293,15.625,-30.762
1690200199.323,45.898,-30.762,-48.828,10.742,-6.836
1690200199.327,-68.848,-34.180,-47.363,-25.879,167.969
1690200199.331,-104.492,-34.180,-45.898,-49.316,-19.043
1690200199.334,-11.230,-36.621,-47.363,-22.949,-260.742
1690200199.338,86.914,-36.621,-43.945,17.090,8.301
1690200199.342,62.012,-28.809,-43.457,12.207,89.355
1690200199.346,-50.781,-24.414,-44.434,-32.227,-134.277
1690200199.350,-95.215,-31.250,-47.363,-52.246,-160.156
1690200199.354,-4.883,-28.809,-45.898,-14.648,22.949
1690200199.358,87.402,-26.855,-45.410,22.949,118.652
1690200199.361,63.477,-28.320,-49.316,14.160,40.527
1690200199.365,-40.039,-22.949,-47.363,-26.367,-112.793
1690200199.369,-103.516,-31.738,-46.875,-43.945,28.320
1690200199.373,-38.574,-39.551,-44.922,-25.879,130.371
1690200199.377,73.730,-30.762,-41.992,9.766,-66.895
1690200199.393,74.219,-28.809,-40.527,24.414,-79.102
1690200199.397,-33.691,-34.180,-43.457,-17.090,-84.473
1690200199.401,-104.980,-35.645,-42.969,-49.316,-171.875
1690200199.405,-41.992,-39.062,-39.062,-33.691,-128.418
1690200199.409,56.641,-41.504,-46.387,-3.418,-23.926
1690200199.413,60.547,-40.039,-45.898,7.324,237.305
1690200199.417,-40.527,-32.227,-38.574,-13.672,250.000
1690200199.420,-121.582,-29.785,-39.551,-42.969,-54.199
1690200199.424,-66.895,-37.109,-41.016,-37.109,-104.980
1690200199.428,55.176,-34.180,-36.133,12.695,220.215
1690200199.432,82.031,-23.438,-30.273,41.016,194.824
1690200199.436,-6.836,-26.367,-33.691,0.977,-174.805
1690200199.438,-92.285,-32.227,-37.598,-44.434,-226.074
1690200199.442,-70.801,-32.227,-39.551,-47.852,-222.656
1690200199.446,33.691,-30.762,-36.133,-6.348,-197.754
1690200199.450,79.590,-28.809,-33.691,23.926,-114.258
1690200199.454,-11.230,-32.715,-39.551,-17.578,-47.852
1690200199.458,-106.934,-38.086,-41.016,-54.199,-36.621
1690200199.462,-89.844,-40.039,-40.039,-48.828,-65.430
1690200199.465,8.301,-37.598,-38.574,-15.625,-60.547
1690200199.469,73.730,-40.039,-37.109,17.578,199.707
1690200199.473,-3.418,-42.480,-41.504,-5.371,398.438
1690200199.477,-104.980,-38.574,-41.504,-55.176,-0.977
1690200199.481,-93.750,-41.504,-36.621,-58.105,-261.230
1690200199.483,11.719,-41.992,-40.527,-17.578,-160.156
1690200199.487,90.332,-33.203,-38.574,14.160,-93.750
1690200199.491,29.297,-34.180,-33.691,1.953,-125.488
1690200199.495,-89.844,-41.504,-36.621,-38.574,-169.922
1690200199.499,-104.492,-41.016,-35.156,-52.246,-135.254
1690200199.503,-3.418,-41.992,-38.574,-21.973,-25.391
1690200199.507,80.566,-42.480,-42.969,15.625,74.219
1690200199.510,32.227,-39.062,-41.016,12.207,100.098
1690200199.514,-76.660,-39.551,-43.457,-29.297,27.832
1690200199.518,-109.863,-35.645,-42.969,-48.828,-115.234
1690200199.522,-24.414,-30.762,-39.551,-23.926,-177.734
1690200199.526,73.730,-30.762,-39.062,6.836,-42.969
1690200199.528,47.852,-37.109,-38.574,20.020,361.328
1690200199.532,-69.824,-39.551,-42.969,-24.902,270.508
1690200199.536,-121.094,-36.621,-45.410,-67.871,-217.773
1690200199.540,-41.504,-40.039,-44.922,-39.062,-236.328
1690200199.544,65.430,-39.551,-40.527,4.883,-112.305
1690200199.548,60.059,-39.551,-37.598,17.578,-78.125
1690200199.552,-51.270,-43.457,-37.598,-25.391,-66.895
1690200199.555,-115.723,-48.340,-39.551,-51.270,100.098
1690200199.559,-50.781,-50.781,-42.480,-26.855,177.246
1690200199.563,49.316,-47.363,-39.551,-1.465,-81.055
1690200199.567,48.340,-47.852,-41.016,-1.953,-57.617
1690200199.571,-51.270,-46.875,-41.992,-27.344,68.359
1690200199.573,-121.582,-45.410,-40.039,-56.152,-133.789
1690200199.577,-71.289,-45.410,-39.062,-56.152,-282.715
1690200199.581,46.875,-44.922,-37.109,-7.812,-171.387
1690200199.585,80.566,-46.387,-33.691,26.855,-60.059
1690200199.589,-13.672,-50.781,-30.273,3.906,-66.895
1690200199.593,-100.586,-43.457,-37.598,-33.691,-87.402
1690200199.597,-68.848,-35.156,-48.828,-37.598,-101.074
1690200199.600,45.410,-37.598,-38.086,6.348,288.086
1690200199.604,85.938,-32.715,-39.062,18.066,379.883
1690200199.608,-6.348,-23.438,-49.805,-27.344,-98.633
1690200199.612,-106.934,-22.461,-54.688,-58.594,-133.301
1690200199.616,-90.332,-17.090,-61.035,-61.035,-133.301
1690200199.619,26.367,-12.695,-60.059,-28.320,-171.875
1690200199.623,86.426,-16.113,-59.570,1.465,-123.047
1690200199.627,9.766,-13.672,-60.547,-20.508,21.484
1690200199.631,-100.098,-12.207,-59.082,-58.594,15.137
1690200199.635,-94.238,-19.043,-60.547,-65.430,-173.340
1690200199.639,21.973,-20.508,-60.059,-31.738,-149.414
1690200199.643,89.844,-19.043,-53.223,4.883,184.570
1690200199.646,13.672,-20.020,-53.223,-4.395,323.242
1690200199.650,-95.215,-21.484,-53.223,-49.316,-97.656
1690200199.654,-96.191,-25.879,-48.340,-63.965,-206.055
1690200199.658,8.301,-28.320,-48.828,-24.902,-97.656
1690200199.662,89.844,-25.879,-47.363,10.742,-38.086
1690200199.664,43.945,-24.414,-44.434,-8.301,-118.652
1690200199.668,-77.637,-36.621,-49.316,-51.758,-178.223
1690200199.672,-111.328,-44.434,-51.758,-69.336,-145.020
1690200199.676,-13.184,-40.039,-45.898,-25.391,-88.867
1690200199.680,70.312,-39.062,-44.434,13.184,-19.043
1690200199.684,40.039,-40.039,-40.527,-3.906,-6.836
1690200199.688,-61.523,-46.387,-35.645,-32.227,329.590
1690200199.691,-109.375,-41.992,-33.691,-47.852,378.906
1690200199.695,-35.156,-34.668,-34.180,-24.902,-103.027
1690200199.699,66.895,-38.086,-36.621,17.578,-85.938
1690200199.703,58.105,-37.598,-37.109,17.090,125.000
1690200199.707,-57.129,-33.203,-38.574,-19.531,-47.363
1690200199.708,-109.863,-32.227,-41.992,-49.316,-210.449
1690200199.712,-23.926,-34.180,-39.062,-22.461,-102.539
1690200199.716,74.219,-33.203,-36.621,21.484,-9.277
1690200199.720,66.895,-31.250,-41.992,7.324,-56.641
1690200199.724,-30.273,-31.250,-41.504,-22.949,-125.488
1690200199.728,-95.215,-35.645,-42.969,-43.457,1.465
1690200199.732,-41.016,-39.551,-45.898,-23.926,144.043
1690200199.735,62.012,-36.621,-48.340,19.531,80.566
1690200199.739,74.707,-36.133,-45.898,8.301,-35.645
1690200199.743,-25.879,-41.992,-40.039,-25.879,85.938
1690200199.747,-111.328,-42.969,-39.551,-50.293,178.223
1690200199.751,-53.711,-31.250,-41.016,-33.203,-116.699
1690200199.768,78.125,-31.738,-39.062,20.508,-143.066
1690200199.772,77.637,-45.410,-29.297,36.621,-40.039
1690200199.776,-48.340,-52.734,-23.438,-13.672,-106.445
1690200199.780,-146.973,-52.734,-22.461,-81.543,-209.961
1690200199.784,-121.582,-54.199,-19.531,-81.543,-186.035
1690200199.788,1.465,-55.664,-14.648,-32.227,1.953
1690200199.792,46.875,-58.105,-12.695,-13.672,87.891
1690200199.795,-51.758,-63.477,-13.184,-41.992,40.039
1690200199.799,-173.828,-73.242,-9.766,-81.055,20.996
1690200199.803,-167.480,-77.637,-11.230,-81.543,255.371
1690200199.807,-48.340,-69.824,-16.113,-43.457,282.227
1690200199.811,25.391,-62.500,-17.090,-23.438,-85.449
1690200199.813,-38.574,-67.383,-20.996,-55.664,-156.250
1690200199.817,-152.832,-67.383,-22.949,-92.285,-129.883
1690200199.821,-150.879,-63.477,-26.367,-89.844,-200.195
1690200199.825,-29.785,-61.523,-25.879,-38.574,-182.617
1690200199.829,50.293,-60.547,-19.531,1.953,-48.828
1690200199.833,-6.348,-64.453,-26.367,-7.812,10.254
1690200199.837,-110.840,-62.988,-27.832,-45.898,-48.340
1690200199.840,-119.629,-58.594,-28.320,-68.359,-203.125
1690200199.844,-13.184,-54.199,-29.785,-14.648,-18.555
1690200199.848,77.637,-53.223,-31.738,24.902,250.977
1690200199.852,30.273,-52.734,-39.551,-3.418,-44.922
1690200199.856,-84.961,-54.199,-39.551,-35.645,-119.629
1690200199.858,-115.234,-53.223,-35.645,-45.410,-44.434
1690200199.862,-30.762,-48.340,-33.691,-24.414,-83.008
1690200199.866,68.359,-45.410,-31.738,11.719,-86.426
1690200199.870,47.852,-46.875,-31.738,29.785,-84.473
1690200199.874,-61.035,-45.898,-30.273,-5.371,-30.273
1690200199.878,-99.121,-40.039,-29.785,-36.621,-40.039
1690200199.882,-21.973,-40.039,-32.715,-5.371,-84.473
1690200199.885,79.590,-42.969,-37.109,30.273,11.230
1690200199.889,73.730,-43.457,-36.133,24.414,329.102
1690200199.893,-32.715,-40.039,-32.715,-8.301,229.492
1690200199.897,-102.539,-38.574,-30.273,-38.574,-231.934
1690200199.901,-41.992,-34.668,-32.227,-21.484,-184.570
1690200199.904,65.918,-36.621,-39.062,20.996,-34.180
1690200199.908,70.801,-40.039,-37.109,21.973,-22.461
1690200199.912,-38.086,-41.504,-41.504,-27.344,-93.750
1690200199.916,-115.234,-47.363,-45.410,-60.059,-102.051
1690200199.920,-63.965,-46.387,-40.039,-45.898,-20.996
1690200199.924,52.734,-44.434,-39.551,-1.953,-50.293
1690200199.928,77.148,-48.340,-40.039,18.066,15.137
1690200199.931,-16.602,-49.316,-43.457,-11.230,166.504
1690200199.935,-100.098,-43.945,-42.480,-37.598,156.738
1690200199.939,-66.895,-37.109,-37.598,-37.109,-165.039
1690200199.943,42.969,-38.574,-38.574,-5.859,-161.133
1690200199.947,82.520,-41.504,-38.086,18.555,-23.438
1690200199.948,-7.324,-39.551,-41.992,-5.371,-86.914
1690200199.952,-108.887,-38.086,-41.992,-41.016,-206.055
1690200199.956,-91.797,-40.527,-38.086,-39.062,-218.750
1690200199.960,23.438,-41.504,-36.621,-1.953,-81.055
1690200199.964,81.055,-38.086,-30.762,20.996,72.266
1690200199.968,18.066,-39.062,-32.227,11.230,86.426
1690200199.972,-81.543,-41.504,-38.086,-25.879,-15.137
1690200199.975,-81.543,-41.504,-40.039,-28.809,290.527
1690200199.979,26.855,-40.039,-38.086,7.324,483.398
1690200199.983,87.891,-35.156,-33.203,27.344,49.805
1690200199.987,26.855,-36.133,-36.133,0.977,-131.836
1690200199.991,-88.867,-41.504,-40.039,-49.805,-179.199
1690200199.993,-95.703,-38.086,-38.086,-43.457,-303.711
1690200199.997,0.488,-36.133,-36.621,-2.930,-223.633
1690200200.001,75.195,-35.156,-34.668,28.320,-78.613
1690200200.005,42.969,-31.738,-34.180,17.090,-87.402
1690200200.009,-68.359,-34.180,-38.086,-40.039,-156.738
1690200200.013,-97.656,-39.551,-39.551,-56.152,-232.422
1690200200.017,-3.906,-39.551,-39.062,-18.066,71.777
1690200200.020,83.984,-35.156,-36.621,27.344,382.324
1690200200.024,55.664,-32.715,-34.668,25.391,-2.441
1690200200.028,-53.223,-34.180,-33.203,-7.324,-226.562
1690200200.032,-105.957,-39.062,-33.691,-23.926,-104.492
1690200200.036,-27.832,-38.574,-37.598,-12.695,-110.840
1690200200.038,86.426,-33.203,-36.133,16.602,-135.742
1690200200.042,63.965,-37.598,-36.621,14.648,4.883
1690200200.046,-57.129,-42.969,-38.574,-21.484,-18.066
1690200200.050,-104.004,-39.551,-36.621,-44.434,-159.180
1690200200.054,-39.062,-38.574,-37.598,-37.109,-173.340
1690200200.058,62.988,-43.945,-40.039,-2.441,-16.602
1690200200.062,72.266,-45.898,-38.086,20.996,378.906
1690200200.065,-25.879,-39.551,-36.621,-14.160,233.887
1690200200.069,-104.004,-40.527,-36.133,-54.688,-189.453
1690200200.073,-55.176,-42.969,-37.598,-38.086,-136.230
1690200200.077,54.688,-41.016,-33.691,3.418,187.500
1690200200.081,66.406,-38.574,-32.227,1.953,124.512
1690200200.083,-41.992,-36.133,-39.551,-26.855,-170.410
1690200200.087,-124.512,-38.574,-41.504,-51.758,-172.852
1690200200.091,-77.148,-40.039,-41.504,-45.898,-142.578
1690200200.095,40.527,-40.039,-38.574,-3.418,-134.766
1690200200.099,70.801,-41.992,-40.039,5.859,-115.723
1690200200.103,-19.531,-43.945,-40.039,-17.090,57.617
1690200200.107,-112.305,-43.945,-41.992,-50.781,137.207
1690200200.110,-91.797,-43.945,-45.410,-49.805,-98.145
1690200200.114,22.949,-42.480,-40.039,-4.395,-213.867
1690200200.118,88.867,-39.062,-36.133,27.832,52.246
1690200200.122,6.836,-38.086,-38.086,5.859,76.172
1690200200.126,-104.492,-35.156,-43.945,-38.574,-141.602
1690200200.143,-81.543,-36.621,-46.387,-39.551,-155.762
1690200200.147,35.156,-40.039,-39.551,1.953,-54.199
1690200200.151,100.586,-37.598,-33.203,26.367,-32.715
1690200200.155,24.902,-37.109,-36.133,-1.953,-149.902
1690200200.159,-91.797,-42.969,-37.109,-27.832,-104.980
1690200200.163,-95.215,-45.410,-36.621,-31.738,1.465
1690200200.167,11.719,-44.922,-43.945,-22.949,20.996
1690200200.170,90.820,-42.480,-41.992,19.531,97.656
1690200200.174,37.598,-38.574,-38.086,16.602,75.195
1690200200.178,-71.777,-43.945,-38.574,-28.809,276.367
1690200200.182,-96.191,-48.828,-37.598,-44.434,241.211
1690200200.186,-2.930,-41.016,-41.016,-28.320,-115.234
1690200200.189,92.773,-39.551,-43.457,4.395,-58.594
1690200200.193,55.176,-41.016,-39.551,9.766,-28.320
1690200200.197,-60.059,-38.086,-40.039,-35.645,-104.980
1690200200.201,-102.539,-39.551,-42.480,-63.965,-205.078
1690200200.205,-29.297,-40.527,-41.992,-24.902,-48.340
1690200200.209,58.105,-37.109,-42.969,5.371,86.914
1690200200.213,36.133,-37.598,-43.945,-10.254,-47.852
1690200200.216,-70.801,-37.109,-43.457,-37.109,-165.527
1690200200.220,-121.582,-40.039,-41.016,-49.805,-14.160
1690200200.224,-43.945,-40.039,-37.598,-32.715,167.480
1690200200.228,48.828,-34.180,-38.086,0.000,-72.266
1690200200.232,43.457,-33.691,-35.645,12.695,-104.004
1690200200.233,-49.316,-34.180,-34.180,-14.160,-65.430
1690200200.237,-125.000,-41.504,-37.598,-52.246,-138.184
1690200200.241,-76.172,-45.898,-40.527,-53.223,-178.711
1690200200.245,41.504,-45.898,-38.574,-3.418,-68.359
1690200200.249,58.594,-42.480,-39.062,13.672,71.289
1690200200.253,-44.434,-43.945,-41.992,-32.227,48.340
1690200200.257,-111.328,-45.898,-37.598,-59.082,4.395
1690200200.260,-51.758,-40.527,-35.645,-26.367,7.324
1690200200.264,58.105,-42.969,-35.156,20.020,321.777
1690200200.268,85.449,-44.434,-33.203,35.156,423.828
1690200200.272,-11.719,-43.945,-37.598,-11.230,-63.965
1690200200.276,-104.492,-46.875,-36.133,-49.805,-235.840
1690200200.278,-75.195,-43.457,-34.668,-43.945,-195.312
1690200200.282,35.645,-40.527,-33.691,0.488,-193.848
1690200200.286,75.684,-41.992,-28.320,29.785,-84.961
1690200200.290,-1.465,-48.340,-31.738,-10.742,-39.551
1690200200.294,-84.961,-46.875,-34.668,-46.387,-98.633
1690200200.298,-52.246,-38.086,-31.250,-15.625,-110.352
1690200200.302,49.805,-34.668,-27.832,20.508,-42.480
1690200200.305,83.984,-38.574,-27.344,38.574,185.059
1690200200.309,8.789,-41.992,-27.344,9.277,366.699
1690200200.313,-98.633,-41.992,-25.879,-59.082,8.301
1690200200.317,-98.145,-43.945,-21.484,-57.129,-263.184
1690200200.321,0.977,-45.898,-20.020,-1.953,-134.766
1690200200.323,69.824,-46.875,-18.066,29.297,-33.203
1690200200.327,15.137,-51.758,-15.137,13.672,-97.168
1690200200.331,-81.055,-48.340,-19.043,-6.348,-145.508
1690200200.335,-96.680,-43.457,-24.902,-22.461,-129.883
1690200200.339,-10.254,-39.551,-25.391,-17.578,-100.098
1690200200.343,81.543,-41.504,-27.832,20.020,-12.695
1690200200.347,40.039,-47.363,-32.715,13.672,-10.254
1690200200.350,-84.961,-45.898,-35.156,-32.227,328.613
1690200200.354,-107.422,-38.574,-39.062,-40.527,352.539
1690200200.358,-10.254,-38.086,-36.133,-10.742,-121.094
1690200200.362,77.148,-39.551,-35.645,24.902,-30.273
1690200200.366,51.758,-36.621,-34.668,18.066,47.363
1690200200.368,-56.641,-35.156,-38.574,-29.297,-152.344
1690200200.372,-100.098,-33.691,-43.945,-47.363,-272.949
1690200200.376,-17.090,-36.621,-40.039,-14.648,-168.945
1690200200.380,76.172,-37.598,-33.203,28.320,-59.570
1690200200.384,61.523,-37.598,-25.879,37.109,-72.754
1690200200.388,-52.246,-39.551,-29.785,-5.371,-113.770
1690200200.392,-119.141,-37.109,-35.645,-41.992,120.605
1690200200.395,-44.922,-34.180,-31.250,-9.277,236.328
1690200200.399,66.895,-30.273,-30.273,25.391,-109.863
1690200200.403,81.543,-26.367,-33.691,22.461,-153.320
1690200200.407,-17.090,-28.320,-34.668,-5.371,-106.934
1690200200.411,-95.703,-29.297,-38.086,-49.805,-183.594
1690200200.414,-53.711,-34.668,-39.551,-46.387,-165.527
1690200200.418,45.898,-37.598,-38.086,2.441,-95.703
1690200200.422,77.637,-33.203,-38.574,25.391,58.594
1690200200.426,-12.207,-34.668,-37.598,-2.930,41.992
1690200200.430,-109.375,-38.574,-41.016,-45.410,-158.691
1690200200.434,-71.777,-41.992,-45.410,-44.922,-155.273
1690200200.438,46.387,-40.039,-41.504,5.859,125.000
1690200200.441,72.754,-35.645,-36.621,33.203,171.875
1690200200.445,-22.461,-33.203,-34.668,0.977,-129.395
1690200200.449,-117.676,-38.086,-37.598,-42.969,-183.594
1690200200.453,-94.727,-39.062,-35.156,-50.781,37.109
1690200200.457,20.020,-23.438,-20.020,-5.371,-21.484
1690200200.473,78.613,-20.996,-20.020,25.879,-141.113
1690200200.477,16.602,-31.738,-37.598,-4.395,-112.305
1690200200.481,-94.238,-41.504,-47.852,-44.922,-40.039
1690200200.485,-105.469,-44.434,-39.551,-48.340,-120.117
1690200200.489,20.996,-38.086,-36.133,-14.648,-249.512
1690200200.493,105.469,-38.574,-41.504,5.859,181.641
1690200200.497,29.297,-39.551,-41.992,-7.812,476.074
1690200200.500,-87.891,-33.203,-40.527,-32.715,-14.160
1690200200.504,-104.492,-32.715,-36.621,-41.992,-260.742
1690200200.508,-2.930,-33.691,-29.785,-10.254,-115.234
1690200200.512,88.867,-30.762,-32.227,33.203,-47.852
1690200200.516,29.297,-31.250,-30.273,23.438,-107.910
1690200200.518,-93.750,-41.504,-26.855,-27.832,-143.066
1690200200.522,-114.258,-42.969,-31.250,-49.805,-173.828
1690200200.526,-12.207,-39.062,-34.180,-22.949,-159.180
1690200200.530,88.379,-29.785,-33.691,21.484,-114.258
1690200200.534,59.570,-20.508,-29.297,20.508,-88.379
1690200200.538,-60.059,-22.461,-34.180,-23.926,-27.344
1690200200.542,-90.332,-24.902,-40.527,-43.945,-99.121
1690200200.545,-0.488,-28.320,-38.574,-8.789,-115.723
1690200200.549,91.309,-31.738,-39.551,26.367,77.637
1690200200.553,64.941,-29.785,-36.621,20.020,437.500
1690200200.557,-58.594,-32.227,-35.156,-16.113,367.676
1690200200.561,-117.676,-33.203,-45.410,-46.875,-116.699
1690200200.563,-38.086,-29.297,-43.457,-25.391,-159.180
1690200200.567,64.453,-29.297,-41.504,8.789,10.254
1690200200.571,61.035,-30.762,-43.457,14.160,-29.297
1690200200.575,-32.715,-31.738,-42.480,-18.555,-111.816
1690200200.579,-107.422,-36.621,-41.504,-57.129,-119.629
1690200200.583,-69.824,-38.574,-35.645,-29.297,14.648
1690200200.587,57.129,-34.180,-34.180,19.043,87.402
1690200200.590,88.379,-31.250,-34.668,28.320,5.371
1690200200.594,-22.949,-37.598,-36.621,-7.812,119.141
1690200200.598,-103.516,-41.016,-37.598,-43.945,253.418
1690200200.602,-64.941,-39.551,-35.645,-25.391,-4.883
1690200200.606,23.926,-39.551,-41.016,1.953,-108.887
1690200200.608,60.547,-36.133,-39.551,11.719,-14.160
1690200200.612,-22.461,-38.574,-38.086,-14.160,-76.172
1690200200.616,-117.188,-46.875,-48.340,-51.758,-208.496
1690200200.620,-91.797,-49.805,-44.922,-51.758,-178.223
1690200200.624,16.113,-49.316,-35.156,-5.859,-104.004
1690200200.628,73.730,-55.176,-37.598,23.438,-51.270
1690200200.632,7.812,-56.152,-38.086,-2.930,53.711
1690200200.635,-92.773,-47.363,-32.715,-41.016,39.551
1690200200.639,-88.379,-38.086,-32.715,-37.598,207.520
1690200200.643,3.418,-40.527,-43.945,-4.395,300.293
1690200200.647,62.988,-36.133,-46.387,23.926,-0.977
1690200200.651,13.672,-32.715,-40.527,6.348,-25.391
1690200200.653,-89.355,-43.457,-41.992,-24.414,-17.578
1690200200.657,-100.586,-47.363,-44.922,-31.250,-216.797
1690200200.661,-6.836,-43.945,-45.898,-23.926,-194.824
1690200200.665,64.453,-40.039,-44.434,2.930,-35.156
1690200200.669,11.230,-41.504,-41.992,0.488,-47.363
1690200200.673,-92.773,-43.945,-41.504,-37.109,-79.102
1690200200.677,-118.164,-41.992,-41.016,-62.500,-76.660
1690200200.680,-18.555,-44.434,-39.551,-30.762,24.902
