timestamps,TP9,AF7,AF8,TP10,Right AUX
1688664946.081,-10.254,-31.250,-22.461,-33.691,39.551
1688664946.085,-21.973,-32.715,-27.344,-31.738,-172.852
1688664946.089,-39.551,-33.691,-31.738,-22.949,-228.027
1688664946.093,-40.527,-24.902,-23.926,-16.113,-83.008
1688664946.097,-22.461,-24.414,-23.438,-15.625,-7.324
1688664946.101,-29.297,-29.785,-30.762,-21.973,35.156
1688664946.105,-46.875,-28.809,-31.738,-30.273,31.738
1688664946.108,-42.969,-27.832,-26.855,-25.879,267.090
1688664946.112,-39.551,-28.320,-25.879,-22.461,338.867
1688664946.116,-23.438,-23.926,-29.785,-22.949,-88.379
1688664946.120,-13.184,-20.996,-28.809,-15.137,-147.949
1688664946.124,-21.484,-22.461,-28.320,-20.020,-84.473
1688664946.126,-28.320,-22.949,-23.926,-20.020,-145.996
1688664946.130,-31.250,-24.414,-23.438,-16.602,-188.965
1688664946.134,-26.855,-26.855,-25.879,-17.090,-92.773
1688664946.138,-34.668,-32.227,-25.879,-24.414,-49.805
1688664946.142,-30.273,-32.227,-25.391,-31.738,-103.027
1688664946.146,-12.207,-23.926,-21.484,-34.668,-70.801
1688664946.150,-20.996,-24.414,-23.926,-34.180,65.430
1688664946.153,-36.133,-36.621,-27.344,-27.832,251.953
1688664946.157,-31.738,-40.527,-24.902,-22.949,38.086
1688664946.161,-32.227,-35.156,-23.926,-28.320,-147.949
1688664946.165,-43.945,-33.691,-27.344,-32.715,-34.668
1688664946.169,-41.016,-39.062,-30.273,-30.762,59.082
1688664946.171,-39.062,-41.016,-32.715,-28.320,-86.914
1688664946.175,-33.203,-35.645,-32.227,-30.762,-222.168
1688664946.179,-21.973,-30.762,-29.297,-23.926,24.902
1688664946.183,-23.926,-29.785,-30.273,-26.855,112.793
1688664946.187,-17.578,-28.809,-28.320,-29.297,-145.508
1688664946.191,-20.508,-29.297,-33.691,-30.762,-130.859
1688664946.195,-35.156,-34.668,-37.109,-33.691,214.844
1688664946.198,-27.344,-32.227,-33.203,-25.879,219.727
1688664946.202,-24.902,-25.879,-32.715,-25.391,-213.379
1688664946.206,-33.691,-28.320,-34.180,-23.438,-235.352
1688664946.210,-24.902,-31.250,-30.762,-28.320,-50.781
1688664946.214,-16.602,-35.645,-28.320,-29.785,-33.203
1688664946.216,-29.785,-39.551,-32.715,-30.762,-160.645
1688664946.220,-27.344,-36.621,-33.203,-27.344,-82.031
1688664946.224,-27.832,-36.133,-28.320,-26.367,48.340
1688664946.228,-37.598,-39.062,-30.762,-31.250,-40.527
1688664946.232,-38.086,-39.062,-33.691,-37.109,-119.141
1688664946.236,-26.367,-36.621,-32.227,-31.738,95.703
1688664946.240,-19.531,-38.086,-35.156,-24.902,237.305
1688664946.243,-24.414,-41.504,-32.227,-30.273,-50.293
1688664946.247,-30.762,-43.945,-33.691,-37.109,-204.590
1688664946.251,-20.020,-44.434,-40.039,-34.668,-23.926
1688664946.255,-15.625,-41.992,-37.109,-27.344,44.922
1688664946.259,-23.926,-38.574,-36.133,-35.645,-27.344
1688664946.276,-24.414,-33.203,-30.273,-33.691,-54.688
1688664946.280,-30.273,-33.691,-25.879,-26.367,88.867
1688664946.284,-30.762,-34.668,-30.273,-22.949,234.863
1688664946.288,-32.227,-35.645,-34.180,-29.297,-42.480
1688664946.292,-31.250,-37.109,-33.691,-40.039,-120.605
1688664946.296,-26.367,-32.715,-30.762,-33.203,8.301
1688664946.300,-20.508,-30.762,-29.297,-29.297,-3.906
1688664946.303,-16.113,-34.668,-33.691,-31.250,-116.699
1688664946.307,-26.855,-37.598,-35.156,-37.109,-195.801
1688664946.311,-38.086,-36.133,-30.273,-38.086,24.414
1688664946.315,-42.969,-35.645,-28.320,-36.621,44.922
1688664946.319,-34.668,-33.691,-29.785,-33.691,-202.637
1688664946.321,-32.227,-36.133,-28.809,-32.715,-122.070
1688664946.325,-34.668,-38.574,-28.320,-36.133,-30.273
1688664946.329,-33.691,-37.598,-26.855,-36.133,-119.629
1688664946.333,-37.109,-38.574,-27.832,-34.668,-138.672
1688664946.337,-34.668,-33.203,-25.879,-23.926,7.324
1688664946.341,-33.203,-32.715,-26.367,-15.137,185.547
1688664946.345,-32.715,-36.621,-25.391,-17.578,122.559
1688664946.348,-29.785,-35.645,-22.461,-20.020,-95.215
1688664946.352,-20.508,-32.227,-21.484,-19.043,-35.156
1688664946.356,-28.809,-40.527,-20.020,-18.555,175.781
1688664946.360,-34.180,-45.898,-16.113,-7.324,-27.344
1688664946.364,-33.203,-30.762,-22.461,-21.484,-105.957
1688664946.382,-52.246,-24.414,-35.645,-61.035,118.164
1688664946.386,-70.312,-21.484,-37.598,-69.824,43.457
1688664946.390,-86.426,-13.184,-40.527,-83.496,-170.410
1688664946.394,-95.215,-16.113,-52.246,-98.145,-160.156
1688664946.398,-101.074,-17.578,-60.547,-115.723,-90.820
1688664946.402,-107.422,-9.277,-63.477,-135.742,-44.922
1688664946.406,-112.793,-4.883,-66.406,-145.508,-21.484
1688664946.409,-116.211,-1.465,-68.848,-150.391,-41.992
1688664946.413,-104.980,0.488,-72.754,-138.184,156.250
1688664946.417,-102.051,2.441,-69.824,-130.859,293.457
1688664946.421,-102.539,2.441,-65.918,-140.137,-80.566
1688664946.425,-80.566,-4.395,-64.941,-132.812,-155.273
1688664946.411,-59.570,-7.812,-58.105,-120.605,-19.531
1688664946.415,-63.965,-5.371,-55.176,-105.469,-129.395
1688664946.419,-73.242,-7.812,-52.734,-83.496,-215.332
1688664946.423,-57.617,-9.766,-43.457,-65.430,-75.684
1688664946.427,-47.852,-10.254,-43.457,-59.082,-79.102
1688664946.431,-49.316,-13.672,-44.922,-66.406,-91.309
1688664946.435,-27.344,-13.672,-42.480,-64.941,-53.711
1688664946.438,-15.625,-16.113,-44.434,-52.734,13.672
1688664946.442,-16.602,-17.578,-36.621,-38.574,157.227
1688664946.446,-22.461,-20.996,-31.250,-44.434,-56.152
1688664946.450,-36.133,-27.344,-38.086,-51.758,-236.816
1688664946.454,-40.039,-28.809,-41.016,-48.828,-11.719
1688664946.456,-28.320,-25.879,-40.039,-30.762,460.449
1688664946.460,-16.602,-25.879,-33.691,-19.531,249.512
1688664946.464,-4.395,-27.344,-31.738,-33.203,-248.535
1688664946.468,-8.789,-27.344,-35.156,-33.203,-234.863
1688664946.472,-31.250,-29.297,-36.133,-23.438,-113.281
1688664946.476,-38.086,-27.832,-39.551,-24.414,-101.562
1688664946.480,-19.531,-25.391,-38.574,-26.855,-147.949
1688664946.483,-21.484,-30.762,-34.668,-19.531,79.590
1688664946.487,-35.156,-41.504,-32.227,-30.273,110.840
1688664946.491,-29.297,-40.039,-32.715,-35.645,-206.543
1688664946.495,-16.113,-33.203,-33.203,-18.555,-160.645
1688664946.499,-10.254,-36.133,-31.250,-12.695,-27.344
1688664946.501,-16.113,-38.086,-30.762,-22.461,-113.770
1688664946.505,-24.414,-36.621,-30.762,-35.156,-150.879
1688664946.509,-31.738,-41.504,-37.109,-36.621,-61.035
1688664946.513,-25.879,-40.527,-38.574,-28.809,-3.906
1688664946.517,-20.020,-38.574,-30.273,-19.043,-32.227
1688664946.521,-23.438,-36.133,-26.855,-20.996,-23.926
1688664946.525,-27.832,-29.785,-21.973,-18.555,167.969
1688664946.528,-35.645,-27.832,-22.461,-19.531,282.227
1688664946.532,-21.973,-30.273,-29.785,-17.090,19.531
1688664946.536,-26.367,-28.320,-26.855,-11.230,-154.785
1688664946.540,-34.180,-23.926,-20.020,-18.066,-107.910
1688664946.544,-18.555,-22.461,-21.973,-20.508,-54.199
1688664946.547,-20.020,-23.926,-27.344,-25.879,-71.777
1688664946.551,-15.625,-24.902,-24.414,-23.438,-132.324
1688664946.555,-11.230,-25.879,-19.531,-6.836,85.938
1688664946.559,-32.227,-22.949,-19.531,-8.301,220.215
1688664946.563,-29.297,-23.438,-23.438,-21.484,-74.707
1688664946.567,-15.137,-24.414,-27.344,-24.902,-192.383
1688664946.571,-11.719,-26.855,-29.297,-29.785,158.203
1688664946.574,-15.137,-30.762,-27.832,-16.113,207.031
1688664946.578,-35.156,-31.250,-25.879,-5.371,-187.500
1688664946.582,-39.062,-31.250,-25.879,-17.090,-201.172
1688664946.586,-39.551,-36.133,-20.508,-29.785,-132.812
1688664946.590,-32.227,-38.086,-17.578,-27.832,-134.766
1688664946.591,-18.555,-25.391,-23.438,-29.785,-158.691
1688664946.595,-23.438,-19.043,-39.551,-44.434,-62.500
1688664946.599,-32.227,-20.508,-43.457,-47.852,-13.672
1688664946.603,-21.484,-14.648,-35.645,-44.434,-21.484
1688664946.607,-19.043,-14.160,-34.180,-44.434,-15.625
1688664946.611,-28.809,-19.531,-33.691,-39.551,23.926
1688664946.615,-33.691,-19.531,-32.227,-29.297,362.305
1688664946.618,-37.109,-16.113,-28.809,-23.438,200.195
1688664946.622,-26.855,-21.973,-29.785,-33.203,-197.266
1688664946.626,-24.902,-27.832,-31.250,-40.039,-151.855
1688664946.630,-18.066,-24.414,-27.832,-25.391,-159.180
1688664946.634,-2.930,-21.484,-26.367,-20.020,-141.602
1688664946.651,-6.836,-18.555,-24.902,-22.461,-105.957
1688664946.655,-21.973,-21.484,-20.996,-27.832,-31.250
1688664946.659,-30.273,-24.902,-22.949,-28.809,6.836
1688664946.663,-19.531,-22.461,-18.555,-17.090,-140.137
1688664946.667,-12.207,-24.414,-12.695,-19.043,-167.480
1688664946.671,0.000,-23.926,-16.602,-28.809,104.492
1688664946.675,-7.812,-16.602,-18.066,-24.414,127.441
1688664946.678,-16.602,-13.184,-17.090,-20.996,-47.363
1688664946.682,-17.578,-13.184,-12.207,-14.160,-114.746
1688664946.686,-12.695,-13.672,-9.766,-5.859,96.191
1688664946.690,-0.488,-15.625,-18.066,-11.719,137.695
1688664946.694,-2.930,-17.090,-22.461,-20.508,-203.125
1688664946.696,-26.367,-18.066,-20.508,-26.367,-201.660
1688664946.700,-30.762,-17.578,-27.344,-30.273,-173.340
1688664946.704,-14.160,-17.090,-28.809,-19.531,-170.410
1688664946.708,-12.695,-20.996,-28.320,-27.832,-124.023
1688664946.712,-14.160,-26.367,-33.203,-34.180,-33.691
1688664946.716,-23.926,-27.344,-33.203,-20.508,38.086
1688664946.720,-20.020,-27.344,-30.273,-24.902,18.066
1688664946.723,-8.789,-26.855,-28.320,-20.996,-47.363
1688664946.727,-23.926,-28.809,-31.738,-28.809,79.590
1688664946.731,-45.410,-34.180,-34.668,-37.109,398.438
1688664946.735,-43.945,-37.598,-31.738,-29.297,154.785
1688664946.739,-20.996,-35.156,-29.297,-32.227,-122.559
1688664946.741,-20.508,-31.738,-26.855,-25.391,108.398
1688664946.745,-26.855,-29.297,-27.344,-17.090,106.934
1688664946.749,-14.160,-26.367,-29.785,-22.461,-173.340
1688664946.753,-9.277,-23.438,-31.250,-32.227,-156.250
1688664946.757,-18.066,-26.855,-25.879,-27.344,-83.496
1688664946.761,-21.484,-27.832,-19.531,-21.484,-20.020
1688664946.765,-27.344,-24.414,-19.043,-17.578,50.293
1688664946.768,-29.297,-27.832,-15.625,-9.277,-83.008
1688664946.772,-27.832,-30.273,-14.648,-15.625,93.750
1688664946.776,-28.320,-32.715,-18.555,-16.113,140.137
1688664946.780,-28.809,-36.133,-22.949,-8.789,-184.082
1688664946.784,-37.109,-35.645,-24.902,-13.184,-78.125
1688664946.786,-38.574,-36.133,-25.879,-16.113,36.621
1688664946.790,-32.715,-39.551,-28.320,-33.691,-134.766
1688664946.794,-39.062,-40.527,-24.902,-37.598,-200.684
1688664946.798,-40.039,-36.621,-28.320,-31.250,-56.152
1688664946.802,-23.926,-36.133,-29.785,-30.273,-18.555
1688664946.806,-17.090,-34.180,-20.996,-16.602,-25.879
1688664946.810,-17.578,-30.762,-20.020,-15.137,-49.316
1688664946.813,-13.184,-31.250,-23.438,-16.602,-4.395
1688664946.817,-10.254,-32.227,-25.391,-19.531,246.582
1688664946.821,-6.348,-27.344,-22.461,-20.996,62.988
1688664946.825,-7.324,-25.879,-21.973,-15.137,-138.672
1688664946.829,-12.207,-32.715,-22.461,-21.484,23.438
1688664946.832,-29.785,-38.086,-16.113,-26.367,-16.602
1688664946.836,-44.434,-42.969,-13.672,-24.902,-102.051
1688664946.840,-38.086,-38.574,-11.230,-30.762,-86.426
1688664946.844,-26.367,-38.574,-6.836,-25.391,51.758
1688664946.848,-26.367,-44.922,-7.812,-21.973,112.793
1688664946.852,-31.738,-46.875,-9.277,-27.832,-92.285
1688664946.856,-25.391,-40.527,-5.859,-23.438,-130.859
1688664946.859,-18.555,-34.180,-8.301,-8.789,89.844
1688664946.863,-14.160,-33.203,-8.789,-3.906,138.184
1688664946.867,-20.020,-31.738,-12.695,-17.090,-168.457
1688664946.871,-27.832,-32.227,-15.137,-18.555,-186.035
1688664946.875,-17.578,-31.250,-9.766,-8.789,-132.812
1688664946.876,-6.836,-25.879,-7.812,0.977,-91.797
1688664946.880,-3.906,-23.926,-11.230,-3.906,-123.535
1688664946.884,-2.441,-25.879,-18.066,-18.066,-86.426
1688664946.888,-14.648,-27.832,-20.996,-24.902,5.371
1688664946.892,-20.508,-29.785,-25.391,-23.926,-54.688
1688664946.896,-17.578,-35.156,-28.809,-21.973,-73.730
1688664946.900,-16.113,-36.133,-25.391,-22.949,25.391
1688664946.903,-13.184,-31.738,-23.926,-26.367,305.664
1688664946.907,-14.648,-27.344,-25.879,-14.160,126.953
1688664946.911,-16.113,-28.320,-25.391,-15.137,-215.332
1688664946.915,-12.207,-30.273,-24.414,-22.949,-112.305
1688664946.919,-10.742,-33.691,-29.785,-32.227,-9.277
1688664946.922,-29.297,-39.062,-30.762,-30.762,-90.820
1688664946.926,-37.598,-37.109,-28.809,-28.809,-195.312
1688664946.930,-37.598,-30.762,-27.832,-35.645,15.625
1688664946.934,-42.969,-28.320,-29.785,-32.227,132.324
1688664946.938,-30.273,-32.227,-32.227,-27.832,-111.816
1688664946.942,-28.320,-32.715,-28.809,-30.273,-139.648
1688664946.946,-50.293,-32.227,-30.273,-32.227,220.215
1688664946.949,-34.180,-35.156,-31.738,-23.926,277.832
1688664946.953,-18.066,-37.598,-31.738,-29.297,-162.109
1688664946.957,-28.320,-40.039,-36.133,-33.203,-209.961
1688664946.961,-22.461,-35.645,-33.691,-29.785,-47.852
1688664946.965,-20.020,-31.738,-30.273,-31.250,-103.516
1688664946.966,-24.414,-33.203,-33.203,-41.992,-196.289
1688664946.970,-20.508,-33.203,-32.715,-37.598,-117.188
1688664946.974,-29.785,-32.227,-33.691,-31.738,-57.617
1688664946.978,-31.738,-33.203,-28.809,-29.297,-62.988
1688664946.982,-25.391,-32.227,-24.902,-28.809,-165.039
1688664946.986,-31.738,-28.809,-27.832,-29.297,-27.832
1688664946.990,-17.578,-26.855,-26.367,-21.484,249.512
1688664946.993,-13.184,-24.902,-24.902,-20.020,14.160
1688664946.997,-32.715,-27.832,-29.785,-37.598,-202.637
1688664947.001,-34.180,-31.738,-29.297,-28.320,17.578
1688664947.005,-23.438,-31.738,-31.250,-15.625,166.504
1688664947.009,-31.738,-30.273,-29.785,-22.461,-61.035
1688664947.026,-41.992,-27.832,-25.879,-16.113,-139.648
1688664947.030,-44.922,-27.832,-26.855,-18.555,50.781
1688664947.034,-40.039,-32.227,-23.438,-24.902,69.336
1688664947.038,-26.855,-34.668,-23.438,-24.414,-163.086
1688664947.042,-24.902,-33.203,-24.902,-16.602,-152.832
1688664947.046,-23.926,-29.785,-20.508,-20.508,3.418
1688664947.050,-24.414,-27.344,-20.020,-24.414,77.637
1688664947.053,-32.715,-25.879,-26.855,-21.973,-57.129
1688664947.057,-18.555,-25.391,-30.762,-26.367,-199.707
1688664947.061,-10.254,-23.438,-23.926,-13.672,61.523
1688664947.065,-15.625,-24.414,-20.508,-18.555,130.371
1688664947.069,-16.602,-27.344,-20.996,-32.227,-74.707
1688664947.059,-26.855,-29.785,-17.578,-26.367,-2.930
1688664947.063,-41.016,-29.785,-20.020,-28.320,53.711
1688664947.067,-32.715,-29.785,-22.949,-29.785,-21.484
1688664947.071,-18.066,-29.785,-23.438,-20.996,-112.793
1688664947.075,-25.391,-26.367,-23.926,-19.531,-68.848
1688664947.079,-20.996,-24.414,-22.949,-35.645,14.648
1688664947.083,-12.207,-24.902,-24.414,-43.457,32.227
1688664947.086,-14.160,-28.809,-25.391,-25.879,-84.473
1688664947.090,-20.996,-32.715,-24.902,-22.949,-14.648
1688664947.094,-31.738,-31.250,-29.785,-27.832,226.074
1688664947.098,-27.832,-28.320,-26.367,-22.949,-3.418
1688664947.102,-28.320,-30.273,-23.926,-31.738,-131.836
1688664947.117,-32.227,-25.879,-24.902,-20.508,-20.508
1688664947.121,-25.391,-21.973,-26.367,-20.996,-82.520
1688664947.125,-22.461,-27.832,-29.297,-37.598,-75.684
1688664947.129,-29.785,-31.738,-31.250,-31.250,-133.789
1688664947.133,-38.086,-33.691,-35.645,-32.715,49.805
1688664947.137,-42.969,-37.109,-35.645,-37.109,326.660
1688664947.141,-43.945,-35.156,-34.668,-29.297,46.875
1688664947.144,-38.574,-33.203,-29.297,-30.762,-158.203
1688664947.148,-39.551,-34.180,-23.438,-33.203,72.266
1688664947.152,-31.250,-39.062,-28.809,-32.715,104.492
1688664947.156,-32.227,-38.086,-33.691,-35.645,-190.918
1688664947.160,-38.086,-32.715,-33.203,-22.949,-140.137
1688664947.161,-33.203,-32.715,-31.738,-29.785,-103.027
1688664947.165,-35.156,-32.227,-29.297,-45.898,-108.887
1688664947.169,-36.133,-28.320,-27.832,-28.320,-139.160
1688664947.173,-33.203,-24.414,-26.367,-24.902,-113.770
1688664947.177,-20.020,-23.926,-27.344,-26.367,56.152
1688664947.181,-21.484,-25.879,-28.809,-8.301,20.508
1688664947.185,-31.250,-25.391,-29.297,-18.066,-20.508
1688664947.188,-31.250,-27.344,-29.297,-37.109,87.402
1688664947.192,-35.156,-27.832,-29.297,-34.180,307.129
1688664947.196,-33.691,-27.344,-26.367,-26.367,124.512
1688664947.200,-21.973,-26.367,-28.320,-32.227,-183.105
1688664947.204,-7.324,-28.809,-33.691,-25.879,44.434
1688664947.206,-14.648,-30.273,-31.738,-24.414,57.129
1688664947.210,-29.785,-29.297,-25.391,-22.949,-187.500
1688664947.214,-36.133,-32.227,-26.367,-14.160,-188.965
1688664947.218,-30.273,-30.762,-30.273,-20.020,-24.902
1688664947.222,-17.578,-24.414,-32.715,-25.391,-11.230
1688664947.226,-16.113,-22.461,-29.297,-25.879,-32.715
1688664947.230,-18.555,-24.902,-23.926,-22.461,-45.410
1688664947.233,-20.020,-24.414,-23.926,-15.137,172.852
1688664947.237,-18.555,-26.855,-29.297,-21.484,326.660
1688664947.241,-18.066,-34.180,-26.367,-25.391,-98.633
1688664947.245,-10.254,-34.668,-19.531,-18.555,-238.770
1688664947.249,-19.531,-34.180,-22.461,-16.602,-174.805
1688664947.251,-35.645,-37.598,-24.414,-22.461,-182.129
1688664947.255,-25.879,-34.668,-23.926,-19.531,-212.891
1688664947.259,-18.066,-32.227,-24.414,-12.695,-110.840
1688664947.263,-19.531,-31.250,-24.902,-22.949,-36.133
1688664947.267,-19.043,-26.855,-27.832,-25.879,-104.492
1688664947.271,-20.508,-28.809,-34.668,-29.785,-155.762
1688664947.275,-17.090,-28.320,-32.715,-25.879,-2.930
1688664947.278,-14.648,-25.391,-29.785,-10.742,219.727
1688664947.282,-16.113,-28.320,-30.762,-8.789,-14.648
1688664947.286,-24.414,-25.879,-25.391,-3.906,-173.340
1688664947.290,-18.066,-21.484,-20.996,-2.441,63.965
1688664947.294,-4.883,-20.020,-23.926,0.488,258.301
1688664947.297,-0.977,-21.484,-29.297,-2.441,-10.254
1688664947.301,3.906,-22.461,-34.180,-14.648,-218.750
1688664947.305,-3.906,-21.973,-36.133,-20.020,0.488
1688664947.309,-6.836,-24.414,-31.738,-22.461,81.543
1688664947.313,-23.926,-23.438,-30.273,-22.949,-86.426
1688664947.317,-26.367,-21.973,-29.785,-19.531,-67.383
1688664947.321,-20.020,-21.973,-26.855,-20.020,242.188
1688664947.324,-23.438,-23.926,-28.809,-26.855,244.141
1688664947.328,-19.043,-30.273,-29.785,-32.715,-165.527
1688664947.332,-30.273,-30.762,-30.762,-30.273,-163.086
1688664947.336,-33.691,-28.320,-28.320,-25.879,-81.055
1688664947.340,-22.461,-27.832,-27.832,-19.531,-113.281
1688664947.342,-20.020,-27.344,-31.738,-17.090,-124.512
1688664947.346,-30.273,-32.227,-33.691,-22.461,-83.984
1688664947.350,-34.180,-34.180,-31.250,-22.461,7.812
1688664947.354,-35.156,-31.250,-32.227,-15.137,-21.973
1688664947.358,-24.902,-28.320,-37.598,-18.555,-131.836
1688664947.362,-17.090,-26.855,-37.598,-27.832,-33.203
1688664947.366,-35.156,-29.297,-37.109,-32.227,368.164
1688664947.369,-41.504,-29.785,-32.715,-30.273,187.988
1688664947.373,-28.809,-27.344,-28.809,-32.227,-175.293
1688664947.377,-27.832,-27.344,-30.273,-29.297,-86.426
1688664947.381,-27.344,-27.344,-27.832,-22.949,-83.984
1688664947.385,-29.297,-26.367,-26.367,-21.973,-84.961
1688664947.402,-30.273,-28.320,-26.367,-18.066,-130.371
1688664947.406,-15.625,-25.391,-27.344,-8.789,-14.160
1688664947.410,-11.230,-18.555,-23.438,-13.184,75.684
1688664947.414,-19.043,-19.043,-21.973,-30.273,-124.512
1688664947.418,-17.578,-22.461,-22.461,-26.367,-211.914
1688664947.422,-12.207,-23.438,-21.973,-17.090,108.887
1688664947.426,-10.742,-22.949,-26.855,-10.254,266.113
1688664947.429,-13.672,-21.484,-30.762,-5.859,-105.957
1688664947.433,-15.625,-17.578,-27.344,-4.883,-206.543
1688664947.437,-22.949,-18.555,-25.391,-19.531,-103.027
1688664947.441,-24.414,-21.484,-28.320,-18.066,-125.977
1688664947.445,-11.230,-21.973,-25.879,-10.742,-172.852
1688664947.447,-7.324,-20.020,-24.414,-5.371,-122.559
1688664947.451,-8.789,-18.066,-24.414,5.859,-107.910
1688664947.455,-19.531,-20.020,-22.461,1.465,-92.285
1688664947.459,-33.691,-21.484,-28.320,-3.906,-177.246
1688664947.463,-25.879,-24.414,-32.227,-2.441,-156.250
1688664947.467,-19.531,-24.902,-26.367,-14.160,8.789
1688664947.471,-21.973,-22.949,-24.902,-20.508,43.457
1688664947.474,-24.902,-24.902,-26.855,-17.090,-8.301
1688664947.478,-33.203,-24.902,-26.855,-20.508,8.301
1688664947.482,-22.461,-19.043,-30.762,-25.391,294.922
1688664947.486,-5.859,-20.508,-30.273,-23.926,116.211
1688664947.490,-16.602,-20.996,-30.762,-30.762,-119.629
1688664947.492,-37.109,-16.602,-27.832,-26.367,152.344
1688664947.496,-31.738,-15.137,-24.902,-24.414,125.000
1688664947.500,-12.695,-17.090,-24.902,-35.645,-96.191
1688664947.504,-18.066,-18.066,-27.832,-30.273,-105.957
1688664947.508,-21.973,-15.137,-25.879,-20.508,-49.805
1688664947.512,-21.484,-15.137,-21.973,-14.648,8.789
1688664947.516,-31.250,-20.508,-26.367,-12.695,25.879
1688664947.519,-25.879,-25.879,-27.344,-13.672,-54.688
1688664947.523,-31.738,-20.996,-23.438,-18.066,156.250
1688664947.527,-37.109,-12.207,-21.484,-25.879,317.871
1688664947.531,-38.574,-10.742,-22.949,-32.715,-39.062
1688664947.535,-37.109,-13.184,-20.996,-40.039,-157.715
1688664947.536,-34.668,-15.137,-19.043,-40.039,-103.516
1688664947.540,-39.062,-17.578,-25.391,-34.668,-108.887
1688664947.544,-27.344,-16.113,-24.414,-30.762,-113.770
1688664947.548,-26.367,-9.766,-20.996,-32.227,-78.125
1688664947.552,-21.484,-10.254,-24.414,-38.086,-51.270
1688664947.556,-27.344,-13.184,-27.832,-35.645,-41.016
1688664947.560,-25.879,-10.742,-24.902,-25.391,-5.859
1688664947.563,-15.137,-11.230,-22.461,-20.996,114.258
1688664947.567,-27.832,-9.277,-20.996,-28.809,125.977
1688664947.571,-40.527,-11.230,-17.578,-37.109,-73.730
1688664947.575,-38.086,-8.789,-17.090,-30.762,-128.418
1688664947.579,-28.809,0.488,-14.648,-26.367,85.938
1688664947.581,-27.344,1.465,-14.160,-25.391,464.844
1688664947.585,-25.391,-1.953,-16.602,-27.832,182.129
1688664947.589,-18.066,-9.277,-22.949,-31.250,-229.980
1688664947.593,-21.484,-14.648,-23.438,-28.320,-167.480
1688664947.597,-20.020,-19.531,-26.367,-21.973,-122.559
1688664947.601,-25.391,-18.555,-31.738,-23.926,-97.656
1688664947.605,-30.273,-15.137,-27.832,-38.086,-49.316
1688664947.608,-26.855,-13.672,-26.367,-42.480,113.281
1688664947.612,-24.414,-11.230,-26.367,-32.715,117.676
1688664947.616,-19.531,-8.789,-24.902,-20.996,-174.316
1688664947.620,-14.648,-7.812,-21.484,-22.949,-162.109
1688664947.624,-19.043,-5.371,-15.137,-27.344,-100.098
1688664947.628,-28.320,-8.301,-20.020,-28.809,-86.426
1688664947.632,-21.973,-9.277,-24.902,-19.531,-132.324
1688664947.636,-22.949,-11.719,-21.973,-12.207,-95.703
1688664947.640,-31.250,-11.230,-21.973,-20.020,55.176
1688664947.644,-27.832,-6.836,-22.949,-22.461,-93.750
1688664947.648,-23.926,-5.371,-23.926,-13.184,-136.230
1688664947.652,-26.367,1.953,-20.508,-8.301,62.500
1688664947.655,-26.367,2.441,-21.484,-14.648,238.770
1688664947.659,-16.602,-1.953,-21.484,-18.555,3.906
1688664947.663,-13.672,-0.977,-21.484,-18.066,-187.012
1688664947.667,-27.344,-2.930,-19.531,-21.484,-133.301
1688664947.671,-29.785,-7.324,-19.531,-24.902,-125.488
1688664947.671,-18.555,-9.277,-26.855,-22.461,-129.883
1688664947.675,-11.719,-10.742,-29.297,-24.902,-198.242
1688664947.679,-11.719,-10.254,-30.273,-23.438,-3.906
1688664947.683,-16.113,-9.766,-26.367,-24.414,90.820
1688664947.687,-36.621,-12.207,-26.855,-20.508,-124.023
1688664947.691,-51.270,-15.137,-33.203,-27.344,-105.469
1688664947.695,-24.414,-11.230,-31.738,-18.066,254.883
1688664947.698,-20.996,-11.230,-27.832,-5.859,377.930
1688664947.702,-31.250,-14.648,-24.902,-19.043,-63.965
1688664947.706,-21.484,-13.184,-23.926,-19.043,-212.891
1688664947.710,-9.766,-10.742,-23.438,-15.137,-163.574
1688664947.714,-11.230,-14.160,-23.926,-9.766,-128.418
1688664947.716,0.488,-13.672,-23.926,-12.695,-145.508
1688664947.720,-4.395,-9.277,-21.484,-19.531,-126.953
1688664947.724,-48.828,-10.254,-24.414,-20.508,-86.426
1688664947.728,-38.086,-6.348,-26.367,-11.230,-103.027
1688664947.732,-12.207,-6.348,-25.391,-14.648,-114.746
1688664947.736,-26.367,-8.301,-28.320,-27.344,70.801
1688664947.740,-43.945,-5.859,-27.832,-41.016,271.973
1688664947.743,-42.480,-6.836,-22.461,-38.574,56.641
1688664947.747,-29.785,-11.230,-21.973,-15.137,-154.297
1688664947.751,-17.578,-16.602,-24.414,-17.578,-12.695
1688664947.755,-17.578,-13.184,-20.996,-29.297,197.266
1688664947.759,-30.762,-12.695,-20.020,-30.762,56.641
1688664947.776,-36.621,-11.719,-19.531,-29.297,-102.539
1688664947.780,-36.133,-7.324,-18.066,-18.555,4.395
1688664947.784,-27.344,-2.930,-22.949,-7.812,82.031
1688664947.788,-17.578,0.000,-27.344,-19.043,-99.121
1688664947.792,-30.273,-3.418,-24.414,-20.508,-148.926
1688664947.796,-37.598,0.977,-18.555,-13.184,57.129
1688664947.800,-30.273,3.906,-16.602,-14.160,74.707
1688664947.803,-24.414,0.000,-14.648,-9.277,-100.586
1688664947.807,-16.602,1.465,-11.230,-10.742,-119.629
1688664947.811,-5.859,5.371,-12.695,-5.859,155.273
1688664947.815,-11.230,2.930,-13.672,1.465,208.008
1688664947.819,-26.367,-1.465,-13.672,-7.812,-171.875
1688664947.821,-25.879,3.906,-14.160,-10.742,-197.754
1688664947.825,-11.230,7.324,-11.719,-2.930,-136.719
1688664947.829,-2.930,6.836,-12.695,-8.301,-132.324
1688664947.833,-10.254,6.348,-18.066,-10.254,-192.871
1688664947.837,-12.695,2.441,-18.066,-9.766,-134.766
1688664947.841,-5.859,3.418,-12.207,-12.695,-12.695
1688664947.845,3.418,4.395,-14.648,-5.371,-62.988
1688664947.848,12.695,4.883,-16.602,0.000,-146.484
1688664947.852,4.395,4.883,-16.113,-10.742,-6.348
1688664947.856,-12.695,1.465,-16.113,-8.301,176.270
1688664947.860,-18.555,4.883,-13.184,3.418,5.859
1688664947.864,-9.766,5.371,-14.648,6.836,-77.148
1688664947.866,-16.113,-1.953,-20.020,-7.812,104.492
1688664947.870,-16.602,3.418,-19.043,-11.230,237.305
1688664947.874,-0.977,10.742,-14.648,-3.906,-28.809
1688664947.878,-6.836,10.254,-14.160,-0.488,-211.914
1688664947.882,-16.602,11.230,-19.043,-11.719,-155.273
1688664947.886,-10.254,6.348,-25.879,-17.578,-101.074
1688664947.890,-24.414,3.906,-24.414,-21.484,-50.293
1688664947.893,-27.832,6.348,-18.555,-18.066,-171.875
1688664947.897,-21.484,5.859,-15.625,-3.418,34.668
1688664947.901,-27.344,1.953,-10.742,-5.859,165.527
1688664947.905,-17.578,-3.418,-16.113,-13.672,-181.152
1688664947.909,-17.090,-3.906,-23.438,-11.719,-183.594
1688664947.911,-17.578,-0.977,-21.484,-6.348,-102.539
1688664947.915,-14.160,-1.953,-22.461,-11.719,-78.125
1688664947.919,-10.742,-4.395,-26.367,-11.230,-68.359
1688664947.923,-8.301,-4.395,-22.949,-7.812,-19.531
1688664947.927,-2.441,-2.930,-22.949,-7.324,41.992
1688664947.931,-9.277,-2.441,-27.344,-9.277,-0.977
1688664947.935,-7.324,0.977,-21.973,-15.625,-48.828
1688664947.938,-9.277,1.953,-18.555,-15.625,29.785
1688664947.942,-11.719,1.465,-14.648,3.906,214.844
1688664947.946,-7.324,6.348,-17.090,8.301,-10.254
1688664947.950,-7.812,8.301,-23.926,-11.719,-237.305
1688664947.954,-13.184,9.766,-21.973,-12.695,30.273
1688664947.956,-18.555,13.184,-22.949,-5.859,246.582
1688664947.960,-15.625,16.602,-24.902,-4.395,-38.086
1688664947.964,-7.324,14.648,-21.973,10.742,-184.082
1688664947.968,-4.395,7.812,-17.578,19.043,11.230
1688664947.972,2.930,12.695,-16.113,-1.465,-29.785
1688664947.976,-13.672,16.113,-33.203,-21.973,-146.484
1688664947.980,-36.621,10.742,-33.691,-27.832,-64.941
1688664947.983,-55.176,4.883,-26.855,-30.273,135.254
1688664947.987,-65.918,1.953,-28.809,-41.504,226.074
1688664947.991,-63.965,4.883,-29.785,-63.477,-169.922
1688664947.995,-64.941,0.977,-29.785,-66.895,-163.086
1688664947.999,-65.918,-2.441,-36.133,-70.801,-30.762
1688664948.002,-82.520,-0.488,-44.922,-85.938,-117.676
1688664948.006,-108.887,1.465,-42.969,-100.098,-167.480
1688664948.010,-128.418,7.324,-48.828,-106.934,-90.820
1688664948.014,-122.559,7.812,-60.547,-115.234,-26.855
1688664948.018,-119.629,9.277,-65.430,-130.859,-50.781
1688664948.022,-112.793,18.555,-65.430,-137.695,-16.602
1688664948.026,-120.117,19.043,-70.801,-143.066,90.820
1688664948.029,-141.602,16.602,-74.707,-163.574,361.816
1688664948.033,-134.277,14.160,-70.801,-161.621,203.125
1688664948.037,-105.469,12.695,-65.918,-143.555,-151.855
1688664948.041,-84.961,12.695,-65.918,-136.719,-127.441
1688664948.045,-92.773,8.789,-63.477,-129.883,-15.137
1688664948.046,-91.309,11.230,-59.570,-115.234,-29.785
1688664948.050,-73.242,10.254,-53.711,-96.680,-135.742
1688664948.054,-60.547,3.906,-49.316,-85.938,-14.160
1688664948.058,-53.223,0.977,-46.387,-77.148,-17.578
1688664948.062,-45.410,-1.465,-40.527,-72.266,-166.016
1688664948.066,-39.551,0.488,-37.109,-60.547,-194.824
1688664948.070,-38.086,2.930,-37.109,-46.875,145.020
1688664948.073,-27.344,-0.977,-33.691,-29.297,291.992
1688664948.077,-20.996,-4.883,-30.273,-26.367,-18.066
1688664948.081,-27.344,-6.348,-31.738,-35.156,-114.746
1688664948.085,-20.508,-1.465,-28.320,-25.879,62.500
1688664948.089,-20.508,0.977,-29.297,-20.020,70.801
1688664948.091,-20.996,-2.441,-32.715,-27.344,-206.055
1688664948.095,-4.883,-2.441,-36.133,-26.855,-182.129
1688664948.099,-2.441,-1.953,-34.668,-27.344,-138.184
1688664948.103,-2.930,-1.953,-30.762,-20.020,-197.266
1688664948.107,11.719,3.906,-26.367,-11.719,-186.035
1688664948.111,13.672,6.348,-20.508,-14.160,15.625
1688664948.115,2.930,3.418,-21.484,-16.602,209.473
1688664948.118,-8.301,4.395,-25.391,-17.578,8.301
1688664948.122,-17.578,8.301,-26.367,-21.484,-201.660
1688664948.126,-14.648,9.766,-25.879,-21.484,-45.898
1688664948.130,-20.020,2.930,-25.879,-20.996,38.574
1688664948.134,-20.508,-2.930,-17.578,-20.996,-58.594
1688664948.152,-4.883,1.953,-7.812,-10.742,-89.355
1688664948.156,-9.766,1.953,-14.648,-7.812,47.363
1688664948.160,-18.066,-1.465,-20.020,-8.789,150.391
1688664948.164,-7.324,2.930,-20.020,-12.207,-102.539
1688664948.168,2.441,6.836,-20.996,-11.230,-150.391
1688664948.172,0.488,8.301,-20.508,-18.066,-20.996
1688664948.176,-0.977,3.906,-23.438,-25.391,-46.387
1688664948.179,2.930,2.930,-23.438,-15.137,-146.484
1688664948.183,1.465,-0.488,-22.461,-5.859,-135.742
1688664948.187,-17.090,-2.441,-18.066,-8.301,-13.672
1688664948.191,-25.391,1.465,-18.066,-16.602,8.301
1688664948.195,-17.578,0.977,-23.926,-18.555,-97.168
1688664948.196,-8.789,-1.953,-25.391,-18.555,-179.199
1688664948.200,-3.906,0.000,-24.902,-5.371,215.332
1688664948.204,-0.977,2.441,-22.461,-1.465,299.805
1688664948.208,-5.859,-0.488,-19.043,-19.531,-164.551
1688664948.212,-28.320,2.930,-20.020,-21.973,-126.465
1688664948.216,-27.344,4.395,-23.926,-20.508,-22.461
1688664948.220,-24.414,-1.953,-24.902,-21.484,-27.344
1688664948.223,-27.832,-7.812,-26.367,-13.184,-53.711
1688664948.227,-26.367,-6.836,-23.926,-9.277,47.363
1688664948.231,-32.227,-6.348,-23.926,-12.695,248.535
1688664948.235,-18.066,-7.324,-24.414,-18.555,-28.809
1688664948.239,-10.254,-3.418,-22.461,-10.742,-149.414
1688664948.242,-25.879,-5.859,-24.414,-13.184,88.867
1688664948.246,-34.668,-4.883,-22.949,-17.578,112.793
1688664948.250,-27.832,-3.906,-24.902,-19.531,-137.695
1688664948.254,-30.762,-6.348,-27.832,-29.297,-169.922
1688664948.258,-29.297,-4.883,-26.855,-21.484,49.316
1688664948.262,-9.277,-7.324,-26.367,-19.043,60.059
1688664948.266,-2.441,-4.395,-20.996,-9.766,-24.414
1688664948.269,-9.277,-1.953,-14.648,-4.883,-118.652
1688664948.273,-8.301,-0.488,-16.602,-18.066,51.270
1688664948.277,-21.973,3.906,-20.996,-20.508,121.582
1688664948.281,-29.297,0.488,-20.508,-19.531,-177.246
1688664948.285,-28.320,-3.906,-21.973,-20.508,-153.809
1688664948.286,-30.273,-8.789,-23.926,-20.996,-104.980
1688664948.290,-25.391,-6.836,-25.391,-22.461,-149.902
1688664948.294,-22.949,-3.418,-25.879,-21.973,-173.828
1688664948.298,-11.719,-1.953,-21.973,-16.113,-99.121
1688664948.302,-12.207,-0.488,-22.461,-20.020,-60.059
1688664948.306,-30.762,-7.324,-22.949,-27.832,-52.246
1688664948.310,-35.156,-12.695,-26.367,-28.809,-47.363
1688664948.313,-33.691,-15.137,-26.855,-22.461,25.879
1688664948.317,-38.574,-16.113,-21.484,-15.625,334.473
1688664948.321,-42.969,-12.207,-20.508,-13.672,173.828
1688664948.325,-27.832,-11.719,-22.461,-23.438,-205.078
1688664948.329,-26.855,-14.160,-20.996,-23.438,-45.410
1688664948.331,-31.738,-14.160,-20.020,-23.438,-3.906
1688664948.335,-21.973,-12.207,-20.020,-24.414,-169.434
1688664948.339,-34.668,-11.719,-18.555,-27.344,-152.832
1688664948.343,-30.273,-11.719,-13.672,-30.273,-69.824
1688664948.347,-22.949,-10.254,-16.113,-27.832,-65.430
1688664948.351,-28.320,-14.160,-20.020,-20.508,-97.168
1688664948.355,-23.926,-12.207,-14.648,-15.137,24.902
1688664948.358,-29.297,-12.207,-12.695,-10.742,270.508
1688664948.362,-24.902,-15.137,-14.160,-18.555,275.879
1688664948.366,-17.090,-12.695,-16.602,-30.762,-71.289
1688664948.370,-23.438,-7.324,-21.973,-24.414,-166.504
1688664948.374,-30.762,-6.348,-15.625,-17.578,-33.691
1688664948.376,-16.602,-8.301,-16.113,-20.508,-35.645
1688664948.380,-5.371,-11.230,-25.391,-23.926,-105.469
1688664948.384,-22.461,-16.113,-25.391,-33.203,-105.469
1688664948.388,-39.062,-18.066,-26.367,-28.320,-115.234
1688664948.392,-31.250,-14.160,-27.832,-27.344,-125.977
1688664948.396,-19.043,-12.207,-27.344,-40.039,-91.797
1688664948.400,-20.996,-12.695,-26.855,-32.227,126.465
1688664948.403,-21.484,-13.184,-25.879,-28.320,281.738
1688664948.407,-35.645,-14.160,-25.879,-45.410,-5.859
1688664948.411,-56.641,-19.531,-28.320,-44.922,-212.891
1688664948.415,-44.434,-28.320,-29.297,-38.086,-102.539
1688664948.419,-26.855,-21.484,-24.902,-31.738,29.297
1688664948.421,-28.809,-14.160,-25.391,-31.738,52.734
1688664948.425,-35.156,-18.555,-31.738,-43.945,-79.102
1688664948.429,-35.156,-17.578,-29.297,-45.410,44.922
1688664948.433,-27.832,-14.160,-20.508,-30.762,197.754
1688664948.437,-18.555,-11.230,-14.160,-22.461,-81.055
1688664948.441,-24.414,-9.277,-14.648,-27.832,-90.332
1688664948.445,-33.203,-8.789,-20.508,-31.738,181.152
1688664948.448,-25.391,-7.324,-22.949,-33.691,147.461
1688664948.452,-27.832,-18.555,-23.926,-31.250,-137.695
1688664948.456,-22.461,-19.531,-18.066,-16.113,-180.664
1688664948.460,-11.719,-6.348,-17.578,-18.555,-154.785
1688664948.464,-22.461,0.977,-28.809,-43.457,-190.430
1688664948.467,-34.668,4.395,-38.086,-60.059,-258.789
1688664948.471,-37.109,3.418,-39.062,-53.711,-104.004
1688664948.475,-32.227,0.488,-37.598,-43.457,63.965
1688664948.479,-28.320,-4.883,-41.992,-45.410,-97.168
1688664948.483,-28.320,-4.883,-43.457,-58.105,-154.785
1688664948.487,-31.250,0.488,-41.992,-60.547,46.875
1688664948.491,-41.016,0.000,-42.969,-46.875,241.699
1688664948.494,-38.086,-6.836,-42.480,-44.922,35.156
1688664948.498,-42.480,-15.625,-42.969,-62.988,-145.020
1688664948.502,-33.691,-18.066,-39.062,-61.523,-100.098
1688664948.506,-26.855,-15.625,-35.645,-49.316,-81.543
1688664948.510,-34.668,-14.648,-32.715,-48.340,-130.859
1688664948.527,-38.574,-15.625,-29.297,-41.016,-129.883
1688664948.531,-47.852,-16.602,-29.297,-33.203,116.699
1688664948.535,-51.758,-15.625,-25.879,-40.527,135.254
1688664948.539,-43.945,-15.137,-22.949,-41.016,-164.551
1688664948.543,-37.598,-13.672,-20.020,-35.156,-157.715
1688664948.547,-27.832,-17.090,-18.066,-25.879,295.410
1688664948.551,-8.789,-20.996,-20.020,-34.180,423.340
1688664948.554,5.859,-22.949,-19.531,-43.457,-43.457
1688664948.558,-12.695,-24.902,-20.020,-39.062,-180.664
1688664948.562,-30.762,-24.414,-18.066,-25.879,-58.105
1688664948.566,-29.297,-22.461,-19.531,-26.367,-53.223
1688664948.570,-26.367,-20.508,-23.438,-34.180,-141.113
1688664948.572,-31.250,-22.461,-23.438,-34.180,-118.652
1688664948.576,-31.738,-22.949,-24.414,-39.062,-102.539
1688664948.580,-20.996,-25.391,-21.484,-28.320,-125.000
1688664948.584,-11.719,-25.391,-21.484,-21.484,-130.859
1688664948.588,-3.418,-21.973,-24.902,-28.809,-53.711
1688664948.592,-9.766,-27.832,-25.879,-33.203,21.973
1688664948.596,-27.344,-27.832,-27.832,-37.109,-28.809
1688664948.599,-33.691,-25.879,-27.832,-44.434,-61.035
1688664948.603,-20.020,-23.438,-22.949,-31.738,39.551
1688664948.607,-19.531,-24.414,-17.578,-14.160,374.512
1688664948.611,-30.762,-26.855,-21.973,-25.879,204.102
1688664948.615,-28.809,-26.367,-21.484,-31.250,-151.855
1688664948.616,-34.180,-23.438,-17.090,-19.043,67.383
1688664948.620,-34.180,-25.391,-18.066,-17.090,121.582
1688664948.624,-27.832,-26.855,-18.555,-26.855,-113.281
1688664948.628,-24.414,-20.996,-14.160,-14.648,-113.281
1688664948.632,-26.855,-18.555,-14.160,-19.043,-136.230
1688664948.636,-36.621,-15.625,-17.578,-31.738,-94.727
1688664948.640,-16.113,-16.602,-16.113,-22.461,-17.578
1688664948.643,6.836,-16.113,-16.113,-16.113,-108.398
1688664948.647,-8.301,-17.578,-21.484,-12.695,91.309
1688664948.651,-20.508,-26.367,-27.832,-12.695,165.527
1688664948.655,-22.461,-22.949,-22.949,-11.230,-183.594
1688664948.659,-18.066,-16.602,-19.531,-13.184,-218.262
1688664948.661,-23.926,-21.973,-24.902,-20.508,-64.941
1688664948.665,-26.367,-21.484,-23.926,-13.672,-46.875
1688664948.669,-21.973,-19.043,-23.438,-23.438,-82.031
1688664948.673,-18.555,-20.020,-23.926,-36.621,-68.848
1688664948.677,-19.043,-17.578,-25.391,-29.297,-37.598
1688664948.681,-20.508,-14.160,-26.855,-36.133,35.645
1688664948.685,-8.789,-16.602,-26.855,-47.363,-4.883
1688664948.688,-5.371,-15.625,-23.438,-45.410,2.441
1688664948.692,-23.926,-14.160,-20.996,-28.809,242.676
1688664948.696,-40.527,-19.531,-23.926,-18.555,99.121
1688664948.700,-30.273,-21.973,-20.996,-11.719,-216.797
1688664948.704,-23.926,-24.414,-20.020,-0.977,53.711
1688664948.706,-22.949,-23.926,-17.578,-7.812,373.535
1688664948.710,-30.762,-17.090,-17.578,-21.973,4.883
1688664948.714,-28.320,-17.090,-22.949,-15.137,-201.660
1688664948.718,-28.320,-20.508,-20.996,-17.090,-25.879
1688664948.722,-32.227,-26.367,-23.438,-32.227,-37.109
1688664948.726,-32.227,-35.156,-25.879,-34.668,-31.738
1688664948.730,-50.781,-34.668,-24.902,-29.297,-47.852
1688664948.733,-32.715,-28.320,-23.438,-26.855,62.500
1688664948.737,-23.926,-29.297,-25.879,-30.273,140.625
1688664948.741,-36.621,-29.297,-28.320,-29.297,-169.434
1688664948.745,-44.434,-24.414,-32.227,-31.738,-160.156
1688664948.749,-46.875,-24.414,-32.227,-38.574,-102.051
1688664948.752,-38.574,-29.785,-24.902,-40.527,-148.926
1688664948.756,-37.109,-27.344,-20.996,-35.156,-166.504
1688664948.760,-44.434,-22.461,-25.391,-33.691,7.324
1688664948.764,-52.246,-21.484,-29.297,-43.457,124.023
1688664948.768,-45.898,-18.066,-27.344,-36.133,-57.129
1688664948.772,-29.297,-23.438,-25.879,-29.785,-166.016
1688664948.776,-26.855,-21.973,-21.484,-21.973,-15.625
1688664948.779,-16.113,-19.043,-21.973,-23.926,215.820
1688664948.783,-18.555,-23.926,-26.855,-33.203,43.457
1688664948.787,-38.574,-27.344,-28.809,-36.133,-182.617
1688664948.791,-42.480,-31.738,-26.855,-42.480,-153.320
1688664948.795,-35.156,-27.832,-21.973,-42.969,-69.336
1688664948.796,-22.461,-26.367,-23.926,-42.480,-11.719
1688664948.800,-7.812,-27.832,-28.320,-32.227,-118.652
1688664948.804,-15.137,-23.438,-28.320,-19.043,3.418
1688664948.808,-30.273,-25.879,-29.297,-25.879,118.652
1688664948.812,-35.645,-28.809,-30.762,-35.156,-53.223
1688664948.816,-40.039,-27.832,-28.320,-38.574,-6.348
1688664948.820,-44.434,-27.832,-24.414,-31.250,248.047
1688664948.823,-43.457,-27.832,-23.926,-39.062,329.590
1688664948.827,-34.180,-30.273,-24.414,-50.293,-60.547
1688664948.831,-31.250,-24.902,-22.461,-35.156,-181.641
1688664948.835,-29.297,-21.484,-19.043,-32.715,-122.070
1688664948.839,-27.344,-27.344,-20.508,-41.504,-172.363
1688664948.841,-30.273,-28.320,-27.344,-39.062,-192.871
1688664948.845,-28.320,-24.414,-25.879,-32.227,-159.668
1688664948.849,-33.691,-22.461,-23.926,-27.832,-140.137
1688664948.853,-23.926,-23.438,-23.438,-24.414,-147.949
1688664948.857,-17.090,-27.344,-23.926,-12.695,-163.086
1688664948.861,-23.926,-29.785,-23.438,-24.902,-8.789
1688664948.865,-38.574,-31.738,-20.996,-45.898,183.105
1688664948.868,-45.410,-33.691,-19.043,-40.039,9.766
1688664948.872,-29.297,-31.250,-21.973,-27.832,-181.641
1688664948.876,-32.227,-30.273,-27.832,-33.691,-15.625
1688664948.880,-41.504,-32.227,-28.809,-39.062,158.203
1688664948.884,-37.598,-30.762,-27.344,-34.668,-51.270
1688664948.901,-29.297,-31.250,-25.391,-39.551,-185.059
1688664948.905,-25.879,-30.762,-23.926,-33.691,97.656
1688664948.909,-36.621,-31.738,-26.367,-29.785,281.738
1688664948.913,-37.598,-35.156,-32.715,-51.758,-26.855
1688664948.917,-46.875,-32.715,-35.645,-64.941,-159.180
1688664948.921,-52.734,-29.785,-36.621,-57.129,-19.531
1688664948.925,-38.574,-32.227,-33.691,-41.504,82.031
1688664948.928,-34.180,-31.250,-28.320,-33.203,-20.020
1688664948.932,-33.691,-26.855,-25.391,-39.062,-143.066
1688664948.936,-51.270,-29.297,-21.973,-57.617,112.793
1688664948.940,-59.082,-30.762,-23.438,-53.711,200.684
1688664948.944,-41.016,-32.227,-26.367,-30.762,-162.109
1688664948.961,-28.320,-34.668,-27.832,-30.273,-182.129
1688664948.965,-29.785,-34.180,-31.250,-28.320,-67.871
1688664948.969,-39.551,-36.133,-34.180,-31.250,-94.238
1688664948.973,-43.457,-31.250,-29.785,-27.344,-172.852
1688664948.977,-38.086,-27.832,-28.320,-20.996,-89.355
1688664948.981,-34.668,-28.809,-32.227,-30.762,25.879
1688664948.985,-32.227,-31.250,-32.227,-33.203,-34.180
1688664948.988,-35.645,-32.227,-29.785,-30.762,-121.582
1688664948.992,-20.020,-28.320,-25.391,-27.832,-15.137
1688664948.996,-20.020,-26.855,-27.344,-25.391,249.023
1688664949.000,-45.410,-28.809,-30.273,-30.273,76.172
1688664949.004,-41.016,-24.902,-24.902,-32.227,-156.250
1688664948.991,-18.555,-19.531,-22.461,-30.762,81.055
1688664948.995,-27.344,-23.926,-24.902,-29.785,215.820
1688664948.999,-44.434,-26.855,-23.438,-30.273,-108.887
1688664949.003,-39.062,-25.391,-23.926,-35.645,-172.852
1688664949.007,-42.969,-26.367,-23.438,-37.598,-126.465
1688664949.011,-46.387,-28.320,-26.367,-31.738,-56.152
1688664949.015,-43.457,-25.879,-26.367,-29.297,-28.320
1688664949.018,-39.551,-21.484,-21.973,-29.297,-101.562
1688664949.022,-35.156,-24.414,-23.926,-25.879,-47.852
1688664949.026,-32.715,-26.367,-26.855,-25.391,-53.223
1688664949.030,-31.738,-24.414,-30.273,-38.574,-174.316
1688664949.034,-31.250,-24.902,-29.297,-38.086,-216.309
1688664949.052,-36.621,-22.461,-26.855,-26.855,96.191
1688664949.056,-44.922,-21.973,-25.879,-24.902,144.043
1688664949.060,-30.273,-26.855,-27.344,-24.902,-106.445
1688664949.064,-19.043,-29.785,-29.297,-26.855,-30.762
1688664949.068,-33.203,-27.344,-28.320,-30.273,8.789
1688664949.072,-35.645,-30.273,-26.367,-29.785,-56.641
1688664949.076,-23.926,-31.250,-23.438,-34.668,-4.395
1688664949.079,-18.555,-29.785,-21.484,-41.992,68.848
1688664949.083,-33.691,-35.156,-26.855,-40.527,183.105
1688664949.087,-41.992,-36.621,-30.762,-47.852,-2.441
1688664949.091,-47.852,-37.109,-30.273,-53.711,-244.629
1688664949.095,-54.199,-37.598,-31.250,-41.504,-19.531
1688664949.081,-46.387,-33.203,-25.879,-29.297,122.559
1688664949.085,-42.480,-31.250,-29.785,-46.387,-146.484
1688664949.089,-35.645,-33.203,-33.203,-53.711,-244.629
1688664949.093,-36.133,-34.668,-27.832,-53.223,-106.934
1688664949.097,-36.621,-36.621,-27.832,-47.852,-44.922
1688664949.101,-31.738,-33.691,-27.344,-33.203,-51.270
1688664949.105,-21.484,-29.785,-22.949,-36.133,2.441
1688664949.108,-21.484,-29.785,-16.602,-39.551,59.082
1688664949.112,-35.156,-32.715,-18.066,-41.992,-25.391
1688664949.116,-34.668,-33.691,-22.461,-31.738,-121.582
1688664949.120,-43.457,-34.180,-24.902,-27.832,-105.469
1688664949.124,-26.855,-31.250,-26.367,-26.367,172.852
1688664949.126,-1.953,-28.809,-27.344,-11.230,270.020
1688664949.130,-20.020,-31.250,-25.391,-24.414,-103.516
1688664949.134,-37.109,-34.180,-20.020,-23.438,-118.164
1688664949.138,-33.691,-37.109,-15.137,-7.812,-42.969
1688664949.142,-25.391,-43.457,-15.137,-7.324,-105.469
1688664949.146,-23.438,-43.945,-10.742,-7.324,-113.770
1688664949.150,-23.926,-40.039,-3.906,3.906,44.922
1688664949.153,-25.879,-45.410,-4.395,15.137,180.176
1688664949.157,-11.230,-53.223,-0.488,9.277,28.809
1688664949.161,2.441,-58.105,4.883,11.719,-120.605
1688664949.165,-1.953,-58.105,4.395,14.648,-55.176
1688664949.169,-11.719,-53.223,4.395,17.578,406.738
1688664949.187,-6.836,-48.340,0.977,18.555,320.312
1688664949.191,4.883,-42.969,-5.859,24.414,-187.012
1688664949.195,6.348,-39.551,-2.930,30.273,-178.711
1688664949.199,8.789,-36.133,-4.395,22.949,-188.965
1688664949.203,-0.977,-36.133,-9.277,18.555,-226.562
1688664949.207,-13.672,-40.039,-4.395,17.090,-164.062
1688664949.211,-13.672,-41.016,-0.488,33.203,224.121
1688664949.214,-14.648,-38.086,-2.441,28.320,267.090
1688664949.218,-9.766,-37.109,-6.348,-0.488,-192.383
1688664949.222,1.465,-37.598,-7.812,-1.465,-213.867
1688664949.226,-8.789,-37.109,-8.789,9.277,-59.570
1688664949.230,-13.672,-37.109,-10.742,11.719,-105.469
1688664949.216,-0.977,-37.598,-12.695,11.719,-193.848
1688664949.220,-11.719,-35.645,-14.160,9.277,-151.855
1688664949.224,-19.531,-32.715,-19.043,-2.930,-86.426
1688664949.228,-14.648,-33.203,-16.602,-7.324,-91.797
1688664949.232,-10.254,-35.156,-11.719,4.395,-100.098
1688664949.236,-3.906,-30.762,-13.184,9.277,14.160
1688664949.240,-3.418,-26.855,-13.184,5.859,84.473
1688664949.243,-8.301,-26.855,-13.672,-1.465,-67.383
1688664949.247,-16.113,-24.414,-14.160,1.953,-158.691
1688664949.251,-24.414,-30.273,-14.160,13.184,-1.465
1688664949.255,-9.277,-28.809,-15.625,13.672,225.586
1688664949.259,0.977,-19.043,-11.230,7.812,39.551
1688664949.262,-4.883,-23.438,-13.672,-5.859,-110.352
1688664949.266,-5.859,-26.855,-13.184,-2.930,56.152
1688664949.270,-13.184,-23.438,-8.789,10.742,149.902
1688664949.274,-14.160,-23.438,-11.719,-0.977,-81.055
1688664949.278,-14.160,-20.996,-15.137,-14.648,-173.340
1688664949.282,-19.531,-18.066,-19.531,-13.672,-57.617
1688664949.286,-30.762,-19.043,-23.438,-11.230,47.363
1688664949.289,-18.066,-20.996,-33.691,-8.789,-46.387
1688664949.293,-0.977,-25.391,-45.898,-13.672,-163.574
1688664949.297,-26.367,-33.691,-49.805,-16.113,111.816
1688664949.301,-25.391,-34.668,-46.387,-16.602,157.227
1688664949.305,-14.648,-32.715,-44.434,-31.250,-172.852
1688664949.322,-30.273,-33.691,-44.922,-32.715,-154.785
1688664949.326,-27.344,-31.738,-40.527,-23.438,3.906
1688664949.330,-13.184,-27.344,-38.086,-23.926,-33.691
1688664949.334,-15.625,-26.855,-45.410,-35.645,-127.930
1688664949.338,-38.086,-28.809,-47.363,-33.203,-34.180
1688664949.342,-52.734,-31.738,-43.945,-15.625,170.410
1688664949.346,-37.598,-33.691,-46.387,-19.043,89.355
1688664949.349,-24.414,-33.203,-42.969,-26.855,-142.578
1688664949.353,-29.297,-35.156,-37.598,-24.902,-33.203
1688664949.357,-31.738,-34.180,-35.645,-27.344,116.699
1688664949.361,-26.855,-33.691,-33.203,-24.414,-128.418
1688664949.365,-19.043,-36.133,-29.785,-25.879,-167.969
1688664949.366,-23.926,-38.574,-28.320,-31.738,107.422
1688664949.370,-36.133,-40.527,-30.273,-29.785,103.027
1688664949.374,-31.738,-40.527,-32.715,-25.391,-151.855
1688664949.378,-22.949,-39.062,-32.715,-21.973,-209.961
1688664949.382,-23.926,-38.574,-32.715,-21.973,-150.879
1688664949.386,-39.062,-38.574,-36.133,-27.832,-8.789
1688664949.390,-47.852,-38.086,-35.156,-32.715,40.527
1688664949.393,-40.039,-34.668,-31.250,-30.762,-133.301
1688664949.397,-33.691,-31.250,-28.809,-26.855,24.902
1688664949.401,-34.668,-31.738,-27.832,-32.715,275.391
1688664949.405,-31.250,-31.250,-27.344,-34.668,-52.246
1688664949.409,-26.367,-32.227,-24.902,-22.949,-228.027
1688664949.411,-38.086,-32.715,-24.414,-29.297,-156.250
1688664949.415,-41.992,-28.809,-23.438,-33.691,-151.367
1688664949.419,-19.043,-33.203,-20.020,-28.320,-158.203
1688664949.423,-15.137,-37.598,-20.508,-20.996,-102.051
1688664949.427,-28.809,-39.062,-21.484,-25.391,-63.965
1688664949.431,-28.809,-39.551,-20.020,-28.809,-26.367
1688664949.435,-41.504,-42.480,-24.902,-27.832,-13.672
1688664949.438,-39.551,-40.039,-27.832,-30.273,16.113
1688664949.442,-30.762,-33.691,-22.461,-18.555,340.332
1688664949.446,-28.320,-28.809,-22.949,-19.531,200.195
1688664949.450,-14.160,-26.855,-26.367,-27.344,-194.336
1688664949.454,-6.348,-33.691,-24.902,-14.648,-6.348
1688664949.456,-13.672,-35.645,-19.531,-11.230,95.215
1688664949.460,-26.367,-34.180,-11.719,-19.043,-113.770
1688664949.464,-38.574,-38.574,-7.812,-22.949,-176.758
1688664949.468,-52.734,-39.551,-9.277,-36.621,-91.309
1688664949.472,-54.199,-42.969,-3.906,-36.621,-62.500
1688664949.476,-56.641,-48.828,4.883,-37.109,-26.855
1688664949.480,-56.641,-48.340,9.277,-46.387,72.266
1688664949.483,-61.523,-48.340,8.301,-48.340,226.074
1688664949.487,-80.078,-52.734,7.812,-53.711,166.016
1688664949.491,-91.309,-52.734,9.277,-60.547,-181.152
1688664949.495,-84.961,-50.781,13.672,-57.617,-122.070
1688664949.499,-87.891,-54.688,13.672,-57.617,40.527
1688664949.501,-89.844,-55.176,11.719,-63.477,-41.992
1688664949.505,-64.453,-50.781,10.742,-60.547,-187.500
1688664949.509,-63.477,-50.781,3.418,-54.199,-205.078
1688664949.513,-76.660,-50.293,-1.953,-46.875,-109.863
1688664949.517,-58.594,-44.922,-6.348,-38.086,-68.359
1688664949.521,-42.480,-46.875,-9.277,-42.480,-79.102
1688664949.525,-36.133,-43.457,-5.859,-42.969,77.637
1688664949.528,-39.551,-38.574,-6.836,-34.668,271.484
1688664949.532,-41.016,-39.551,-16.113,-14.648,23.926
1688664949.536,-33.203,-35.645,-18.066,-16.113,-171.387
1688664949.540,-27.832,-36.133,-16.113,-30.273,-81.543
1688664949.544,-20.508,-34.668,-18.066,-29.297,-49.316
1688664949.547,-25.391,-33.203,-22.461,-34.668,-86.914
1688664949.551,-36.621,-34.668,-20.508,-27.832,-141.113
1688664949.555,-33.203,-35.645,-14.648,-15.625,31.250
1688664949.559,-23.926,-35.645,-15.137,-15.137,187.500
1688664949.563,-26.855,-34.180,-17.578,-24.414,-95.215
1688664949.567,-32.715,-32.227,-19.043,-23.438,-129.395
1688664949.571,-41.992,-35.156,-22.949,-19.531,152.832
1688664949.574,-38.086,-33.203,-22.461,-22.949,117.188
1688664949.578,-19.043,-28.809,-21.484,-24.902,-134.766
1688664949.582,-18.066,-31.738,-23.438,-25.391,-185.547
1688664949.586,-21.973,-29.785,-22.461,-17.578,27.832
1688664949.590,-33.203,-33.203,-28.320,-21.973,98.633
1688664949.591,-39.551,-40.527,-30.762,-29.785,-135.742
1688664949.595,-29.785,-39.062,-26.855,-25.879,-123.535
1688664949.599,-23.926,-36.133,-28.320,-25.879,-55.664
1688664949.603,-33.203,-35.645,-33.691,-19.043,-36.133
1688664949.607,-31.738,-34.180,-32.227,-15.137,-85.449
1688664949.611,-28.320,-41.992,-32.227,-20.996,-48.828
1688664949.615,-36.621,-42.480,-33.691,-27.344,364.258
1688664949.618,-34.668,-34.668,-28.809,-29.785,265.137
1688664949.622,-23.926,-36.133,-27.344,-29.297,-194.336
1688664949.626,-37.598,-37.598,-28.809,-23.926,-158.691
1688664949.630,-51.270,-38.574,-26.367,-17.090,-129.395
1688664949.634,-28.320,-36.621,-24.902,-26.367,-72.266
1688664949.652,-12.695,-32.227,-24.902,-26.855,-59.570
1688664949.656,-28.809,-36.133,-27.832,-24.414,2.930
1688664949.660,-39.062,-36.621,-26.367,-24.414,98.145
1688664949.664,-24.414,-34.180,-27.344,-14.160,-151.855
1688664949.668,-14.160,-34.180,-31.250,-20.508,-177.246
1688664949.672,-23.438,-29.785,-31.738,-27.832,-7.324
1688664949.676,-26.855,-36.621,-34.668,-22.461,6.348
1688664949.679,-26.855,-52.246,-36.621,-21.973,-68.848
1688664949.683,-28.809,-57.129,-32.715,-18.555,-156.738
1688664949.687,-40.039,-39.062,-36.133,-30.762,118.164
1688664949.691,-49.805,-26.855,-44.922,-57.129,266.113
1688664949.695,-55.176,-23.438,-44.922,-69.824,-111.816
1688664949.696,-64.453,-17.578,-47.852,-70.312,-168.457
1688664949.700,-76.172,-19.531,-53.711,-67.383,-112.305
1688664949.704,-74.707,-22.949,-58.594,-70.312,-133.301
1688664949.708,-67.383,-18.066,-66.895,-78.125,-172.852
1688664949.712,-76.660,-16.113,-71.777,-90.820,-105.957
1688664949.716,-61.523,-20.020,-69.824,-97.656,67.383
1688664949.720,-50.293,-24.902,-65.918,-95.215,76.172
1688664949.723,-63.965,-26.855,-58.105,-89.355,-86.914
1688664949.727,-46.387,-25.391,-47.852,-73.242,-47.852
1688664949.731,-37.598,-26.367,-42.969,-74.219,328.613
1688664949.735,-38.574,-23.926,-39.551,-74.219,153.320
1688664949.739,-43.457,-20.996,-38.086,-56.152,-147.949
1688664949.742,-42.480,-25.879,-40.039,-47.363,86.426
1688664949.746,-33.203,-27.344,-37.598,-50.781,114.746
1688664949.750,-24.414,-20.996,-37.109,-49.316,-113.281
1688664949.754,-17.090,-21.973,-37.598,-45.898,-173.340
1688664949.758,-18.555,-29.297,-38.574,-41.504,-126.465
1688664949.762,-18.066,-30.762,-36.133,-33.203,-39.551
1688664949.766,-26.367,-27.344,-33.203,-28.320,24.414
1688664949.769,-33.691,-28.320,-36.133,-27.832,-57.129
1688664949.773,-29.297,-29.785,-35.156,-23.926,92.773
1688664949.777,-35.645,-32.227,-34.180,-27.344,141.113
1688664949.781,-21.973,-31.738,-37.109,-27.832,-192.871
1688664949.785,-15.625,-30.273,-36.133,-24.902,-148.926
1688664949.801,-20.020,-31.738,-30.762,-32.715,9.277
1688664949.805,-18.555,-33.691,-29.785,-32.227,-64.453
1688664949.809,-36.133,-40.039,-39.062,-31.738,-222.656
1688664949.813,-31.738,-39.062,-38.086,-37.598,-170.898
1688664949.817,-12.695,-33.691,-34.180,-38.574,-55.176
1688664949.821,-14.160,-33.203,-35.156,-40.039,-3.418
1688664949.825,-26.367,-29.785,-38.574,-31.738,-7.324
1688664949.828,-29.785,-32.715,-40.527,-35.645,27.832
1688664949.832,-44.922,-35.156,-38.574,-49.316,188.965
1688664949.836,-46.875,-30.762,-39.551,-46.875,42.969
1688664949.840,-32.715,-32.715,-37.109,-47.363,-176.758
1688664949.844,-32.227,-34.180,-35.156,-40.039,88.867
1688664949.832,-29.297,-33.203,-33.203,-30.762,160.156
1688664949.836,-30.273,-32.715,-30.273,-26.367,-115.723
1688664949.840,-38.086,-30.273,-30.273,-20.996,-186.523
1688664949.844,-43.945,-33.203,-29.785,-27.832,37.109
1688664949.848,-38.574,-32.715,-28.320,-38.086,215.332
1688664949.852,-28.320,-26.855,-28.320,-43.457,-48.828
1688664949.856,-26.855,-26.367,-26.367,-37.109,-122.559
1688664949.859,-31.250,-27.344,-24.902,-36.621,-6.836
1688664949.863,-23.438,-26.855,-26.855,-43.945,-28.320
1688664949.867,-19.043,-27.344,-29.297,-26.367,-168.457
1688664949.871,-32.227,-34.180,-25.879,-13.184,-228.516
1688664949.875,-26.855,-32.715,-23.926,-32.715,66.895
1688664949.876,-35.645,-23.438,-36.133,-53.711,145.020
1688664949.880,-48.828,-22.461,-42.480,-50.781,-125.977
1688664949.884,-35.156,-22.461,-41.504,-34.180,-126.465
1688664949.888,-31.250,-19.531,-41.504,-47.852,-74.707
1688664949.892,-27.832,-18.066,-43.945,-59.082,-39.062
1688664949.896,-28.320,-19.043,-45.410,-40.039,-12.207
1688664949.900,-27.344,-15.137,-50.293,-39.551,120.117
1688664949.903,-26.367,-13.184,-48.340,-44.434,343.262
1688664949.907,-32.227,-13.184,-44.922,-45.898,130.859
1688664949.911,-33.691,-14.160,-44.434,-49.316,-219.238
1688664949.915,-41.992,-19.043,-42.480,-46.875,-151.367
1688664949.919,-42.480,-21.484,-40.527,-46.387,-51.758
1688664949.921,-28.320,-19.531,-34.180,-44.434,-41.504
1688664949.925,-40.527,-18.555,-32.227,-46.387,-182.129
1688664949.929,-44.922,-21.973,-28.320,-38.086,-44.922
1688664949.933,-37.109,-25.879,-30.273,-34.180,68.359
1688664949.937,-26.855,-24.902,-32.227,-36.133,-146.484
1688664949.941,-16.113,-26.367,-31.250,-26.855,-26.855
1688664949.945,-3.906,-28.809,-34.668,-30.762,94.727
1688664949.948,-2.441,-27.832,-38.574,-30.762,22.949
1688664949.952,-11.719,-24.414,-35.156,-16.602,-69.336
1688664949.956,7.324,-26.855,-33.691,-16.602,-144.043
1688664949.960,15.137,-29.785,-37.109,-12.695,123.535
1688664949.964,-7.324,-27.344,-29.785,-1.465,219.238
1688664949.966,-8.789,-25.391,-24.902,0.488,-143.066
1688664949.970,-0.977,-24.414,-27.832,7.812,-160.645
1688664949.974,-18.066,-33.203,-26.367,1.465,-84.473
1688664949.978,-12.207,-34.668,-26.855,-9.277,-102.539
1688664949.982,-2.930,-27.344,-31.250,-11.719,-174.805
1688664949.986,-18.555,-30.273,-34.668,-21.484,12.207
1688664949.990,-22.461,-32.715,-32.227,-14.648,271.973
1688664949.993,-4.395,-29.297,-30.273,0.488,47.363
1688664949.997,5.371,-32.715,-31.250,1.953,-165.527
1688664950.001,0.000,-33.691,-26.855,-5.371,-13.184
1688664950.005,0.488,-28.809,-28.809,-11.230,83.984
1688664950.009,-2.930,-27.832,-30.273,-19.531,-57.129
1688664950.027,1.953,-28.320,-25.391,-8.789,-147.461
1688664950.031,7.324,-24.414,-22.949,7.324,-4.395
1688664950.035,1.465,-21.973,-22.949,8.301,64.453
1688664950.039,-3.418,-23.926,-22.461,5.371,-207.520
1688664950.043,25.879,-17.090,-18.555,4.395,-234.375
1688664950.047,33.691,-16.602,-17.090,6.348,-89.355
1688664950.051,1.953,-20.996,-18.066,10.254,29.297
1688664950.054,-10.742,-20.020,-20.996,5.371,-34.180
1688664950.058,-9.766,-22.949,-23.926,-11.230,-181.152
1688664950.062,-7.324,-24.902,-23.926,-18.066,33.203
1688664950.066,-4.395,-23.438,-24.414,-14.648,127.441
1688664950.070,-10.742,-25.879,-25.391,-10.254,-32.227
1688664950.071,-8.301,-22.949,-21.484,-6.836,-98.633
1688664950.075,-5.371,-17.578,-19.043,-1.953,-110.840
1688664950.079,-10.742,-18.066,-21.484,-6.348,-87.402
1688664950.083,-3.418,-16.602,-23.438,-9.766,-166.504
1688664950.087,3.418,-18.066,-19.043,3.906,-117.188
1688664950.091,7.324,-14.648,-18.066,3.418,-28.320
1688664950.095,2.930,-13.184,-20.996,-10.254,-56.152
1688664950.098,-9.766,-19.043,-20.996,-9.277,-129.883
1688664950.102,3.906,-17.578,-21.484,-11.719,-95.703
1688664950.106,6.348,-22.949,-24.902,-14.160,84.473
1688664950.110,-26.855,-29.297,-33.691,-17.578,-69.336
1688664950.114,-37.109,-25.879,-34.180,-18.066,-173.828
1688664950.146,-31.738,-23.926,-26.855,-11.230,29.785
1688664950.150,-21.973,-21.484,-28.809,2.930,138.184
1688664950.154,-6.348,-21.484,-33.203,-2.930,-48.828
1688664950.158,-2.441,-21.484,-31.250,-10.742,-197.266
1688664950.162,-16.602,-22.949,-28.809,-11.719,-23.438
1688664950.166,-20.996,-26.367,-28.320,-21.973,79.102
1688664950.170,-12.695,-22.461,-28.809,-19.043,-37.598
1688664950.173,-8.789,-20.996,-33.691,-13.184,-118.164
1688664950.177,-17.090,-25.391,-35.156,-11.230,50.781
1688664950.181,-27.832,-29.785,-36.133,-11.719,88.867
1688664950.185,-28.809,-32.715,-34.668,-19.043,-188.965
1688664950.189,-24.902,-31.250,-35.156,-28.320,-174.316
1688664950.164,-16.602,-25.391,-38.574,-25.391,-57.129
1688664950.168,-9.277,-21.484,-38.574,-18.066,-93.750
1688664950.172,-11.719,-21.484,-40.527,-23.438,-182.129
1688664950.176,-25.879,-22.949,-41.504,-21.484,-106.445
1688664950.180,-31.250,-24.902,-39.551,-20.996,2.930
1688664950.184,-23.438,-25.391,-36.133,-17.090,-16.602
1688664950.188,-16.602,-22.949,-32.227,-17.090,-57.129
1688664950.191,-1.465,-22.949,-31.738,-25.391,21.973
1688664950.195,0.977,-21.484,-34.668,-21.973,54.199
1688664950.199,-22.949,-23.438,-30.762,-19.531,-103.027
1688664950.203,-38.086,-32.227,-22.949,-18.066,-140.625
1688664950.207,-29.297,-26.367,-33.691,-13.672,77.637
1688664950.206,-26.855,-18.555,-42.969,-25.391,349.121
1688664950.210,-20.996,-14.648,-35.645,-28.809,72.754
1688664950.214,-25.879,-6.836,-40.039,-35.156,-231.934
1688664950.218,-37.109,-1.953,-45.898,-41.504,-0.488
1688664950.222,-34.668,-3.906,-46.875,-35.156,117.676
1688664950.226,-34.180,-6.348,-44.434,-53.223,-77.148
1688664950.230,-34.180,-8.301,-43.457,-64.941,-82.520
1688664950.233,-38.574,-7.324,-42.480,-48.828,97.168
1688664950.237,-47.852,-8.301,-40.527,-37.109,429.688
1688664950.241,-34.668,-10.742,-38.574,-37.109,275.391
1688664950.245,-20.508,-8.789,-33.691,-29.297,-139.160
1688664950.249,-16.602,-9.766,-36.621,-22.461,-208.496
1688664950.251,-14.160,-12.695,-36.133,-20.996,-221.680
1688664950.255,-12.207,-11.719,-32.227,-20.508,-253.418
1688664950.259,-10.254,-16.113,-30.273,-10.742,-183.105
1688664950.263,-20.508,-22.461,-30.273,-11.719,-148.438
1688664950.267,-28.320,-23.438,-29.785,-27.344,-163.574
1688664950.271,-23.926,-18.555,-26.367,-22.461,-150.391
1688664950.275,-24.902,-15.137,-26.367,-13.672,-30.762
1688664950.278,-21.484,-18.555,-30.273,-13.672,237.305
1688664950.282,-10.742,-20.996,-27.832,-22.949,88.867
1688664950.286,-11.719,-21.973,-26.367,-30.762,-168.457
1688664950.290,-20.508,-17.090,-29.297,-25.391,-16.113
1688664950.294,-28.809,-13.672,-27.832,-22.461,106.934
1688664950.296,-29.785,-16.113,-26.367,-23.438,-35.156
1688664950.300,-17.090,-14.648,-30.762,-19.531,-187.988
1688664950.304,-12.207,-16.113,-32.227,-20.996,-8.301
1688664950.308,-11.719,-17.090,-31.738,-27.344,138.672
1688664950.312,-9.766,-11.719,-32.715,-21.484,-66.895
1688664950.316,-18.066,-9.766,-29.785,-15.137,-91.797
1688664950.320,-14.160,-8.789,-29.785,-10.254,177.734
1688664950.323,-18.066,-7.324,-35.645,-3.418,255.859
1688664950.327,-13.184,-9.766,-36.621,-7.324,-118.652
1688664950.331,-2.930,-8.789,-33.691,-18.555,-240.723
1688664950.335,-14.648,-9.277,-36.133,-24.414,-143.066
1688664950.339,-29.297,-15.625,-36.133,-23.926,-52.246
1688664950.342,-24.414,-16.602,-33.691,-25.879,-41.992
1688664950.346,-18.066,-10.742,-32.715,-26.855,-43.945
1688664950.350,-22.949,-7.324,-27.344,-21.973,72.266
1688664950.354,-20.996,-5.859,-23.926,-9.277,-1.465
1688664950.358,-15.137,-8.789,-26.855,-17.090,-120.117
1688664950.362,-19.043,-9.277,-29.785,-21.973,59.082
1688664950.366,-24.902,-6.348,-28.809,-16.602,269.531
1688664950.369,-27.832,-12.695,-25.391,-22.949,51.758
1688664950.373,-25.391,-14.648,-27.832,-22.461,-141.602
1688664950.377,-20.996,-12.207,-31.738,-22.461,-29.297
1688664950.381,-21.484,-11.719,-28.809,-21.484,-19.043
1688664950.385,-27.344,-9.277,-27.832,-20.996,-58.105
1688664950.402,-31.738,-9.277,-27.344,-30.273,-116.699
1688664950.406,-27.832,-10.254,-25.879,-29.785,17.090
1688664950.410,-24.414,-11.719,-26.367,-28.809,226.562
1688664950.414,-19.043,-13.672,-28.809,-21.484,58.105
1688664950.418,-18.555,-13.672,-30.762,-26.855,-145.996
1688664950.422,-33.203,-11.719,-32.227,-31.250,96.680
1688664950.426,-33.691,-11.719,-34.668,-24.902,426.270
1688664950.429,-20.020,-5.859,-27.832,-18.066,47.363
1688664950.433,-19.531,-3.906,-20.020,-25.391,-196.777
1688664950.437,-26.367,-8.789,-24.414,-29.297,-116.699
1688664950.441,-21.484,-6.836,-25.391,-12.695,-144.043
1688664950.445,-20.996,-13.184,-21.973,-15.625,-153.320
1688664950.446,-13.672,-18.066,-21.484,-17.090,-141.602
1688664950.450,-0.488,-0.977,-20.996,-6.836,-125.488
1688664950.454,-9.766,6.836,-25.879,-20.020,-157.227
1688664950.458,-13.672,-3.418,-34.668,-39.062,-210.938
1688664950.462,-3.906,-3.906,-37.109,-22.461,-85.449
1688664950.466,-2.930,5.859,-40.527,-20.508,87.402
1688664950.470,-2.930,11.719,-46.875,-30.273,132.812
1688664950.473,-9.277,10.742,-50.781,-37.109,-9.277
1688664950.477,-5.859,9.277,-54.199,-40.039,-52.246
1688664950.481,9.277,15.625,-58.594,-30.273,255.859
1688664950.485,6.836,15.625,-62.500,-32.227,125.488
1688664950.489,4.395,14.648,-61.035,-34.668,-22.461
1688664950.491,5.371,17.578,-58.105,-13.184,140.137
1688664950.495,1.953,12.695,-55.664,-6.836,56.152
1688664950.499,6.348,11.719,-53.223,-21.973,-187.988
1688664950.503,5.859,4.883,-54.688,-24.902,-169.434
1688664950.507,1.465,2.930,-48.340,-18.555,-72.266
1688664950.511,9.277,6.348,-41.992,-16.602,38.574
1688664950.515,3.906,0.488,-47.363,-20.020,-49.805
1688664950.518,-5.371,-2.930,-46.875,-8.789,-96.680
1688664950.522,0.488,0.000,-38.574,-1.953,184.082
1688664950.526,20.020,-3.418,-38.086,-12.695,304.688
1688664950.530,9.277,-10.254,-42.480,-20.020,-10.742
1688664950.534,-18.555,-14.648,-44.922,-21.484,-143.066
1688664950.536,-14.648,-17.090,-44.434,-21.484,-109.863
1688664950.540,-10.742,-18.555,-42.969,-25.879,-123.047
1688664950.544,-12.207,-16.113,-38.086,-18.066,-130.371
1688664950.548,-11.230,-12.695,-32.227,-10.254,-89.844
1688664950.552,-19.043,-17.578,-34.180,-18.555,-95.215
1688664950.556,-2.930,-14.648,-28.809,-21.973,-170.898
1688664950.560,-4.395,-6.348,-27.344,-15.137,-122.070
1688664950.563,-23.926,-7.324,-31.250,-9.766,15.137
1688664950.567,-23.926,-9.277,-29.297,-0.488,220.215
1688664950.571,-31.250,-12.207,-30.273,-9.766,95.215
1688664950.575,-31.738,-18.066,-32.227,-20.020,-185.059
1688664950.579,-26.855,-15.137,-28.809,-21.484,29.785
1688664950.581,-22.949,-11.719,-25.391,-19.531,313.965
1688664950.585,-29.297,-15.137,-24.414,-22.461,-59.570
1688664950.589,-21.973,-8.789,-24.414,-18.555,-250.488
1688664950.593,-12.695,-5.859,-27.832,-18.555,-124.512
1688664950.597,-16.113,-8.301,-27.832,-15.625,-95.215
1688664950.601,-10.254,-5.859,-27.344,-15.625,-47.363
1688664950.605,-7.324,-4.395,-27.832,-35.156,21.484
1688664950.608,-10.742,-10.254,-27.344,-25.879,233.887
1688664950.612,-9.766,-14.160,-25.391,-18.555,267.578
1688664950.616,-2.930,-9.766,-24.902,-29.297,-142.090
1688664950.620,-1.465,-5.371,-25.879,-20.508,-187.988
1688664950.624,-11.230,-9.277,-23.926,-10.254,-112.793
1688664950.627,-22.461,-11.230,-19.531,-11.230,-73.730
1688664950.631,-25.391,-15.625,-20.508,-19.043,-94.727
1688664950.635,-33.691,-20.508,-23.926,-23.926,-99.121
1688664950.639,-48.340,-25.391,-24.902,-24.414,-3.906
1688664950.643,-39.062,-30.273,-30.762,-34.180,-66.406
1688664950.647,-31.250,-29.297,-27.344,-30.762,-62.012
1688664950.651,-35.645,-25.879,-24.902,-33.203,109.375
1688664950.654,-35.156,-25.391,-31.738,-34.668,277.832
1688664950.658,-46.875,-23.926,-31.738,-17.090,27.344
1688664950.662,-50.293,-22.461,-30.762,-20.996,-223.145
1688664950.666,-35.156,-22.949,-37.598,-41.504,-154.785
1688664950.670,-38.574,-26.855,-38.086,-47.852,-68.848
1688664950.672,-40.039,-32.227,-34.180,-42.969,-77.148
1688664950.676,-38.574,-28.809,-31.738,-37.109,-179.199
1688664950.680,-39.062,-31.250,-34.180,-28.320,50.293
1688664950.684,-34.668,-32.227,-37.109,-26.855,144.043
1688664950.688,-29.785,-25.391,-30.273,-33.203,-159.668
1688664950.692,-29.785,-25.879,-26.367,-31.250,-125.977
1688664950.696,-29.785,-23.438,-28.809,-20.996,255.371
1688664950.699,-34.668,-23.926,-26.855,-14.648,390.625
1688664950.703,-34.180,-19.043,-23.438,-24.902,-29.785
1688664950.707,-24.414,-19.043,-23.438,-29.297,-213.867
1688664950.711,-39.551,-26.367,-24.902,-35.645,-161.133
1688664950.715,-47.852,-28.809,-28.320,-37.598,-168.945
1688664950.731,-38.086,-31.250,-32.227,-39.551,-165.527
1688664950.735,-31.250,-29.785,-33.203,-41.016,-135.254
1688664950.739,-33.203,-23.926,-29.785,-28.320,-83.496
1688664950.743,-42.969,-24.902,-31.738,-40.039,-114.258
1688664950.747,-41.992,-29.297,-38.086,-45.410,-125.000
1688664950.751,-38.086,-30.762,-38.574,-43.457,-0.488
1688664950.755,-37.109,-30.762,-34.180,-37.598,188.477
1688664950.758,-33.691,-23.438,-32.715,-32.227,80.078
1688664950.762,-31.250,-18.555,-32.227,-36.133,-173.828
1688664950.766,-27.832,-18.555,-30.273,-41.504,-50.781
1688664950.770,-19.043,-17.578,-32.227,-31.250,172.363
1688664950.774,-11.719,-18.066,-36.133,-18.066,75.195
1688664950.776,-31.250,-20.508,-28.809,-36.621,-137.695
1688664950.780,-46.387,-19.043,-19.043,-42.969,-57.129
1688664950.784,-46.387,-21.973,-18.066,-40.039,101.074
1688664950.788,-44.434,-27.832,-16.113,-47.363,-115.723
1688664950.792,-44.434,-34.180,-12.207,-42.969,-145.020
1688664950.796,-56.152,-35.156,-8.789,-24.414,-5.371
1688664950.800,-67.871,-33.691,0.000,-24.902,3.418
1688664950.803,-67.383,-32.715,3.906,-35.645,-41.992
1688664950.807,-57.129,-31.250,-2.441,-37.598,-65.430
1688664950.811,-43.945,-33.691,-7.812,-35.645,97.656
1688664950.815,-34.180,-34.180,-13.672,-32.715,254.883
1688664950.819,-42.969,-29.785,-20.996,-38.086,-44.434
1688664950.822,-40.039,-27.832,-20.508,-30.273,-166.504
1688664950.826,-25.391,-28.809,-19.531,-15.137,-100.098
1688664950.830,-30.762,-30.762,-16.602,-19.531,-106.445
1688664950.834,-40.527,-29.297,-18.555,-22.461,-205.566
1688664950.838,-43.457,-23.438,-23.926,-22.461,-221.680
1688664950.842,-35.645,-22.461,-26.855,-31.738,-105.469
1688664950.846,-27.832,-21.484,-25.391,-26.367,40.527
1688664950.849,-15.137,-22.949,-22.949,-21.973,-65.430
1688664950.853,-26.855,-24.414,-23.926,-26.367,-81.543
1688664950.857,-37.109,-24.902,-28.809,-22.461,198.242
1688664950.861,-29.785,-28.320,-32.227,-19.531,90.820
1688664950.865,-34.668,-25.391,-30.762,-27.832,-99.121
1688664950.866,-19.531,-20.508,-25.879,-25.391,97.656
1688664950.870,-15.625,-22.949,-27.344,-14.160,228.027
1688664950.874,-28.320,-20.020,-26.367,-19.531,-66.406
1688664950.878,-31.250,-16.602,-28.809,-22.949,-228.516
1688664950.882,-45.898,-19.043,-29.785,-20.996,-173.340
1688664950.886,-41.992,-19.043,-28.809,-19.531,-80.566
1688664950.890,-24.414,-17.578,-27.832,-17.090,-84.961
1688664950.893,-19.531,-20.508,-22.461,-27.832,-233.887
1688664950.897,-20.020,-25.391,-25.391,-42.480,-209.473
1688664950.901,-29.785,-26.855,-26.855,-35.645,-169.922
1688664950.905,-35.645,-22.461,-20.996,-25.391,-207.031
1688664950.909,-32.715,-20.020,-20.996,-26.855,-205.566
1688664950.926,-29.297,-19.043,-20.996,-28.809,154.785
1688664950.930,-34.180,-19.043,-22.949,-27.344,213.867
1688664950.934,-41.016,-21.973,-22.949,-31.738,-201.172
1688664950.938,-35.645,-19.531,-20.996,-33.691,-125.000
1688664950.942,-27.832,-19.531,-25.391,-33.691,-26.367
1688664950.946,-23.438,-22.949,-22.949,-31.738,-45.898
1688664950.950,-31.250,-22.949,-24.902,-32.715,-7.812
1688664950.953,-41.016,-21.973,-26.367,-34.668,36.621
1688664950.957,-39.062,-19.043,-22.949,-25.879,184.082
1688664950.961,-40.527,-23.438,-23.926,-26.855,30.762
1688664950.965,-52.246,-27.832,-29.785,-35.645,-198.242
1688664950.969,-63.477,-29.785,-34.668,-34.180,14.160
1688664950.957,-57.129,-33.691,-32.227,-36.621,41.992
1688664950.961,-40.527,-33.203,-31.738,-27.344,-131.836
1688664950.965,-27.832,-28.320,-32.715,-23.926,-187.500
1688664950.969,-25.879,-27.832,-29.785,-33.203,14.648
1688664950.973,-36.621,-25.391,-25.391,-31.250,108.398
1688664950.977,-31.250,-23.438,-22.461,-27.832,-98.145
1688664950.981,-29.297,-22.461,-21.973,-19.531,13.672
1688664950.984,-37.109,-22.949,-22.949,-22.461,37.109
1688664950.988,-32.227,-25.879,-26.367,-24.414,-107.910
1688664950.992,-29.785,-22.949,-26.367,-26.367,-170.898
1688664950.996,-30.273,-25.879,-23.926,-25.879,-215.820
1688664951.000,-22.461,-33.691,-25.879,-13.672,56.152
1688664951.001,-11.719,-29.297,-27.344,-18.555,156.738
1688664951.005,-19.043,-16.113,-31.250,-44.434,-184.082
1688664951.009,-40.527,-13.672,-39.062,-57.617,-179.688
1688664951.013,-53.223,-20.020,-37.109,-58.105,-11.230
1688664951.017,-44.434,-11.719,-37.598,-70.312,-31.250
1688664951.021,-56.152,-3.418,-46.387,-70.312,-59.570
1688664951.025,-59.082,-4.883,-50.781,-65.918,-11.230
1688664951.028,-66.895,-7.324,-56.641,-73.242,322.754
1688664951.032,-82.031,-2.930,-59.570,-77.637,269.531
1688664951.036,-68.848,2.930,-61.523,-85.938,-125.977
1688664951.040,-53.223,5.371,-63.477,-77.148,-122.070
1688664951.044,-43.945,2.441,-61.035,-75.195,-37.598
1688664951.046,-38.574,-2.930,-59.082,-90.820,-71.777
1688664951.050,-32.715,-7.812,-56.152,-94.727,-188.477
1688664951.054,-33.203,-9.277,-54.199,-78.613,24.902
1688664951.058,-36.621,-8.789,-54.199,-58.105,129.883
1688664951.062,-32.715,-13.672,-54.688,-56.641,-127.441
1688664951.066,-43.945,-16.113,-52.734,-59.082,-201.660
1688664951.070,-47.363,-16.113,-46.387,-48.828,181.152
1688664951.073,-33.691,-14.160,-44.434,-41.504,366.211
1688664951.077,-27.832,-14.160,-41.016,-40.039,-38.574
1688664951.081,-32.227,-17.090,-37.598,-36.133,-177.734
1688664951.085,-30.273,-17.090,-34.668,-40.039,-23.438
1688664951.089,-29.297,-20.020,-33.203,-53.711,-17.090
1688664951.091,-32.715,-24.902,-38.086,-53.711,-157.715
1688664951.095,-38.086,-26.367,-34.668,-42.480,-61.523
1688664951.099,-36.133,-26.367,-33.691,-41.016,-21.973
1688664951.103,-36.133,-28.809,-37.109,-47.363,-102.051
1688664951.107,-40.527,-28.809,-32.715,-45.410,-129.883
1688664951.111,-36.133,-25.879,-34.180,-45.898,-28.809
1688664951.115,-29.785,-23.438,-36.621,-41.992,251.465
1688664951.118,-33.203,-27.344,-32.227,-33.691,134.277
1688664951.122,-39.062,-29.297,-28.809,-39.062,-173.828
1688664951.126,-39.062,-28.809,-30.273,-40.039,-115.723
1688664951.130,-40.039,-28.320,-27.832,-31.738,61.035
1688664951.134,-33.203,-27.832,-29.785,-39.062,15.137
1688664951.151,-29.785,-29.785,-34.668,-40.039,-124.023
1688664951.155,-29.785,-32.227,-30.273,-30.762,48.340
1688664951.159,-31.250,-28.809,-29.297,-38.086,236.816
1688664951.163,-31.250,-26.855,-31.250,-45.410,-30.273
1688664951.167,-31.738,-24.902,-28.809,-39.062,-108.887
1688664951.171,-32.715,-26.367,-25.879,-28.320,39.062
1688664951.175,-37.598,-31.250,-25.391,-31.250,104.004
1688664951.178,-38.086,-24.902,-30.273,-40.527,-24.902
1688664951.182,-34.180,-20.508,-30.273,-37.598,-171.387
1688664951.186,-33.203,-25.879,-29.785,-32.715,115.234
1688664951.190,-36.133,-25.879,-30.762,-34.180,199.219
1688664951.194,-31.738,-21.484,-27.344,-34.668,-124.023
1688664951.196,-20.508,-20.508,-26.367,-31.250,-96.191
1688664951.200,-35.645,-23.926,-28.809,-41.504,53.711
1688664951.204,-49.316,-25.879,-31.738,-45.898,-21.973
1688664951.208,-45.410,-26.855,-31.738,-45.898,-137.695
1688664951.212,-46.875,-31.738,-33.691,-43.945,-24.414
1688664951.216,-45.410,-29.785,-31.738,-31.738,102.051
1688664951.220,-32.715,-24.902,-25.391,-23.926,-32.227
1688664951.223,-28.320,-25.391,-28.320,-28.809,-186.523
1688664951.227,-30.273,-26.367,-27.832,-30.273,-78.613
1688664951.231,-14.648,-21.484,-23.438,-20.508,210.938
1688664951.235,-12.207,-22.949,-23.438,-27.344,20.508
1688664951.239,-28.320,-25.391,-22.461,-36.621,-178.711
1688664951.241,-22.949,-24.414,-18.555,-23.926,57.617
1688664951.245,-24.902,-25.879,-19.531,-17.578,154.297
1688664951.249,-38.086,-22.949,-23.438,-34.180,-113.770
1688664951.253,-32.715,-16.113,-27.832,-44.922,-207.031
1688664951.257,-20.996,-9.766,-27.344,-47.363,0.977
1688664951.261,-34.668,-14.160,-29.297,-57.129,46.875
1688664951.265,-50.781,-20.996,-35.645,-60.547,-87.891
1688664951.268,-49.316,-17.578,-32.715,-62.500,-148.926
1688664951.272,-46.387,-15.137,-33.691,-64.453,104.004
1688664951.276,-44.434,-17.578,-33.691,-58.105,203.613
1688664951.280,-41.504,-18.555,-25.391,-53.223,-163.086
1688664951.284,-51.758,-23.438,-23.926,-52.246,-203.125
1688664951.286,-50.293,-26.855,-25.879,-49.316,-129.395
1688664951.290,-58.105,-26.367,-26.367,-46.875,-110.840
1688664951.294,-62.500,-27.832,-26.367,-54.688,-135.742
1688664951.298,-47.852,-29.297,-24.414,-58.105,-116.699
1688664951.302,-49.316,-25.879,-23.926,-49.805,-15.137
1688664951.306,-35.156,-24.414,-23.926,-45.898,70.801
1688664951.310,-33.203,-28.809,-24.414,-55.176,-16.602
1688664951.313,-41.504,-29.297,-23.438,-52.734,14.160
1688664951.317,-39.551,-27.344,-23.926,-46.387,168.945
1688664951.321,-34.180,-29.297,-28.320,-36.133,34.668
1688664951.325,-21.484,-30.273,-29.785,-33.203,-102.539
1688664951.329,-26.855,-31.250,-25.391,-40.527,48.828
1688664951.331,-36.133,-31.250,-21.973,-30.762,403.320
1688664951.335,-28.320,-31.250,-22.461,-31.250,168.457
1688664951.339,-31.738,-28.320,-25.391,-33.203,-173.828
1688664951.343,-23.438,-27.344,-25.879,-34.668,-118.164
1688664951.347,-20.996,-28.809,-25.391,-41.992,-119.141
1688664951.351,-41.016,-28.809,-29.297,-43.457,-97.168
1688664951.355,-42.480,-27.344,-31.250,-46.875,-117.676
1688664951.358,-38.574,-27.344,-31.250,-35.645,100.586
1688664951.362,-20.996,-28.320,-28.320,-26.855,301.758
1688664951.366,-7.324,-27.832,-26.855,-38.086,-37.109
1688664951.370,-24.902,-27.344,-25.879,-45.898,-163.086
1688664951.374,-35.645,-22.949,-23.926,-45.898,-47.852
1688664951.376,-25.879,-26.367,-26.855,-41.504,-74.707
1688664951.380,-36.621,-32.227,-30.273,-41.016,-161.621
1688664951.384,-52.246,-33.203,-32.227,-43.457,-101.562
1688664951.388,-45.898,-35.156,-30.273,-40.039,-46.875
1688664951.392,-41.016,-35.645,-30.273,-44.434,-139.648
1688664951.396,-40.039,-28.809,-27.344,-37.598,-162.598
1688664951.400,-38.086,-24.414,-23.438,-23.926,34.180
1688664951.403,-13.184,-25.391,-22.949,-27.344,283.203
1688664951.407,-2.930,-26.855,-23.438,-36.621,45.898
1688664951.411,-27.832,-24.414,-21.484,-35.645,-239.746
1688664951.415,-37.598,-22.949,-24.902,-34.668,-156.250
1688664951.419,-32.227,-23.438,-32.715,-33.691,-44.922
1688664951.421,-30.273,-23.926,-30.762,-27.344,-43.945
1688664951.425,-31.250,-23.438,-26.367,-39.551,-159.180
1688664951.429,-42.480,-20.996,-25.391,-48.828,-0.977
1688664951.433,-56.641,-22.949,-29.785,-59.082,211.426
1688664951.437,-67.871,-27.832,-33.203,-69.824,-58.594
1688664951.441,-71.777,-23.926,-31.250,-78.125,-149.414
1688664951.445,-75.195,-23.438,-35.156,-80.078,125.488
1688664951.448,-77.637,-25.879,-37.109,-84.473,229.004
1688664951.452,-76.172,-29.297,-32.227,-86.914,-51.270
1688664951.456,-70.312,-33.691,-29.785,-81.543,-180.176
1688664951.460,-55.664,-33.691,-31.738,-82.520,-157.715
1688664951.464,-48.828,-31.250,-34.180,-77.637,-145.020
1688664951.467,-41.504,-25.879,-27.832,-55.664,-202.637
1688664951.471,-44.434,-28.320,-25.879,-49.805,-90.332
1688664951.475,-57.129,-36.133,-29.297,-59.082,120.605
1688664951.479,-62.500,-34.180,-24.902,-46.387,5.859
1688664951.483,-50.781,-33.691,-24.902,-53.711,-86.914
1688664951.487,-43.457,-31.250,-22.949,-61.523,30.762
1688664951.491,-49.805,-29.297,-19.043,-53.223,169.434
1688664951.494,-52.246,-35.645,-21.973,-47.852,41.504
1688664951.498,-49.805,-37.109,-25.879,-37.598,-151.855
1688664951.502,-37.598,-37.598,-23.926,-36.133,-50.781
1688664951.506,-36.133,-41.504,-20.020,-29.785,-13.672
1688664951.510,-49.316,-42.480,-23.926,-42.969,-136.719
1688664951.511,-42.480,-38.574,-25.391,-55.176,-123.047
1688664951.515,-26.367,-36.621,-20.020,-39.062,63.477
1688664951.519,-27.832,-35.156,-19.043,-23.438,81.543
1688664951.523,-28.809,-33.691,-20.020,-30.273,-165.039
1688664951.527,-28.809,-33.691,-21.973,-33.691,-167.969
1688664951.531,-37.109,-32.227,-22.461,-18.555,153.809
1688664951.535,-32.715,-32.715,-21.973,-14.648,354.004
1688664951.538,-41.992,-31.738,-20.996,-22.461,-79.102
1688664951.542,-33.203,-30.762,-20.020,-21.484,-259.766
1688664951.546,-14.160,-30.762,-18.555,-18.555,-123.535
1688664951.550,-25.391,-32.715,-17.090,-20.996,-74.219
1688664951.554,-24.902,-34.668,-14.160,-14.648,-154.785
1688664951.571,-22.949,-37.109,-14.648,-12.207,-123.047
1688664951.575,-28.320,-37.109,-20.020,-32.715,-64.453
1688664951.579,-33.203,-32.227,-20.508,-30.762,-118.652
1688664951.583,-34.180,-27.344,-14.648,-21.973,-140.625
1688664951.587,-21.973,-28.320,-13.672,-28.809,-41.992
1688664951.591,-31.738,-30.762,-16.602,-25.879,114.258
1688664951.595,-34.668,-31.250,-20.020,-26.367,141.602
1688664951.598,-29.785,-30.273,-20.996,-28.320,-5.371
1688664951.602,-30.273,-29.785,-21.973,-30.273,-75.684
1688664951.606,-23.438,-27.832,-21.484,-25.391,208.496
1688664951.610,-28.809,-28.809,-22.949,-21.484,125.000
1688664951.614,-32.715,-31.738,-28.320,-30.273,-107.422
1688664951.617,-28.320,-36.621,-32.227,-32.715,30.762
1688664951.621,-31.738,-37.109,-27.832,-29.785,114.746
1688664951.625,-33.691,-31.250,-26.367,-28.809,-92.773
1688664951.629,-31.738,-30.273,-30.273,-33.691,-187.500
1688664951.633,-40.527,-27.344,-31.738,-37.598,-118.652
1688664951.637,-40.039,-27.832,-28.320,-34.180,-97.656
1688664951.641,-33.691,-34.668,-26.855,-35.645,-29.785
1688664951.644,-29.785,-37.109,-31.738,-33.691,-96.680
1688664951.648,-35.645,-23.438,-29.785,-20.020,141.113
1688664951.652,-41.992,-13.184,-24.414,-27.344,347.168
1688664951.656,-43.945,-16.113,-25.879,-34.180,-111.328
1688664951.660,-40.527,-14.160,-26.367,-32.227,-225.586
1688664951.661,-40.527,-19.043,-28.809,-41.992,-124.023
1688664951.665,-43.457,-21.484,-29.785,-36.621,-138.672
1688664951.669,-41.016,-20.020,-25.879,-39.062,-145.508
1688664951.673,-42.480,-23.438,-24.902,-39.551,-118.164
1688664951.677,-32.227,-25.391,-19.043,-33.203,-136.230
1688664951.681,-32.227,-18.066,-14.648,-25.391,-62.012
1688664951.685,-20.996,-15.137,-17.578,-21.484,13.184
1688664951.688,-14.648,-19.531,-23.438,-31.250,-22.461
1688664951.692,-37.598,-24.414,-23.926,-48.828,142.090
1688664951.696,-45.898,-24.902,-23.926,-55.664,10.254
1688664951.700,-53.223,-23.438,-27.832,-53.223,-179.199
1688664951.704,-61.035,-22.949,-23.438,-46.387,93.262
1688664951.721,-50.293,-17.090,-21.484,-49.805,218.262
1688664951.725,-53.223,-19.531,-26.367,-60.547,-61.035
1688664951.729,-56.641,-25.391,-30.762,-63.965,-163.086
1688664951.733,-58.105,-22.461,-28.809,-58.105,71.777
1688664951.737,-49.805,-18.066,-23.926,-47.852,169.434
1688664951.741,-39.062,-20.020,-25.391,-60.547,17.090
1688664951.745,-31.738,-24.902,-28.320,-65.918,-31.250
1688664951.748,-35.645,-21.973,-28.320,-54.688,84.473
1688664951.752,-45.410,-21.484,-31.250,-48.340,166.504
1688664951.756,-38.574,-19.043,-26.367,-42.480,-156.250
1688664951.760,-37.109,-17.578,-22.461,-42.480,-249.023
1688664951.764,-44.434,-23.438,-22.949,-41.016,-177.246
1688664951.752,-46.387,-24.414,-23.438,-33.691,-202.148
1688664951.756,-40.039,-23.438,-24.902,-38.086,-200.195
1688664951.760,-37.598,-24.902,-22.949,-42.969,-72.754
1688664951.764,-26.367,-23.926,-21.484,-47.852,28.320
1688664951.768,-21.484,-22.461,-24.414,-43.457,-22.949
1688664951.772,-30.273,-23.926,-27.832,-40.039,-42.969
1688664951.776,-39.551,-26.855,-28.320,-46.875,90.332
1688664951.779,-47.363,-25.879,-25.391,-45.410,57.129
1688664951.783,-45.410,-24.902,-23.926,-35.156,-105.469
1688664951.787,-30.273,-25.391,-26.367,-30.273,-173.340
1688664951.791,-17.090,-25.391,-22.461,-22.461,-132.324
1688664951.795,-20.996,-21.973,-16.602,-21.973,333.496
1688664951.796,-31.250,-20.508,-15.137,-19.043,294.922
1688664951.800,-27.832,-25.879,-13.184,-25.391,-98.145
1688664951.804,-8.301,-21.484,-14.648,-32.715,-40.527
1688664951.808,-17.090,-16.602,-17.578,-32.715,-61.523
1688664951.812,-36.621,-21.973,-16.113,-39.551,-110.840
1688664951.816,-32.715,-25.391,-20.020,-39.551,-55.176
1688664951.820,-27.832,-23.438,-23.926,-27.344,223.145
1688664951.823,-18.066,-22.949,-21.484,-26.855,354.492
1688664951.827,-27.344,-26.367,-21.484,-38.086,-75.195
1688664951.831,-37.598,-31.250,-27.344,-34.180,-205.566
1688664951.835,-29.297,-33.203,-34.668,-41.016,-107.422
1688664951.839,-31.738,-31.738,-34.668,-37.598,-104.004
1688664951.841,-49.316,-38.574,-30.762,-40.039,-124.023
1688664951.845,-55.664,-44.434,-30.273,-43.457,-168.945
1688664951.849,-44.922,-43.945,-29.785,-32.227,-159.668
1688664951.853,-39.062,-40.527,-29.297,-33.691,-140.137
1688664951.857,-42.480,-40.039,-26.855,-29.297,-138.672
1688664951.861,-32.227,-39.551,-25.879,-29.297,72.266
1688664951.865,-20.996,-38.574,-31.250,-30.273,365.234
1688664951.868,-37.109,-43.945,-30.762,-24.902,167.969
1688664951.872,-32.715,-40.527,-25.879,-20.996,-154.785
1688664951.876,-21.973,-32.715,-22.949,-16.113,-80.078
1688664951.880,-24.414,-29.785,-21.484,-29.297,-14.160
1688664951.884,-24.414,-24.414,-17.090,-35.156,-99.121
1688664951.901,-33.203,-20.020,-14.160,-27.832,-134.277
1688664951.905,-25.879,-20.996,-17.090,-26.855,-38.086
1688664951.909,-25.879,-31.250,-24.902,-25.391,204.590
1688664951.913,-31.250,-37.109,-26.855,-29.785,-26.367
1688664951.917,-23.926,-30.762,-20.020,-34.180,-234.863
1688664951.921,-27.832,-26.855,-22.949,-34.668,-36.133
1688664951.925,-47.852,-27.832,-27.344,-39.062,35.645
1688664951.928,-50.293,-29.297,-26.367,-43.945,-104.980
1688664951.932,-34.668,-25.879,-29.297,-37.598,-210.938
1688664951.936,-29.297,-24.902,-31.250,-38.086,97.656
1688664951.940,-37.109,-25.391,-28.809,-41.504,241.211
1688664951.944,-46.875,-22.461,-27.832,-44.434,-106.934
1688664951.946,-32.227,-20.996,-29.297,-44.434,-129.395
1688664951.950,-33.203,-28.809,-30.762,-37.109,-44.922
1688664951.954,-48.828,-30.762,-29.785,-32.715,-110.352
1688664951.958,-43.945,-31.250,-28.809,-41.504,-223.633
1688664951.962,-45.410,-35.156,-28.320,-46.875,-114.258
1688664951.966,-46.875,-35.156,-26.367,-36.133,90.332
1688664951.970,-38.086,-38.086,-27.832,-37.109,74.707
1688664951.973,-44.434,-33.691,-28.320,-47.852,-52.246
1688664951.977,-45.410,-30.273,-26.855,-43.945,-21.973
1688664951.981,-45.898,-30.273,-23.438,-35.156,200.195
1688664951.985,-29.785,-30.273,-21.973,-36.133,2.441
1688664951.989,-22.949,-31.250,-22.461,-40.527,-166.992
1688664951.991,-46.875,-35.645,-20.996,-41.016,77.637
1688664951.995,-44.922,-41.504,-21.973,-32.715,247.070
1688664951.999,-47.852,-40.039,-21.973,-36.133,-55.176
1688664952.003,-50.293,-36.621,-21.484,-39.062,-170.410
1688664952.007,-33.203,-31.250,-21.973,-24.414,46.875
1688664952.011,-33.691,-32.715,-26.855,-28.320,104.980
1688664952.015,-42.969,-33.691,-25.879,-39.551,-105.469
1688664952.018,-47.363,-34.668,-23.926,-41.992,-243.652
1688664952.022,-49.805,-31.250,-23.438,-39.551,23.926
1688664952.026,-39.551,-26.855,-20.508,-36.133,177.246
1688664952.030,-27.344,-27.832,-22.949,-50.781,-128.418
1688664952.034,-20.508,-25.391,-25.879,-54.688,-193.848
1688664952.037,-16.113,-29.785,-23.438,-43.457,-168.457
1688664952.041,-17.578,-35.156,-20.508,-39.062,-193.359
1688664952.045,-42.969,-37.109,-23.926,-34.180,-157.715
1688664952.049,-45.898,-37.109,-24.902,-31.250,-150.879
1688664952.053,-43.457,-34.180,-26.855,-34.668,-99.121
1688664952.057,-46.387,-32.715,-28.320,-39.551,-83.496
1688664952.061,-29.785,-32.227,-27.344,-37.109,-95.703
1688664952.064,-24.902,-28.320,-25.879,-32.715,-30.762
1688664952.068,-30.762,-28.809,-22.949,-28.320,172.852
1688664952.072,-30.762,-31.738,-25.879,-30.273,4.883
1688664952.076,-44.434,-29.785,-32.715,-37.109,-286.133
1688664952.080,-35.645,-29.297,-34.180,-41.504,-8.789
1688664952.082,-29.297,-37.598,-36.133,-44.922,58.594
1688664952.086,-45.898,-38.086,-34.668,-39.062,-148.438
1688664952.090,-40.527,-33.691,-28.809,-37.598,-132.324
1688664952.094,-40.039,-32.715,-27.344,-40.039,14.160
1688664952.098,-48.828,-36.621,-30.273,-36.133,68.848
1688664952.102,-50.781,-41.016,-28.809,-37.109,-28.320
1688664952.106,-52.246,-36.621,-27.832,-46.387,-54.199
1688664952.109,-43.457,-34.668,-29.297,-40.527,57.129
1688664952.113,-34.180,-32.715,-29.297,-32.227,219.727
1688664952.117,-32.715,-34.180,-26.855,-41.016,-76.172
1688664952.121,-34.180,-34.180,-24.902,-38.574,-173.340
1688664952.125,-34.668,-26.367,-26.855,-26.855,-83.984
1688664952.126,-20.996,-23.926,-32.715,-14.648,-136.719
1688664952.130,-19.531,-26.855,-30.762,-22.949,-183.594
1688664952.134,-18.555,-33.691,-25.391,-34.668,-137.695
1688664952.138,-22.461,-37.598,-19.531,-32.227,-65.918
1688664952.142,-30.273,-41.992,-19.531,-28.809,-88.379
1688664952.146,-26.367,-50.781,-20.996,-17.578,-42.969
1688664952.150,-20.508,-49.805,-7.324,-0.977,-20.020
1688664952.153,-10.742,-48.340,3.418,5.859,294.434
1688664952.157,-11.719,-56.641,11.230,11.230,312.500
1688664952.161,0.000,-61.035,11.230,20.020,-130.859
1688664952.165,-3.906,-58.105,7.812,17.578,-105.469
1688664952.169,-12.207,-61.523,4.395,9.766,-32.227
1688664952.171,0.977,-63.477,3.906,16.602,-109.863
1688664952.175,0.977,-55.176,7.812,30.762,-161.133
1688664952.179,10.742,-51.758,6.836,33.691,18.555
1688664952.183,9.277,-51.270,5.371,32.715,112.305
1688664952.187,2.441,-49.805,1.953,23.438,-157.227
1688664952.191,4.395,-48.340,-0.977,15.137,-98.633
1688664952.195,3.906,-41.016,5.371,41.504,263.184
1688664952.198,15.137,-35.645,5.371,45.410,297.363
1688664952.202,28.809,-30.273,-0.488,25.879,-27.344
1688664952.206,20.508,-27.832,-0.488,14.648,-143.555
1688664952.210,-17.578,-35.645,-5.371,0.977,162.598
1688664952.214,-21.484,-38.086,-11.230,9.766,160.156
1688664952.216,-8.789,-37.598,-13.184,14.160,-121.094
1688664952.220,-17.090,-39.062,-14.648,6.836,-80.566
1688664952.224,-14.160,-36.621,-11.230,1.953,-7.324
1688664952.228,-15.137,-34.668,-10.742,-6.348,-14.160
1688664952.232,-15.137,-36.133,-9.277,0.488,-101.562
1688664952.236,-7.324,-35.156,-3.418,10.254,-41.992
1688664952.240,-19.531,-34.668,-2.441,10.254,159.668
1688664952.243,-20.508,-36.133,-6.348,-3.906,-17.578
1688664952.247,-18.066,-38.086,-11.719,-14.648,-221.680
1688664952.251,-36.133,-39.551,-15.625,-12.207,-84.961
1688664952.255,-37.109,-36.133,-17.578,-10.254,14.648
1688664952.259,-27.344,-36.133,-15.625,-15.625,1.465
1688664952.262,-28.809,-40.039,-17.578,-20.996,49.316
1688664952.266,-25.391,-36.133,-20.020,-14.648,219.727
1688664952.270,-26.367,-34.180,-19.043,-7.812,296.875
1688664952.274,-36.621,-36.621,-20.508,-21.484,-5.859
1688664952.278,-27.832,-37.598,-20.996,-29.297,-154.785
1688664952.282,-23.438,-40.039,-21.973,-30.762,-56.641
1688664952.286,-29.785,-39.551,-22.461,-32.227,27.344
1688664952.289,-27.832,-39.551,-21.973,-30.273,-53.223
1688664952.293,-32.227,-40.039,-20.996,-35.645,-131.348
1688664952.297,-26.855,-34.180,-19.043,-23.926,111.328
1688664952.301,-30.762,-30.762,-20.508,-19.043,97.656
1688664952.305,-29.297,-27.832,-20.996,-29.785,-231.445
1688664952.322,-30.273,-27.344,-15.137,-23.438,-205.078
1688664952.326,-33.691,-27.344,-15.625,-19.531,-99.121
1688664952.330,-34.668,-32.227,-20.020,-30.762,-51.270
1688664952.334,-42.969,-33.203,-21.484,-36.621,-97.656
1688664952.338,-30.762,-30.762,-19.531,-32.227,-121.094
1688664952.342,-31.738,-31.738,-20.996,-32.715,165.527
1688664952.346,-41.992,-29.785,-26.367,-36.621,159.668
1688664952.349,-35.645,-28.320,-26.367,-35.645,-83.496
1688664952.353,-21.484,-23.926,-28.320,-36.621,3.418
1688664952.357,-18.555,-20.996,-28.320,-39.551,142.578
1688664952.361,-11.230,-22.949,-26.367,-43.945,-63.477
1688664952.365,-22.949,-26.367,-24.414,-38.086,-164.062
1688664952.366,-31.738,-27.832,-18.555,-30.273,50.293
1688664952.370,-23.438,-25.391,-17.578,-27.832,159.180
1688664952.374,-29.297,-23.438,-15.625,-24.414,-100.098
1688664952.378,-23.438,-24.902,-14.160,-23.926,-223.633
1688664952.382,-20.508,-26.855,-11.719,-23.438,-109.375
1688664952.386,-21.973,-25.879,-11.719,-34.180,-65.918
1688664952.390,-27.832,-24.902,-16.602,-39.551,-57.617
1688664952.393,-28.809,-25.879,-20.508,-34.668,-109.375
1688664952.397,-28.809,-28.809,-23.438,-33.203,9.766
1688664952.401,-27.344,-32.227,-25.391,-26.367,247.070
1688664952.405,-19.043,-33.691,-24.414,-26.855,13.672
1688664952.409,-25.391,-33.203,-21.973,-34.180,-136.230
1688664952.411,-36.133,-29.297,-23.926,-35.156,-84.961
1688664952.415,-32.227,-28.809,-23.926,-37.109,-124.512
1688664952.419,-38.574,-33.203,-23.926,-37.109,-169.922
1688664952.423,-37.109,-30.762,-17.090,-34.668,-96.680
1688664952.427,-20.020,-27.832,-14.160,-33.691,-81.543
1688664952.431,-11.230,-28.320,-19.043,-35.645,-73.242
1688664952.435,-23.438,-32.227,-19.531,-34.180,12.207
1688664952.438,-53.223,-36.133,-20.508,-33.691,-5.859
1688664952.442,-53.223,-32.227,-19.531,-24.414,266.113
1688664952.446,-42.480,-30.273,-21.973,-17.578,225.098
1688664952.450,-39.551,-35.645,-27.832,-40.039,-188.477
1688664952.454,-27.344,-33.203,-22.949,-55.176,-50.293
1688664952.471,-29.297,-26.855,-19.531,-36.621,35.156
1688664952.475,-29.297,-29.785,-19.531,-25.879,-129.883
1688664952.479,-10.742,-32.227,-14.160,-33.691,-123.535
1688664952.483,-18.066,-31.738,-16.602,-24.902,-48.828
1688664952.487,-28.809,-30.762,-16.602,-25.391,-40.527
1688664952.491,-32.227,-29.297,-15.625,-27.344,-12.695
1688664952.495,-32.227,-29.785,-18.555,-25.391,-18.066
1688664952.498,-25.879,-27.344,-20.508,-27.832,161.621
1688664952.502,-21.973,-29.785,-27.344,-30.273,226.562
1688664952.506,-27.344,-34.668,-29.297,-40.527,-148.438
1688664952.510,-30.273,-30.273,-25.391,-34.180,-150.391
1688664952.514,-23.438,-28.320,-19.531,-23.926,-17.090
1688664952.501,-26.367,-27.832,-17.578,-30.762,-75.684
1688664952.505,-16.602,-27.832,-19.043,-37.598,-156.250
1688664952.509,-20.996,-33.203,-23.926,-45.898,-121.582
1688664952.513,-37.109,-33.203,-23.926,-40.527,-117.676
1688664952.517,-42.969,-32.227,-20.508,-33.691,-127.930
1688664952.521,-44.434,-36.621,-27.832,-44.434,-76.172
1688664952.525,-43.945,-39.062,-31.250,-42.480,85.449
1688664952.528,-47.363,-37.109,-24.902,-42.480,115.234
1688664952.532,-57.129,-41.504,-29.785,-47.852,-63.965
1688664952.536,-50.781,-45.410,-31.738,-33.203,-154.297
1688664952.540,-34.180,-40.039,-26.855,-29.785,-55.664
1688664952.544,-31.738,-38.574,-26.367,-39.062,348.633
1688664952.548,-44.434,-40.039,-26.367,-40.527,260.742
1688664952.552,-50.293,-38.574,-25.879,-40.039,-184.082
1688664952.556,-31.738,-40.527,-25.391,-29.297,-79.590
1688664952.560,-36.621,-43.945,-23.438,-35.156,76.660
1688664952.564,-47.852,-38.086,-19.043,-46.875,-106.445
1688664952.568,-37.598,-31.250,-17.090,-39.551,-157.715
1688664952.572,-21.484,-34.180,-20.020,-31.738,141.602
1688664952.575,-30.273,-37.598,-20.508,-35.645,265.137
1688664952.579,-41.504,-35.156,-18.066,-36.133,-120.605
1688664952.583,-29.297,-32.715,-20.508,-32.715,-216.309
1688664952.587,-36.133,-35.645,-21.973,-39.551,-141.602
1688664952.591,-45.410,-35.156,-21.973,-44.434,-146.973
1688664952.591,-45.898,-35.645,-23.438,-41.016,-144.043
1688664952.595,-38.086,-39.551,-20.996,-26.367,-116.211
1688664952.599,-35.156,-40.039,-22.461,-30.273,-52.734
1688664952.603,-25.391,-38.574,-24.414,-44.434,-10.742
1688664952.607,-28.809,-43.457,-23.438,-42.969,-83.496
1688664952.611,-40.039,-43.457,-26.367,-43.457,-26.855
1688664952.615,-33.691,-37.598,-26.855,-36.133,406.738
1688664952.618,-31.738,-37.109,-31.250,-38.086,347.168
1688664952.622,-26.367,-38.574,-30.762,-44.434,-146.484
1688664952.626,-27.832,-38.574,-27.832,-36.621,-121.094
1688664952.630,-35.645,-35.645,-26.855,-33.691,-129.395
1688664952.634,-41.016,-37.598,-20.996,-34.668,-92.285
1688664952.652,-50.781,-41.504,-24.414,-36.621,-65.918
1688664952.656,-46.387,-38.574,-25.391,-31.738,15.137
1688664952.660,-28.809,-38.086,-27.344,-32.227,118.164
1688664952.664,-25.879,-37.109,-26.367,-35.645,-149.902
1688664952.668,-31.250,-32.227,-20.020,-30.762,-152.832
1688664952.672,-18.066,-29.297,-17.090,-27.832,59.570
1688664952.676,-19.531,-28.320,-17.090,-29.297,127.930
1688664952.679,-27.832,-29.785,-16.602,-29.785,13.184
1688664952.683,-20.508,-28.320,-17.578,-30.273,-169.922
1688664952.687,-29.785,-26.855,-18.555,-24.902,61.523
1688664952.691,-33.691,-30.762,-19.043,-27.832,238.281
1688664952.695,-34.180,-31.250,-16.602,-34.668,-99.121
1688664952.696,-36.133,-27.344,-18.066,-28.320,-208.496
1688664952.700,-35.156,-26.367,-20.020,-33.691,-174.805
1688664952.704,-29.785,-29.297,-12.695,-39.062,-120.117
1688664952.708,-25.879,-33.691,-17.090,-40.039,-132.324
1688664952.712,-31.738,-36.133,-21.973,-36.621,-108.887
1688664952.716,-37.598,-32.715,-20.996,-34.180,-3.906
1688664952.720,-32.227,-32.227,-23.926,-40.039,-36.621
1688664952.723,-25.879,-29.785,-24.414,-31.738,-64.453
1688664952.727,-25.391,-26.367,-18.555,-17.578,-6.348
1688664952.731,-30.273,-29.785,-11.230,-10.742,280.762
1688664952.735,-31.250,-31.250,-12.695,-15.625,148.438
1688664952.739,-22.949,-33.691,-13.184,-15.625,-184.570
1688664952.741,-19.043,-33.691,-14.648,-2.441,-51.758
1688664952.745,-15.625,-29.297,-18.066,-0.977,157.715
1688664952.749,-7.324,-26.855,-14.160,3.418,-15.625
1688664952.753,-1.465,-28.320,-12.695,-9.277,-166.504
1688664952.757,-11.230,-27.344,-14.648,-22.461,-120.117
1688664952.761,-20.996,-26.367,-14.160,-13.184,-2.441
1688664952.765,-17.090,-26.367,-13.184,-5.859,122.559
1688664952.768,-15.137,-29.297,-12.207,1.465,-38.086
1688664952.772,-14.160,-31.738,-16.602,-8.789,66.895
1688664952.776,-13.184,-30.273,-17.578,-15.137,150.879
1688664952.780,-22.949,-31.250,-20.996,-14.648,-103.027
1688664952.784,-33.203,-32.227,-26.855,-15.625,-119.141
1688664952.786,-38.574,-30.273,-26.367,-19.531,-83.008
1688664952.790,-38.574,-29.297,-25.879,-30.273,-105.957
1688664952.794,-34.668,-33.203,-24.902,-30.273,-151.367
1688664952.798,-37.109,-31.738,-20.996,-24.902,-123.535
1688664952.802,-38.086,-24.902,-16.602,-26.855,-62.500
1688664952.806,-18.066,-23.438,-20.996,-26.855,3.906
1688664952.810,-6.348,-26.855,-27.344,-25.879,-29.297
1688664952.813,-16.602,-30.273,-27.832,-30.762,-63.965
1688664952.817,-32.227,-29.785,-25.879,-24.414,194.824
1688664952.821,-28.320,-28.809,-24.902,-24.902,112.793
1688664952.825,-14.648,-30.273,-24.414,-21.973,-189.941
1688664952.829,-22.461,-28.320,-20.996,-17.578,16.113
1688664952.832,-25.879,-28.320,-22.461,-29.297,166.504
1688664952.836,-18.066,-29.785,-22.949,-33.691,-64.453
1688664952.840,0.000,-26.367,-15.625,-29.785,-194.824
1688664952.844,13.184,-27.832,-16.113,-20.020,26.855
1688664952.848,-5.859,-26.367,-18.066,-6.348,140.137
1688664952.852,-36.133,-21.973,-20.996,-12.207,-105.957
1688664952.856,-44.922,-24.414,-24.902,-22.949,-114.746
1688664952.859,-40.527,-28.809,-20.020,-26.855,117.676
1688664952.863,-40.039,-25.879,-18.555,-31.250,198.242
1688664952.867,-29.785,-24.902,-27.344,-41.016,-76.172
1688664952.871,-25.391,-28.320,-28.809,-44.434,-179.688
1688664952.875,-39.062,-31.738,-25.879,-40.527,-117.676
1688664952.876,-43.945,-34.668,-26.855,-35.645,-121.582
1688664952.880,-39.062,-33.203,-23.926,-28.809,-169.922
1688664952.884,-33.203,-31.250,-19.531,-28.809,-177.734
1688664952.888,-23.926,-33.203,-20.996,-31.250,-70.801
1688664952.892,-35.156,-35.645,-27.832,-34.668,-89.355
1688664952.896,-36.621,-29.785,-24.902,-32.715,-64.941
1688664952.900,-32.715,-26.855,-24.902,-35.156,46.875
1688664952.903,-33.203,-30.273,-32.227,-28.320,327.148
1688664952.907,-35.156,-28.809,-26.855,-14.160,221.680
1688664952.911,-33.691,-28.320,-24.414,-20.508,-222.168
1688664952.915,-29.785,-29.297,-25.391,-33.203,-130.859
1688664952.919,-32.227,-29.785,-23.926,-38.574,37.109
1688664952.936,-17.090,-26.367,-23.926,-30.762,-47.852
1688664952.940,-15.137,-28.320,-20.508,-30.273,-213.867
1688664952.944,-25.879,-30.762,-24.414,-42.969,-37.109
1688664952.948,-33.691,-30.762,-32.227,-34.180,79.102
1688664952.952,-30.762,-28.809,-29.785,-22.949,-107.910
1688664952.956,-20.508,-25.879,-30.762,-31.738,-76.172
1688664952.960,-25.391,-26.367,-33.203,-29.785,170.410
1688664952.963,-40.527,-29.785,-25.391,-20.020,301.270
1688664952.967,-38.574,-32.715,-25.391,-31.250,-66.895
1688664952.971,-26.367,-32.227,-29.785,-39.551,-233.887
1688664952.975,-18.066,-29.297,-24.414,-33.203,-83.008
1688664952.979,-32.227,-28.320,-24.414,-21.973,-96.680
1688664952.981,-14.648,-28.809,-27.832,-27.832,-162.109
1688664952.985,-6.836,-30.762,-27.832,-37.109,-155.273
1688664952.989,-36.133,-38.086,-25.879,-27.832,-88.867
1688664952.993,-29.785,-40.039,-27.344,-22.461,-66.406
1688664952.997,-24.414,-39.062,-29.785,-36.133,-150.879
1688664953.001,-33.691,-40.527,-25.879,-38.086,-62.500
1688664953.005,-26.855,-39.062,-24.902,-19.531,94.727
1688664953.008,-23.438,-36.621,-26.367,-23.438,-25.879
1688664953.012,-24.902,-40.527,-30.762,-36.133,-74.219
1688664953.016,-23.926,-41.016,-31.738,-37.598,-0.488
1688664953.020,-29.297,-33.691,-28.809,-29.297,275.391
1688664953.024,-34.668,-28.809,-27.832,-18.555,239.746
1688664953.042,-29.297,-29.297,-24.414,-18.555,-140.625
1688664953.046,-18.555,-31.250,-22.949,-25.391,-52.734
1688664953.050,-26.367,-30.273,-27.832,-32.715,15.625
1688664953.054,-20.996,-31.738,-27.832,-35.156,-184.082
1688664953.058,-19.043,-31.250,-24.414,-35.645,-189.453
1688664953.062,-18.066,-27.832,-23.438,-23.926,186.035
1688664953.066,-6.836,-28.809,-24.414,-20.020,363.281
1688664953.069,-17.090,-34.180,-24.414,-30.273,-57.617
1688664953.073,-26.367,-34.180,-25.879,-33.203,-310.059
1688664953.077,-35.156,-35.156,-26.855,-26.367,-20.996
1688664953.081,-45.410,-37.109,-23.438,-22.461,142.090
1688664953.085,-38.086,-34.668,-25.879,-28.320,-55.176
1688664953.060,-31.738,-35.156,-32.227,-40.039,-145.996
1688664953.064,-36.133,-34.668,-31.250,-36.133,77.148
1688664953.068,-31.250,-32.715,-30.273,-30.762,151.855
1688664953.072,-34.668,-33.691,-27.344,-34.668,-150.391
1688664953.076,-19.531,-28.809,-20.996,-32.715,-124.512
1688664953.080,-14.648,-22.949,-22.461,-30.273,-27.344
1688664953.084,-30.762,-26.855,-27.344,-28.809,17.090
1688664953.087,-36.621,-35.156,-32.715,-42.969,-129.883
1688664953.091,-40.039,-35.645,-30.762,-43.945,-164.551
1688664953.095,-34.668,-31.250,-25.879,-35.156,-53.223
1688664953.099,-31.738,-31.738,-29.297,-46.387,-136.719
1688664953.103,-33.203,-31.738,-28.320,-52.734,-76.172
1688664953.116,-29.297,-25.391,-24.902,-40.039,131.836
1688664953.120,-39.062,-20.020,-20.020,-28.320,322.266
1688664953.124,-43.945,-20.996,-19.043,-24.902,53.711
1688664953.128,-30.762,-20.996,-17.090,-29.785,-191.406
1688664953.132,-27.832,-19.531,-15.625,-42.480,-21.484
1688664953.136,-34.180,-23.926,-24.902,-40.527,395.020
1688664953.140,-29.297,-25.879,-28.809,-23.438,309.082
1688664953.143,-27.344,-28.809,-25.879,-20.508,-177.734
1688664953.147,-17.090,-32.715,-22.461,-24.414,-79.102
1688664953.151,-13.184,-26.367,-23.438,-32.227,-65.430
1688664953.155,-25.879,-23.926,-26.855,-37.598,-294.922
1688664953.159,-10.254,-28.320,-23.438,-24.902,-229.980
1688664953.161,-6.348,-30.273,-26.367,-8.301,-108.398
1688664953.165,-7.324,-32.227,-31.250,9.277,-148.926
1688664953.169,1.953,-30.273,-28.320,13.184,-201.172
1688664953.173,-7.812,-36.133,-29.785,-0.488,-172.363
1688664953.177,-2.930,-43.945,-31.738,-10.254,-66.895
1688664953.181,-6.348,-44.434,-35.645,-16.113,-46.875
1688664953.185,-20.508,-42.969,-32.715,-18.066,-58.105
1688664953.188,-6.836,-39.062,-28.320,-13.184,-41.504
1688664953.192,-4.395,-38.574,-27.832,-15.137,224.121
1688664953.196,-9.766,-35.645,-27.832,-20.508,193.359
1688664953.200,-14.160,-32.227,-27.344,-14.160,-160.645
1688664953.204,-20.020,-30.273,-23.438,-4.883,35.156
1688664953.207,-18.066,-29.785,-26.855,-1.953,125.977
1688664953.211,-26.855,-29.297,-26.367,-16.602,-146.973
1688664953.215,-31.738,-28.320,-23.438,-24.902,-203.125
1688664953.219,-27.344,-35.156,-28.320,-25.391,6.348
1688664953.223,-20.996,-36.133,-25.879,-23.926,105.469
1688664953.227,-30.762,-35.156,-27.344,-23.438,-20.996
1688664953.231,-36.133,-39.062,-32.227,-31.738,-92.773
1688664953.234,-32.227,-34.668,-25.879,-27.832,71.289
1688664953.238,-27.344,-34.668,-24.902,-21.484,274.414
1688664953.242,-32.227,-37.109,-27.344,-28.809,6.836
1688664953.246,-24.414,-40.039,-28.320,-30.273,-121.094
1688664953.250,-27.832,-40.527,-33.691,-42.969,-103.516
1688664953.251,-43.457,-39.551,-28.320,-38.574,-179.688
1688664953.255,-35.645,-39.062,-30.273,-30.273,-189.453
1688664953.259,-25.879,-33.203,-35.156,-34.668,-97.656
1688664953.263,-26.855,-36.133,-31.250,-33.691,-28.809
1688664953.267,-29.785,-35.156,-23.926,-36.133,-79.102
1688664953.271,-36.133,-30.762,-25.879,-39.062,-97.656
1688664953.275,-47.363,-32.715,-33.691,-36.133,-16.113
1688664953.278,-39.551,-33.203,-30.762,-26.855,184.082
1688664953.282,-30.273,-32.715,-30.762,-26.367,105.957
1688664953.286,-23.926,-31.250,-33.203,-42.969,-128.418
1688664953.290,-34.180,-33.691,-37.598,-53.711,-48.828
1688664953.294,-19.043,-37.598,-34.668,-41.504,97.168
1688664953.296,-6.348,-31.738,-26.855,-32.715,-23.926
1688664953.300,-33.203,-32.715,-29.785,-28.809,-201.660
1688664953.304,-39.551,-37.598,-39.551,-26.367,-42.969
1688664953.308,-23.926,-37.109,-37.109,-20.020,29.297
1688664953.312,-23.926,-37.598,-31.738,-29.297,-164.062
1688664953.316,-30.762,-42.969,-33.691,-37.598,-100.098
1688664953.320,-25.391,-42.480,-29.297,-27.344,245.605
1688664953.323,-26.367,-39.551,-26.367,-29.297,296.387
1688664953.327,-36.621,-41.016,-34.180,-43.457,-72.266
1688664953.331,-36.621,-35.156,-34.180,-47.852,-134.277
1688664953.335,-38.574,-28.809,-26.367,-37.598,-131.836
1688664953.339,-39.551,-29.297,-27.344,-29.297,-77.148
1688664953.341,-41.992,-33.203,-30.273,-30.273,-102.539
1688664953.345,-36.621,-38.574,-31.738,-32.715,-163.574
1688664953.349,-30.762,-36.133,-29.297,-35.645,-56.641
1688664953.353,-27.832,-31.738,-21.973,-36.133,-76.172
1688664953.357,-20.508,-32.227,-22.461,-23.926,-100.098
1688664953.361,-17.090,-28.809,-27.344,-16.113,23.926
1688664953.365,-32.227,-27.832,-26.855,-28.809,211.426
1688664953.368,-46.875,-33.203,-28.809,-45.410,27.832
1688664953.372,-41.992,-32.227,-30.273,-43.945,-191.406
1688664953.376,-38.086,-29.297,-30.273,-33.691,-69.336
1688664953.380,-39.062,-30.273,-32.227,-35.645,-42.480
1688664953.384,-42.480,-29.785,-24.902,-39.062,-62.012
1688664953.388,-42.480,-31.738,-28.320,-37.598,-113.770
1688664953.392,-34.668,-34.180,-35.645,-47.852,-14.648
1688664953.396,-24.414,-30.273,-28.320,-43.457,253.418
1688664953.400,-33.691,-26.367,-28.809,-34.180,38.574
1688664953.404,-39.551,-31.250,-35.156,-46.875,-168.945
1688664953.408,-46.875,-32.227,-33.691,-51.270,74.707
1688664953.412,-49.316,-33.691,-33.691,-52.734,172.363
1688664953.415,-28.320,-39.062,-31.738,-52.734,-112.793
1688664953.419,-26.367,-38.086,-33.691,-39.551,-202.637
1688664953.423,-42.969,-37.109,-36.621,-31.738,-24.902
1688664953.427,-44.434,-34.668,-34.668,-28.320,-35.645
1688664953.431,-44.922,-38.086,-38.086,-31.250,-202.148
1688664953.446,-35.645,-39.551,-36.133,-38.574,-139.648
1688664953.450,-23.926,-32.715,-32.227,-45.898,-87.402
1688664953.454,-29.297,-28.320,-35.156,-57.617,-107.910
1688664953.458,-52.734,-30.762,-40.039,-64.941,-152.832
1688664953.462,-52.734,-32.227,-38.086,-66.895,-104.492
1688664953.466,-44.434,-36.621,-34.180,-57.129,264.160
1688664953.470,-67.871,-39.062,-40.527,-61.523,272.949
1688664953.473,-79.102,-39.062,-41.016,-83.984,-166.016
1688664953.477,-73.730,-35.156,-40.527,-84.961,-137.695
1688664953.481,-67.871,-31.250,-42.480,-75.684,17.090
1688664953.485,-51.758,-36.621,-38.086,-62.012,-82.031
1688664953.489,-49.805,-38.086,-40.527,-70.312,-28.320
1688664953.491,-60.547,-39.551,-41.504,-73.242,168.945
1688664953.495,-62.500,-42.480,-43.457,-59.570,122.559
1688664953.499,-56.152,-43.457,-45.898,-55.664,-91.309
1688664953.503,-52.246,-47.363,-36.133,-48.340,-116.699
1688664953.507,-51.758,-46.875,-33.691,-53.711,-67.871
1688664953.511,-44.922,-45.410,-38.086,-51.758,-3.906
1688664953.515,-45.410,-42.480,-34.668,-47.363,-19.531
1688664953.518,-46.875,-39.062,-35.645,-45.898,-122.559
1688664953.522,-25.391,-40.527,-35.156,-45.898,123.535
1688664953.526,-15.137,-33.691,-29.785,-47.363,365.234
1688664953.530,-24.902,-34.668,-29.785,-43.457,41.016
1688664953.534,-30.762,-39.551,-32.227,-37.598,-186.035
1688664953.536,-32.715,-35.645,-34.180,-36.621,-143.066
1688664953.540,-44.434,-34.668,-40.039,-40.527,-116.211
1688664953.544,-49.805,-39.551,-45.410,-43.457,-158.691
1688664953.548,-37.109,-41.992,-36.133,-37.598,-154.297
1688664953.552,-38.086,-37.109,-32.715,-36.133,-119.629
1688664953.556,-42.480,-36.133,-36.621,-41.992,-56.152
1688664953.560,-29.785,-36.621,-30.273,-37.109,22.949
1688664953.563,-36.621,-32.227,-26.855,-29.297,-0.488
1688664953.567,-35.645,-29.297,-26.855,-31.250,157.715
1688664953.571,-36.621,-33.691,-27.832,-33.691,147.949
1688664953.575,-40.527,-38.574,-30.273,-23.438,-164.062
1688664953.579,-40.527,-37.598,-26.855,-26.855,-62.500
1688664953.581,-48.340,-35.156,-25.391,-30.273,199.219
1688664953.585,-43.457,-32.715,-26.367,-31.738,6.348
1688664953.589,-38.086,-33.203,-21.973,-30.762,-153.809
1688664953.593,-34.180,-35.645,-21.484,-18.066,-108.887
1688664953.597,-27.344,-32.227,-24.414,-29.297,-111.816
1688664953.601,-22.461,-32.715,-16.602,-34.180,-29.297
1688664953.605,-18.555,-34.180,-15.625,-27.344,2.930
1688664953.608,-19.043,-27.344,-21.484,-25.391,50.293
1688664953.612,-28.320,-19.043,-16.113,-19.043,42.480
1688664953.616,-27.832,-19.531,-18.555,-15.625,-226.074
1688664953.620,-20.020,-16.602,-18.066,-12.695,-187.500
1688664953.624,-1.465,-11.719,-10.254,1.465,17.578
1688664953.626,-1.465,-13.184,-10.742,-9.277,-10.742
1688664953.630,-16.113,-10.742,-13.184,-30.762,-220.703
1688664953.634,-19.043,-4.883,-10.254,-21.973,-179.199
1688664953.638,-10.742,-6.348,-8.789,-5.859,-26.855
1688664953.642,-6.836,-11.719,-11.719,-0.488,-50.293
1688664953.646,-15.137,-16.602,-15.137,-12.695,-47.363
1688664953.650,-18.066,-20.020,-18.555,-33.691,10.742
1688664953.653,-21.973,-22.461,-18.066,-30.762,27.832
1688664953.657,-20.996,-20.020,-16.113,-23.926,-35.156
1688664953.661,-18.555,-20.508,-22.461,-27.832,-188.477
1688664953.665,-21.973,-18.555,-21.484,-23.438,-91.309
1688664953.669,-18.066,-19.043,-15.625,-13.672,258.301
1688664953.672,-19.531,-20.508,-22.949,-20.996,88.867
1688664953.676,-22.461,-20.020,-32.715,-25.879,-187.988
1688664953.680,-21.973,-20.996,-29.297,-15.137,97.656
1688664953.684,-11.719,-19.043,-23.438,-12.695,285.645
1688664953.688,-17.578,-18.066,-25.391,-27.832,-36.621
1688664953.692,-41.992,-22.949,-27.832,-40.527,-217.773
1688664953.696,-42.969,-31.250,-32.715,-40.527,104.004
1688664953.699,-31.738,-35.156,-35.156,-31.250,237.305
1688664953.703,-13.184,-30.273,-28.320,-26.367,-108.887
1688664953.707,-9.766,-19.531,-24.414,-28.809,-203.613
1688664953.711,-5.859,-20.508,-29.785,-30.762,-175.293
1688664953.715,-2.930,-26.367,-34.180,-20.020,-185.547
1688664953.716,-12.207,-26.367,-33.203,-25.879,-218.750
1688664953.720,-21.484,-28.809,-27.344,-23.926,-186.035
1688664953.724,-23.438,-30.273,-27.832,-5.859,-109.863
1688664953.728,-17.578,-34.668,-31.250,-4.883,-80.078
1688664953.732,-25.879,-38.574,-31.738,-8.301,-63.965
1688664953.736,-34.180,-38.574,-32.715,-27.344,-4.883
1688664953.740,-25.879,-39.062,-36.133,-18.066,297.363
1688664953.743,-23.926,-35.156,-31.738,-4.395,272.949
1688664953.747,-26.367,-34.180,-32.227,-13.184,-144.531
1688664953.751,-24.902,-33.203,-35.645,-14.160,-112.305
1688664953.755,-32.227,-30.762,-31.738,-8.301,-35.645
1688664953.759,-34.668,-35.645,-37.598,-14.648,-24.902
1688664953.762,-20.508,-33.691,-35.156,-24.902,-102.051
1688664953.766,-8.789,-31.250,-28.809,-19.531,-40.039
1688664953.770,-15.625,-32.227,-31.738,-22.461,158.691
1688664953.774,-24.902,-27.832,-30.273,-28.809,-62.988
1688664953.778,-21.484,-33.691,-21.973,-20.508,-163.086
1688664953.782,-18.555,-38.086,-21.973,-17.578,60.059
1688664953.786,-37.598,-33.203,-22.461,-29.785,154.297
1688664953.789,-30.762,-31.250,-20.996,-34.180,-27.832
1688664953.793,-12.695,-28.320,-24.414,-12.695,-163.574
1688664953.797,-24.902,-29.297,-27.832,-8.301,75.195
1688664953.801,-25.391,-33.203,-31.250,-14.648,226.562
1688664953.805,-27.344,-31.250,-34.180,-26.367,-144.531
1688664953.836,-40.527,-28.809,-38.086,-39.062,-188.477
1688664953.840,-34.668,-30.762,-38.086,-38.086,-116.211
1688664953.844,-21.973,-31.250,-35.156,-33.203,-95.703
1688664953.848,-23.438,-34.180,-35.645,-30.762,-93.262
1688664953.852,-36.133,-37.109,-32.227,-37.109,-90.332
1688664953.856,-40.527,-33.203,-36.621,-41.504,4.883
1688664953.860,-37.598,-30.273,-35.156,-34.668,16.602
1688664953.863,-25.879,-33.203,-27.832,-28.320,-38.086
1688664953.867,-25.879,-36.621,-30.273,-30.273,-12.207
1688664953.871,-32.227,-37.598,-30.762,-35.156,150.391
1688664953.875,-32.715,-39.551,-31.738,-36.133,15.137
1688664953.879,-26.855,-36.133,-24.902,-26.855,-172.363
1688664953.866,-27.832,-32.227,-23.438,-29.297,-18.066
1688664953.870,-43.457,-35.156,-31.250,-34.180,202.637
1688664953.874,-41.504,-35.156,-31.250,-37.109,-16.113
1688664953.878,-40.527,-32.715,-33.203,-42.480,-224.121
1688664953.882,-34.180,-31.250,-32.715,-31.250,-142.090
1688664953.886,-26.367,-27.832,-29.297,-28.809,-3.906
1688664953.890,-20.508,-29.785,-32.227,-35.156,-2.930
1688664953.893,-15.625,-31.738,-30.273,-26.855,-129.883
1688664953.897,-14.648,-29.785,-28.809,-28.320,-104.492
1688664953.901,-26.367,-30.273,-31.738,-31.738,-104.980
1688664953.905,-42.480,-35.645,-28.320,-33.203,-175.781
1688664953.909,-43.945,-40.039,-27.832,-35.156,-208.984
1688664953.913,-36.621,-38.574,-34.180,-34.180,115.723
1688664953.917,-57.129,-40.527,-38.086,-36.133,321.777
1688664953.921,-58.105,-40.527,-36.133,-36.133,-67.383
1688664953.925,-36.133,-35.156,-35.645,-42.480,-172.852
1688664953.929,-32.227,-33.691,-33.691,-42.480,-84.961
1688664953.933,-15.625,-31.738,-32.227,-39.062,-61.523
1688664953.937,-12.207,-32.227,-37.598,-37.109,-85.449
1688664953.940,-23.438,-31.250,-40.039,-34.668,-87.891
1688664953.944,-26.367,-25.391,-35.645,-24.902,160.156
1688664953.948,-33.691,-23.926,-30.273,-21.973,107.422
1688664953.952,-29.785,-23.926,-29.297,-24.414,-160.156
1688664953.956,-13.672,-20.508,-28.320,-28.809,5.859
1688664953.957,-19.531,-21.973,-30.762,-38.086,106.934
1688664953.961,-32.227,-20.020,-28.809,-34.668,-97.656
1688664953.965,-23.438,-17.090,-24.902,-30.273,-44.922
1688664953.969,-22.461,-18.066,-27.344,-30.273,95.703
1688664953.973,-37.598,-18.066,-28.320,-32.715,17.578
1688664953.977,-38.086,-19.531,-26.367,-31.250,-71.777
1688664953.981,-29.785,-22.949,-27.832,-28.320,-145.020
1688664953.984,-32.715,-23.438,-31.250,-33.203,55.176
1688664953.988,-34.180,-30.273,-33.691,-29.785,449.219
1688664953.992,-34.668,-34.180,-33.203,-36.621,77.637
1688664953.996,-28.320,-35.645,-29.785,-39.551,-219.727
1688664954.000,-22.949,-31.250,-29.297,-37.598,-126.953
1688664954.001,-22.949,-25.879,-36.133,-45.410,-138.672
1688664954.005,-25.391,-32.227,-32.715,-43.945,-143.555
1688664954.009,-33.691,-34.668,-27.344,-42.480,-129.883
1688664954.013,-28.809,-35.156,-30.273,-52.246,-116.211
1688664954.017,-38.086,-38.086,-30.762,-43.945,-94.727
1688664954.021,-45.898,-40.527,-28.809,-41.504,23.926
1688664954.025,-48.340,-41.016,-24.414,-37.109,79.590
1688664954.028,-49.805,-40.527,-24.414,-27.832,309.570
1688664954.032,-57.129,-41.504,-23.438,-37.109,215.332
1688664954.036,-61.523,-46.387,-25.879,-49.316,-188.965
1688664954.040,-63.965,-48.828,-29.297,-36.621,-125.977
1688664954.044,-63.965,-43.457,-25.391,-37.109,-18.066
1688664954.046,-57.617,-40.039,-30.273,-61.523,-80.078
1688664954.050,-49.316,-39.062,-33.203,-62.500,-239.258
1688664954.054,-47.852,-40.527,-31.738,-49.805,-124.023
1688664954.058,-45.898,-35.645,-32.715,-41.504,45.410
1688664954.062,-33.203,-33.203,-33.203,-41.016,-133.301
1688664954.066,-34.668,-35.645,-34.668,-41.992,-190.918
1688664954.070,-34.668,-34.180,-30.762,-30.762,131.348
1688664954.073,-31.250,-33.691,-26.367,-27.832,287.109
1688664954.077,-40.527,-32.227,-29.297,-34.180,-78.613
1688664954.081,-19.531,-32.227,-29.297,-23.438,-210.938
1688664954.085,2.441,-30.762,-24.414,-13.184,-92.773
1688664954.089,-15.137,-25.879,-21.973,-16.113,-121.582
1688664954.091,-31.250,-24.414,-22.949,-25.879,-230.469
1688664954.095,-26.855,-29.297,-28.809,-33.691,-182.617
1688664954.099,-32.227,-32.715,-27.344,-29.785,-69.824
1688664954.103,-26.855,-34.668,-22.461,-27.344,-80.078
1688664954.107,-22.461,-37.109,-28.809,-34.180,-206.055
1688664954.111,-33.203,-32.227,-31.250,-32.715,-100.586
1688664954.115,-35.645,-28.809,-34.180,-22.949,276.855
1688664954.118,-37.109,-30.762,-32.227,-28.809,138.184
1688664954.122,-44.922,-30.273,-31.738,-41.504,-202.148
1688664954.126,-41.504,-28.320,-37.109,-34.668,-105.957
1688664954.130,-29.785,-26.855,-38.574,-29.297,14.648
1688664954.134,-27.832,-29.785,-39.062,-40.039,-93.262
1688664954.166,-27.832,-37.109,-36.621,-42.480,-187.500
1688664954.170,-43.457,-38.086,-29.297,-48.340,-46.387
1688664954.174,-65.918,-32.715,-30.273,-56.152,108.887
1688664954.178,-62.500,-25.879,-27.344,-41.504,-62.988
1688664954.182,-40.527,-31.738,-27.344,-31.738,-205.566
1688664954.186,-29.297,-37.598,-32.227,-33.203,56.152
1688664954.190,-43.945,-22.949,-38.086,-45.410,297.363
1688664954.193,-63.965,-20.020,-44.434,-78.613,29.785
1688664954.197,-87.402,-25.879,-43.457,-92.773,-131.348
1688664954.201,-92.285,-25.391,-45.898,-99.609,9.766
1688664954.205,-105.469,-22.949,-55.664,-123.535,53.223
1688664954.209,-114.258,-17.578,-63.965,-146.484,-80.078
1688664954.186,-121.094,-15.625,-68.848,-161.621,-89.355
1688664954.190,-151.367,-16.113,-73.730,-169.434,220.215
1688664954.194,-171.875,-14.648,-76.172,-175.781,231.445
1688664954.198,-173.340,-10.742,-87.891,-193.359,-92.773
1688664954.202,-171.875,-13.672,-86.426,-195.312,-85.938
1688664954.206,-177.734,-14.160,-83.984,-205.566,32.715
1688664954.210,-187.500,-13.184,-87.402,-218.262,-24.414
1688664954.213,-184.082,-17.578,-86.914,-218.262,-154.297
1688664954.217,-172.363,-17.578,-86.914,-207.031,-47.852
1688664954.221,-143.555,-16.602,-85.449,-196.777,81.055
1688664954.225,-137.695,-17.578,-83.008,-193.848,-52.734
1688664954.229,-132.324,-16.602,-76.172,-171.387,-127.441
1688664954.257,-108.887,-18.555,-74.219,-146.973,62.500
1688664954.261,-99.609,-26.855,-69.336,-134.277,186.523
1688664954.265,-87.402,-34.180,-65.918,-121.094,24.902
1688664954.269,-77.637,-33.691,-64.453,-107.910,-92.285
1688664954.273,-64.941,-37.109,-62.012,-96.680,8.301
1688664954.277,-56.641,-44.922,-56.152,-75.684,498.535
1688664954.281,-35.645,-46.387,-47.852,-52.246,500.000
1688664954.284,-27.344,-43.945,-47.852,-51.758,-51.758
1688664954.288,-36.133,-45.898,-47.852,-51.758,-209.473
1688664954.292,-30.273,-43.945,-43.945,-46.875,-186.523
1688664954.296,-19.531,-39.551,-38.574,-38.574,-269.531
1688664954.300,-22.461,-37.598,-35.645,-28.809,-202.637
1688664954.286,-21.973,-32.227,-37.109,-36.133,-82.031
1688664954.290,-12.207,-30.273,-38.086,-26.367,-99.609
1688664954.294,-31.250,-37.598,-40.039,-23.926,-172.363
1688664954.298,-33.691,-40.527,-39.062,-27.832,-186.035
1688664954.302,-13.672,-37.598,-41.016,-17.090,-101.074
1688664954.306,-10.254,-40.527,-41.992,-14.160,16.602
1688664954.310,-8.789,-45.410,-39.062,-11.719,-2.930
1688664954.313,-8.789,-46.875,-42.480,-11.719,11.230
1688664954.317,-5.859,-41.992,-38.086,-10.254,40.527
1688664954.321,-0.977,-34.180,-32.715,-2.441,-50.781
1688664954.325,-11.230,-30.762,-34.180,-6.836,-152.832
1688664954.329,-15.137,-32.715,-37.598,-20.508,-75.684
1688664954.331,-3.906,-33.203,-39.062,-20.020,364.258
1688664954.335,-5.859,-33.203,-39.551,-9.766,323.242
1688664954.339,-26.855,-34.668,-38.086,-5.859,-117.188
1688664954.343,-21.484,-37.109,-37.109,-8.789,-76.660
1688664954.347,-17.090,-38.574,-40.527,-12.207,-87.891
1688664954.351,-34.668,-36.621,-36.621,-19.043,-65.430
1688664954.355,-25.879,-35.645,-32.227,-22.949,14.160
1688664954.358,-22.461,-37.109,-35.645,-20.508,59.082
1688664954.362,-14.160,-39.062,-37.109,-9.766,283.203
1688664954.366,-5.859,-35.645,-32.715,-6.348,61.035
1688664954.370,-14.160,-31.250,-31.250,-18.555,-153.809
1688664954.374,-25.879,-34.668,-36.133,-38.574,-130.859
1688664954.376,-43.457,-36.621,-35.645,-41.504,-120.117
1688664954.380,-46.387,-33.691,-36.133,-33.203,-153.809
1688664954.384,-28.320,-32.715,-41.504,-33.691,-151.855
1688664954.388,-24.414,-30.762,-41.992,-26.855,-93.750
1688664954.392,-16.113,-31.738,-38.574,-25.879,-105.957
1688664954.396,-12.207,-34.180,-36.621,-28.320,-77.637
1688664954.400,-26.367,-31.738,-35.156,-24.414,86.426
1688664954.403,-20.508,-29.785,-33.203,-29.297,203.125
1688664954.407,-22.461,-32.715,-34.668,-31.738,9.766
1688664954.411,-35.156,-35.156,-38.574,-28.320,-208.008
1688664954.415,-30.762,-32.715,-36.133,-24.414,-23.438
1688664954.419,-20.996,-27.832,-37.109,-22.949,308.105
1688664954.421,-22.461,-24.902,-39.551,-26.855,86.426
1688664954.425,-24.902,-27.344,-41.016,-29.785,-203.613
1688664954.429,-30.273,-29.785,-36.621,-26.855,-70.312
1688664954.433,-44.922,-34.180,-30.273,-26.855,125.000
1688664954.437,-45.898,-31.738,-32.227,-33.203,-40.527
1688664954.441,-39.551,-30.762,-31.738,-39.551,-129.395
1688664954.445,-38.574,-36.133,-28.809,-39.062,170.410
1688664954.448,-47.852,-37.598,-30.273,-42.969,228.027
1688664954.452,-58.594,-34.668,-35.156,-51.270,-185.059
1688664954.456,-53.711,-35.156,-37.598,-56.641,-249.023
1688664954.460,-49.316,-37.109,-44.922,-58.105,-130.859
1688664954.464,-50.781,-32.715,-55.176,-58.105,-141.113
1688664954.468,-37.598,-29.785,-51.270,-52.246,-178.711
1688664954.472,-34.180,-31.250,-42.480,-41.992,-134.277
1688664954.476,-42.969,-32.715,-40.527,-38.086,-2.930
