timestamps,TP9,AF7,AF8,TP10,Right AUX
1690198116.990,-54.199,-41.016,-32.227,-32.227,-38.574
1690198116.994,-45.898,-48.828,-30.762,-49.316,-145.508
1690198116.998,-10.254,-47.852,-31.738,-33.691,1.465
1690198117.002,2.441,-42.969,-43.457,-15.625,-17.090
1690198117.006,-14.160,-47.363,-41.016,-23.926,-103.027
1690198117.010,-48.828,-41.504,-33.691,-44.434,-44.434
1690198117.014,-63.965,-31.738,-42.480,-62.988,220.703
1690198117.017,-52.246,-30.273,-51.270,-74.219,34.668
1690198117.021,-24.902,-27.832,-45.410,-59.570,-135.742
1690198117.025,-11.230,-31.738,-40.527,-26.855,-45.410
1690198117.029,-44.434,-30.762,-40.039,-28.809,-7.324
1690198117.033,-69.824,-26.367,-34.668,-64.453,7.324
1690198117.036,-49.316,-31.738,-38.574,-65.430,-120.605
1690198117.040,-15.137,-37.109,-44.922,-21.973,73.242
1690198117.044,0.488,-35.156,-40.039,0.000,325.195
1690198117.048,-24.902,-32.227,-39.062,-23.438,10.254
1690198117.052,-50.293,-37.598,-38.574,-64.453,-150.879
1690198117.056,-32.227,-39.551,-29.785,-61.035,17.578
1690198117.060,-5.859,-33.691,-28.320,-20.020,48.828
1690198117.063,1.465,-29.297,-31.738,-0.977,-1.465
1690198117.067,-18.066,-27.832,-29.785,-20.020,-45.898
1690198117.071,-38.086,-33.691,-25.391,-40.039,3.418
1690198117.075,-32.227,-37.109,-31.738,-49.805,0.977
1690198117.079,-15.137,-38.086,-39.551,-27.344,-161.621
1690198117.095,-3.418,-30.762,-30.762,6.348,-122.070
1690198117.099,-11.719,-40.039,-32.715,-7.324,-24.902
1690198117.103,-34.668,-52.246,-33.691,-32.715,-122.070
1690198117.107,-38.574,-40.527,-33.691,-42.969,-128.418
1690198117.111,-8.301,-32.715,-38.086,-22.949,2.930
1690198117.115,16.602,-30.273,-36.133,20.508,256.348
1690198117.119,-7.812,-36.133,-33.203,19.531,233.398
1690198117.122,-47.363,-38.574,-34.668,-20.508,-40.039
1690198117.126,-39.551,-38.574,-33.691,-37.598,-62.500
1690198117.130,-14.648,-43.945,-30.273,-7.812,182.129
1690198117.134,-7.324,-40.527,-32.715,11.230,63.965
1690198117.138,-11.230,-37.598,-34.668,-0.488,-87.891
1690198117.140,-35.156,-36.133,-33.691,-27.344,15.137
1690198117.144,-39.062,-30.273,-33.691,-33.691,75.684
1690198117.148,-24.902,-28.320,-35.156,-14.160,-84.473
1690198117.152,-19.043,-36.621,-34.180,2.930,-118.652
1690198117.156,-12.695,-39.062,-28.320,17.578,0.977
1690198117.160,-40.527,-36.621,-26.855,-12.207,55.664
1690198117.164,-54.199,-34.668,-26.855,-35.645,-10.742
1690198117.167,-27.344,-36.133,-28.809,-17.090,-74.219
1690198117.171,-15.625,-40.039,-29.785,17.578,143.555
1690198117.175,-19.531,-40.527,-29.297,35.156,351.562
1690198117.179,-42.480,-36.133,-33.691,-11.719,-17.578
1690198117.183,-65.918,-40.039,-33.203,-36.621,-179.688
1690198117.185,-44.434,-41.992,-36.621,-16.113,-77.637
1690198117.189,-7.812,-40.527,-38.086,17.090,-95.215
1690198117.193,4.395,-46.387,-34.668,22.949,-90.332
1690198117.197,-31.250,-44.922,-32.227,-20.996,-98.633
1690198117.201,-53.223,-40.527,-31.250,-55.176,-97.168
1690198117.205,-36.133,-37.598,-29.785,-31.250,-23.926
1690198117.209,-13.184,-35.156,-29.785,8.789,11.230
1690198117.212,-12.695,-36.621,-27.344,2.930,6.348
1690198117.216,-35.645,-42.480,-28.320,-10.742,295.410
1690198117.220,-45.410,-43.457,-33.691,-48.828,104.492
1690198117.224,-39.551,-41.016,-35.156,-67.383,-237.793
1690198117.228,-7.812,-42.480,-31.250,-10.742,-8.789
1690198117.230,6.836,-40.039,-29.785,16.113,284.180
1690198117.234,-33.203,-38.086,-41.016,-20.996,32.227
1690198117.238,-44.434,-37.598,-42.480,-65.918,-198.242
1690198117.242,-17.578,-35.645,-37.109,-60.059,-181.152
1690198117.246,3.418,-35.645,-36.133,-13.672,-128.906
1690198117.250,-4.395,-37.598,-32.227,14.160,-57.129
1690198117.254,-23.438,-39.551,-32.715,-13.184,-80.566
1690198117.257,-37.109,-41.992,-35.645,-34.180,4.395
1690198117.261,-38.574,-43.457,-36.133,-42.969,-25.879
1690198117.265,-27.344,-41.016,-35.156,-25.391,-217.773
1690198117.269,-5.371,-36.133,-30.762,23.438,-179.688
1690198117.273,0.977,-40.039,-30.273,24.902,172.363
1690198117.275,-29.785,-43.945,-31.250,-30.273,81.543
1690198117.279,-46.387,-39.062,-32.227,-58.594,-219.238
1690198117.283,-18.555,-36.621,-33.691,-30.273,-175.293
1690198117.287,-2.441,-38.574,-36.621,-6.348,-54.688
1690198117.291,-24.414,-37.109,-35.645,-1.465,-5.371
1690198117.295,-35.156,-27.832,-33.203,-28.809,-67.383
1690198117.299,-23.926,-27.344,-32.227,-67.871,-32.227
1690198117.302,-5.859,-32.715,-28.320,-44.922,238.281
1690198117.306,-1.953,-35.645,-31.738,-8.301,26.367
1690198117.310,-16.602,-37.109,-33.691,-12.695,-198.242
1690198117.314,-48.828,-38.086,-31.738,-29.785,-126.953
1690198117.318,-63.477,-39.551,-35.156,-55.176,-94.727
1690198117.321,-34.180,-44.434,-40.039,-47.363,-157.227
1690198117.325,-10.254,-38.086,-38.574,1.465,-160.645
1690198117.329,-2.441,-31.250,-36.133,-0.977,20.508
1690198117.333,-24.414,-35.645,-38.086,-41.504,93.262
1690198117.337,-44.922,-32.227,-34.668,-64.453,-132.812
1690198117.341,-22.461,-36.621,-32.715,-38.086,-100.586
1690198117.345,4.395,-42.969,-36.133,5.859,213.379
1690198117.348,-9.277,-40.039,-34.180,7.812,284.668
1690198117.352,-39.062,-33.203,-32.715,-28.320,-53.223
1690198117.356,-52.246,-31.250,-32.715,-55.664,-196.777
1690198117.360,-37.598,-33.691,-25.879,-28.809,-140.137
1690198117.364,0.488,-30.762,-23.926,14.160,-115.723
1690198117.365,11.719,-31.250,-29.297,-1.953,-142.578
1690198117.369,-28.809,-31.738,-31.250,-25.879,-106.934
1690198117.373,-49.805,-33.203,-28.320,-43.457,-1.953
1690198117.377,-30.762,-39.551,-24.902,-46.387,-107.422
1690198117.381,-10.254,-37.598,-27.832,-12.207,-105.469
1690198117.385,0.977,-32.227,-27.344,5.371,142.090
1690198117.389,-21.484,-31.250,-22.461,1.953,486.328
1690198117.392,-62.012,-35.156,-25.391,-29.297,174.805
1690198117.396,-42.480,-37.109,-26.855,-39.551,-250.977
1690198117.400,-4.395,-33.691,-24.414,-4.883,-138.672
1690198117.404,-5.371,-31.250,-27.832,16.113,-69.336
1690198117.408,-12.207,-35.156,-30.273,6.348,-36.133
1690198117.440,-28.320,-41.992,-31.250,-37.109,-129.883
1690198117.444,-34.668,-37.598,-32.227,-39.062,-101.074
1690198117.448,-7.324,-33.203,-27.832,-0.488,111.328
1690198117.452,14.160,-40.039,-25.391,15.137,24.414
1690198117.456,-8.789,-38.086,-27.344,-0.488,-39.062
1690198117.460,-37.109,-31.738,-28.320,-20.020,20.508
1690198117.464,-43.457,-27.832,-31.250,-42.969,-77.637
1690198117.467,-12.695,-27.832,-32.227,-23.438,-151.855
1690198117.471,-2.441,-28.320,-31.738,14.648,-104.980
1690198117.475,-23.926,-34.668,-31.738,-1.953,123.535
1690198117.479,-31.250,-40.039,-36.133,-31.738,217.773
1690198117.483,-41.016,-36.133,-36.621,-41.992,-103.027
1690198117.470,-22.461,-34.668,-33.691,-34.668,-171.387
1690198117.474,5.859,-36.133,-32.715,-18.066,-40.039
1690198117.478,-3.906,-32.715,-29.297,1.953,-10.742
1690198117.482,-12.207,-29.297,-26.367,-17.090,-123.535
1690198117.486,-21.484,-36.621,-33.203,-53.223,-164.551
1690198117.490,-10.742,-42.480,-37.598,-41.016,26.367
1690198117.494,-1.465,-47.363,-28.809,-8.301,97.656
1690198117.497,-18.066,-46.875,-29.785,-8.301,-39.551
1690198117.501,-44.434,-38.574,-36.133,-38.086,-70.312
1690198117.505,-39.062,-36.621,-33.691,-55.664,50.293
1690198117.509,-21.484,-37.598,-31.250,-46.875,-30.762
1690198117.513,-8.789,-41.504,-28.320,-11.230,-24.414
1690198117.515,-2.441,-42.480,-25.391,7.324,69.336
1690198117.519,-33.203,-40.039,-25.391,-26.855,310.059
1690198117.523,-66.406,-39.551,-29.297,-66.895,229.004
1690198117.527,-36.621,-42.969,-36.133,-57.617,-142.578
1690198117.531,-3.418,-48.340,-34.668,-11.230,-99.609
1690198117.535,-16.602,-40.039,-27.832,2.930,20.996
1690198117.539,-35.645,-37.598,-27.344,-26.367,4.883
1690198117.542,-41.504,-41.504,-30.762,-44.922,-48.828
1690198117.546,-22.949,-38.574,-31.738,-30.762,127.930
1690198117.550,-2.441,-36.621,-31.250,1.465,248.535
1690198117.554,-11.719,-33.203,-29.785,13.184,0.488
1690198117.558,-25.879,-32.227,-30.762,-13.184,-8.301
1690198117.561,-45.410,-34.180,-27.344,-49.316,90.820
1690198117.565,-32.715,-32.715,-30.273,-42.480,-108.887
1690198117.569,-16.113,-36.133,-35.156,-18.555,-187.012
1690198117.573,-16.113,-39.062,-31.250,-1.953,-54.688
1690198117.577,-15.625,-36.133,-21.484,-0.977,26.367
1690198117.581,-29.785,-45.410,-23.926,-36.621,35.156
1690198117.585,-23.438,-49.805,-33.203,-58.594,-14.160
1690198117.588,-13.672,-35.645,-36.621,-33.691,36.133
1690198117.592,-16.602,-31.250,-37.109,-13.184,336.914
1690198117.596,-31.738,-32.715,-38.086,-25.879,142.090
1690198117.600,-63.477,-35.645,-36.133,-44.922,-168.457
1690198117.604,-51.270,-36.133,-28.320,-44.434,-5.371
1690198117.620,-0.488,-32.715,-22.949,-18.555,58.105
1690198117.624,10.254,-35.645,-27.344,-0.977,-104.492
1690198117.628,-4.395,-36.133,-27.344,-2.441,-58.594
1690198117.632,-29.785,-32.227,-23.438,-21.973,32.227
1690198117.636,-42.480,-32.715,-31.250,-51.758,-50.781
1690198117.640,-26.367,-34.180,-36.133,-37.598,-66.895
1690198117.644,-11.719,-33.691,-35.645,-0.488,-40.527
1690198117.647,-12.207,-34.180,-32.227,16.113,102.051
1690198117.651,-47.363,-37.598,-30.762,-23.438,281.250
1690198117.655,-66.406,-43.945,-34.668,-72.266,-30.273
1690198117.659,-26.855,-44.434,-32.715,-52.246,-143.066
1690198117.663,5.371,-38.574,-31.738,-10.742,46.387
1690198117.650,-14.160,-38.574,-32.715,-8.301,17.090
1690198117.654,-34.180,-41.016,-30.273,-33.203,-104.492
1690198117.658,-29.785,-39.062,-31.738,-39.551,-120.605
1690198117.662,-13.672,-39.062,-34.668,-28.320,-49.316
1690198117.666,-4.395,-47.852,-31.738,3.418,-24.414
1690198117.670,1.953,-45.898,-28.809,22.461,10.254
1690198117.674,-37.598,-33.203,-30.273,-17.090,112.793
1690198117.677,-67.871,-32.227,-35.156,-54.199,60.547
1690198117.681,-29.785,-34.668,-36.621,-27.832,-141.113
1690198117.685,-3.906,-36.621,-32.715,6.348,-179.688
1690198117.689,-4.883,-36.621,-28.320,10.254,-19.531
1690198117.693,-21.484,-37.598,-24.902,1.953,444.824
1690198117.725,-44.434,-36.621,-22.949,-22.461,266.113
1690198117.729,-45.898,-40.527,-28.320,-26.855,-196.777
1690198117.733,-20.020,-41.504,-32.227,-17.090,-141.113
1690198117.737,-1.465,-34.668,-30.762,5.371,-76.660
1690198117.741,-26.855,-36.133,-29.297,-0.488,-124.023
1690198117.745,-47.852,-33.691,-31.250,-40.039,-85.449
1690198117.749,-19.531,-31.738,-29.297,-35.156,166.992
1690198117.752,9.766,-35.645,-24.414,8.301,311.523
1690198117.756,1.465,-38.574,-28.320,25.879,-11.719
1690198117.760,-25.391,-39.551,-29.785,1.465,-110.840
1690198117.764,-41.992,-36.133,-30.273,-31.738,16.113
1690198117.768,-35.156,-33.691,-35.156,-42.480,-131.836
1690198117.740,-13.672,-32.715,-32.227,-8.789,-207.031
1690198117.744,-5.859,-28.809,-29.785,8.301,-76.172
1690198117.748,-14.648,-31.250,-33.203,-13.184,-12.207
1690198117.752,-48.340,-37.109,-32.715,-42.480,-88.867
1690198117.756,-52.246,-37.598,-29.785,-50.293,-142.578
1690198117.760,-15.625,-40.527,-38.574,-12.207,-34.668
1690198117.764,-14.648,-43.457,-44.434,17.090,122.559
1690198117.767,-40.039,-39.551,-41.992,-20.020,25.879
1690198117.771,-55.176,-40.039,-37.109,-48.828,-125.488
1690198117.775,-48.340,-41.016,-30.762,-55.176,-128.418
1690198117.779,-23.926,-40.039,-27.344,-32.227,-39.062
1690198117.783,-8.789,-43.457,-31.250,9.277,1.465
1690198117.800,-27.832,-49.316,-33.203,-9.277,-96.680
1690198117.804,-50.781,-48.340,-27.832,-33.203,-85.938
1690198117.808,-58.105,-44.434,-20.020,-21.973,295.898
1690198117.812,-46.387,-46.875,-24.414,-7.324,251.465
1690198117.816,-10.742,-43.457,-28.320,18.555,-115.234
1690198117.820,-4.395,-39.062,-23.438,25.879,38.086
1690198117.824,-39.062,-41.016,-26.855,-19.043,146.973
1690198117.827,-55.176,-42.969,-26.855,-41.992,-68.359
1690198117.831,-29.785,-41.992,-25.879,-16.113,-170.410
1690198117.835,-7.812,-42.969,-26.367,5.371,60.547
1690198117.839,-23.438,-43.457,-27.344,-0.488,13.672
1690198117.843,-51.758,-40.039,-29.785,-25.879,-232.910
1690198117.845,-50.293,-39.062,-29.297,-47.852,-113.770
1690198117.849,-18.066,-39.062,-31.738,-28.809,46.875
1690198117.853,-3.418,-39.551,-39.062,6.348,-24.414
1690198117.857,-7.812,-41.016,-41.016,-1.953,-129.883
1690198117.861,-29.785,-36.133,-37.109,-34.668,-104.492
1690198117.865,-49.316,-34.180,-31.738,-51.270,-2.930
1690198117.869,-32.715,-36.621,-27.832,-35.645,-22.949
1690198117.872,-1.953,-36.133,-31.250,-1.465,-86.426
1690198117.876,5.371,-38.574,-34.668,17.578,-41.504
1690198117.880,-25.391,-41.992,-29.297,8.301,229.980
1690198117.884,-49.316,-39.062,-31.738,-28.320,13.672
1690198117.888,-32.715,-34.180,-30.273,-29.785,-197.266
1690198117.891,5.371,-36.133,-24.414,2.930,-7.324
1690198117.895,-2.441,-38.574,-29.785,21.973,97.656
1690198117.899,-25.879,-36.621,-31.250,-5.859,-25.879
1690198117.903,-41.992,-34.668,-30.273,-40.039,-158.691
1690198117.907,-24.902,-36.133,-31.250,-34.668,-61.035
1690198117.911,3.418,-33.691,-30.762,-5.859,107.422
1690198117.915,0.977,-30.273,-31.250,17.578,50.293
1690198117.918,-16.602,-29.785,-31.738,1.465,-68.359
1690198117.922,-21.973,-26.367,-27.344,-19.043,-4.395
1690198117.926,-11.719,-24.902,-24.414,-27.344,9.277
1690198117.930,1.465,-21.484,-32.227,-16.113,-103.027
1690198117.934,-6.348,-20.508,-32.715,7.324,-28.809
1690198117.935,-29.297,-26.367,-27.344,-12.207,185.059
1690198117.939,-51.270,-27.832,-32.227,-60.547,48.828
1690198117.943,-41.504,-25.391,-36.621,-62.500,-154.785
1690198117.947,-18.066,-21.973,-33.203,-36.621,-87.891
1690198117.951,-18.066,-21.484,-30.762,-20.020,5.371
1690198117.955,-39.551,-27.832,-33.691,-26.855,41.992
1690198117.959,-69.336,-25.879,-30.762,-57.617,41.016
1690198117.962,-60.547,-24.414,-34.180,-72.266,75.195
1690198117.966,-26.367,-22.949,-36.621,-38.574,315.430
1690198117.970,-50.781,-24.902,-35.156,-38.086,219.238
1690198117.974,-88.867,-33.691,-28.809,-79.102,-129.883
1690198117.978,-101.562,-30.273,-27.832,-94.238,-42.480
1690198117.980,-103.516,-21.484,-33.203,-107.422,81.543
1690198117.984,-86.426,-23.438,-31.738,-104.004,-160.645
1690198117.988,-67.871,-29.297,-33.203,-74.219,-170.898
1690198117.992,-67.871,-22.461,-35.156,-81.543,-24.902
1690198117.996,-88.379,-18.555,-32.227,-94.727,-76.660
1690198118.000,-112.305,-28.809,-29.297,-110.840,-86.914
1690198118.004,-98.145,-35.645,-32.715,-115.234,-89.844
1690198118.007,-63.965,-35.156,-33.691,-84.473,171.387
1690198118.011,-68.848,-31.738,-29.297,-65.918,416.992
1690198118.015,-81.543,-28.809,-27.832,-90.332,43.457
1690198118.019,-80.566,-36.133,-23.438,-105.469,-139.160
1690198118.023,-79.102,-37.109,-24.414,-86.914,-76.172
1690198118.040,-61.035,-37.109,-29.785,-56.641,-118.652
1690198118.044,-57.617,-42.969,-30.273,-36.133,-134.277
1690198118.048,-67.383,-39.551,-28.809,-51.270,-125.000
1690198118.052,-59.570,-40.039,-29.785,-79.590,-108.398
1690198118.056,-54.199,-45.898,-37.598,-73.242,-121.094
1690198118.060,-39.062,-46.387,-40.039,-34.668,-124.023
1690198118.064,-20.996,-45.898,-42.480,-15.625,-16.113
1690198118.067,-26.855,-41.992,-38.574,-22.949,307.129
1690198118.071,-44.922,-41.992,-37.598,-52.246,131.348
1690198118.075,-33.203,-40.039,-41.504,-55.664,-178.711
1690198118.079,-3.906,-38.086,-41.016,-17.578,43.457
1690198118.083,3.906,-41.992,-38.086,7.324,235.352
1690198118.070,-4.395,-43.945,-37.598,0.488,-0.488
1690198118.074,-26.367,-43.945,-44.922,-28.809,-181.641
1690198118.078,-26.855,-42.969,-39.551,-22.949,-66.406
1690198118.082,5.859,-41.504,-34.668,15.625,29.297
1690198118.086,14.648,-44.922,-37.109,29.297,-91.309
1690198118.090,10.742,-42.969,-33.691,6.836,-55.176
1690198118.094,3.418,-39.551,-31.250,-12.695,26.855
1690198118.097,-6.348,-41.016,-31.250,-4.883,11.230
1690198118.101,17.578,-40.039,-34.668,23.926,-63.965
1690198118.105,35.156,-43.457,-38.086,37.109,-71.289
1690198118.109,21.973,-46.875,-36.621,32.227,210.449
1690198118.113,-7.324,-47.363,-39.551,-4.395,182.617
1690198118.116,-6.348,-48.340,-42.969,-22.461,-154.297
1690198118.120,29.785,-46.387,-41.016,15.625,-122.559
1690198118.124,33.203,-43.457,-39.062,48.828,99.121
1690198118.128,11.230,-43.945,-40.527,35.156,-5.859
1690198118.132,-11.719,-43.945,-38.574,-7.812,-180.664
1690198118.136,-8.301,-42.480,-35.156,-15.137,-17.090
1690198118.140,18.555,-48.340,-34.180,17.578,261.719
1690198118.143,31.738,-46.387,-34.668,39.551,49.805
1690198118.147,12.207,-44.434,-40.527,25.879,-191.895
1690198118.151,-6.836,-49.805,-41.016,2.441,-145.508
1690198118.155,-9.766,-49.316,-38.574,-12.207,-20.508
1690198118.159,4.883,-48.340,-37.598,-1.953,10.254
1690198118.175,32.227,-49.805,-38.574,34.668,-60.059
1690198118.179,18.066,-46.875,-42.480,40.527,18.555
1690198118.183,-8.789,-42.969,-42.480,0.488,122.070
1690198118.187,-16.602,-43.457,-43.457,-22.949,-20.020
1690198118.191,-7.324,-43.945,-48.340,-11.719,-142.090
1690198118.195,16.602,-43.945,-43.457,24.414,107.910
1690198118.199,27.344,-42.480,-36.621,36.621,340.820
1690198118.202,11.719,-39.062,-38.574,0.488,-66.406
1690198118.206,-10.254,-35.645,-39.551,-20.996,-253.906
1690198118.210,4.395,-34.668,-37.598,-2.930,-27.832
1690198118.214,24.414,-34.668,-34.668,33.203,-50.781
1690198118.218,7.812,-40.527,-35.645,46.875,-124.512
1690198118.220,-27.344,-44.922,-31.738,8.301,-95.215
1690198118.224,-32.227,-45.410,-32.715,-31.250,-62.988
1690198118.228,-1.465,-43.945,-36.133,-27.832,-108.887
1690198118.232,16.602,-40.527,-33.691,7.812,-136.230
1690198118.236,1.465,-37.598,-32.227,28.320,-33.691
1690198118.240,-28.320,-37.598,-32.715,1.465,39.062
1690198118.244,-45.898,-40.039,-32.715,-40.527,2.930
1690198118.247,-24.902,-41.504,-32.715,-40.039,-26.855
1690198118.251,6.836,-38.086,-32.715,-5.859,-31.250
1690198118.255,5.859,-36.621,-28.320,29.785,284.668
1690198118.259,-12.207,-38.574,-31.738,0.488,191.895
1690198118.263,-29.297,-40.527,-35.156,-39.062,-106.445
1690198118.265,-38.574,-41.992,-31.738,-31.250,-34.180
1690198118.269,-12.207,-36.133,-26.367,-3.418,74.707
1690198118.273,2.441,-32.715,-23.926,15.137,-13.184
1690198118.277,-10.254,-33.691,-25.391,-4.395,-69.336
1690198118.281,-19.531,-38.086,-26.367,-34.668,-60.547
1690198118.285,-18.066,-39.062,-28.320,-32.227,-47.852
1690198118.289,-12.207,-39.551,-29.297,-16.113,-34.180
1690198118.292,-4.883,-35.645,-27.344,6.836,-123.047
1690198118.296,-13.184,-36.621,-26.855,8.301,168.457
1690198118.300,-30.273,-39.551,-26.855,-35.156,342.285
1690198118.304,-29.785,-35.645,-27.832,-58.594,-43.945
1690198118.308,-12.695,-32.715,-24.902,-22.949,-162.598
1690198118.310,0.000,-32.715,-22.949,14.648,-23.438
1690198118.314,2.930,-32.227,-25.879,-3.906,-70.312
1690198118.318,-20.996,-31.738,-30.762,-42.969,-208.008
1690198118.322,-50.781,-35.156,-37.598,-58.105,-166.992
1690198118.326,-22.949,-38.086,-33.691,-40.039,-19.531
1690198118.330,1.465,-38.574,-29.785,-24.414,13.672
1690198118.334,-21.484,-40.039,-32.227,-20.020,-44.922
1690198118.337,-32.715,-39.062,-33.691,-37.598,-32.715
1690198118.341,-27.832,-44.922,-30.273,-45.898,160.645
1690198118.345,-24.902,-44.922,-35.645,-41.504,11.230
1690198118.349,-14.160,-33.203,-36.133,-19.043,-90.820
1690198118.353,-1.953,-29.297,-30.273,-4.395,109.863
1690198118.355,-19.043,-33.691,-30.762,-24.902,251.465
1690198118.359,-42.480,-36.621,-35.156,-57.129,-7.812
1690198118.363,-23.438,-36.621,-32.715,-47.363,-140.625
1690198118.367,-4.395,-40.039,-31.738,-14.160,-60.547
1690198118.371,-16.113,-41.992,-34.668,-9.277,-64.941
1690198118.375,-26.367,-40.039,-30.762,-27.832,-28.320
1690198118.379,-30.273,-35.156,-35.645,-60.059,-116.211
1690198118.382,-21.484,-35.156,-35.645,-53.711,36.621
1690198118.386,2.441,-35.156,-28.320,-11.230,135.254
1690198118.390,-9.766,-33.691,-30.273,-18.066,-112.793
1690198118.394,-26.855,-34.668,-24.902,-37.109,-112.793
1690198118.398,-23.926,-33.691,-23.438,-44.922,-79.102
1690198118.401,-19.043,-30.762,-31.738,-47.852,-147.949
1690198118.405,-7.324,-32.227,-34.180,-13.184,-84.473
1690198118.409,-8.301,-35.156,-32.227,5.371,7.812
1690198118.413,-20.020,-36.621,-31.738,2.441,98.145
1690198118.417,-37.109,-42.969,-33.691,-23.926,-62.500
1690198118.421,-36.621,-44.922,-37.598,-49.316,-163.574
1690198118.425,-15.625,-39.062,-33.203,-18.555,37.109
1690198118.428,3.418,-36.621,-28.809,3.906,296.387
1690198118.432,-9.277,-37.598,-27.832,-22.461,89.844
1690198118.436,-46.875,-35.645,-30.762,-49.316,-191.406
1690198118.440,-39.062,-34.180,-32.715,-42.969,-147.461
1690198118.444,-6.348,-35.645,-31.250,-15.625,-42.480
1690198118.445,-9.766,-35.645,-31.738,1.953,-45.410
1690198118.449,-22.461,-38.574,-35.645,-4.395,-83.496
1690198118.453,-39.062,-38.086,-35.156,-37.598,-37.598
1690198118.457,-29.297,-34.180,-30.762,-48.340,85.938
1690198118.461,-4.883,-37.598,-33.203,-15.137,14.648
1690198118.465,0.488,-37.598,-32.227,15.625,-70.312
1690198118.469,-4.883,-37.598,-28.809,5.859,192.871
1690198118.472,-33.691,-41.504,-28.809,-15.625,392.090
1690198118.476,-46.387,-41.016,-26.855,-33.203,5.371
1690198118.480,-25.879,-40.527,-25.879,-16.113,-156.250
1690198118.484,-12.207,-37.109,-27.832,0.977,-10.742
1690198118.488,-33.203,-39.062,-31.250,-17.090,-64.453
1690198118.505,-50.781,-41.016,-33.203,-42.480,-151.855
1690198118.509,-40.527,-34.668,-31.738,-50.293,-131.836
1690198118.513,-31.250,-38.086,-29.785,-35.645,-48.828
1690198118.517,-17.578,-39.062,-29.785,-19.531,-3.906
1690198118.521,-14.648,-38.086,-31.738,-15.625,-52.734
1690198118.525,-28.320,-38.574,-33.691,-25.391,12.695
1690198118.529,-23.438,-33.691,-31.738,-27.832,278.809
1690198118.532,-15.137,-31.738,-31.738,-18.066,74.219
1690198118.536,-16.113,-31.250,-35.156,-11.230,-163.574
1690198118.540,-7.324,-33.691,-37.109,-8.301,-29.785
1690198118.544,-15.137,-39.062,-33.203,-11.719,54.688
1690198118.548,-45.410,-38.086,-34.180,-41.016,-7.324
1690198118.550,-37.109,-36.133,-33.203,-41.016,-94.238
1690198118.554,-10.742,-35.156,-29.785,-10.742,-28.320
1690198118.558,-17.090,-37.598,-32.715,2.441,105.469
1690198118.562,-36.621,-40.527,-36.133,-14.648,-81.543
1690198118.566,-43.945,-36.133,-37.598,-29.297,-156.738
1690198118.570,-29.785,-36.133,-35.645,-15.137,57.617
1690198118.574,3.418,-38.086,-32.715,3.418,101.562
1690198118.577,-1.953,-31.738,-32.715,17.578,-11.719
1690198118.581,-22.949,-28.320,-29.785,10.742,-46.875
1690198118.585,-33.691,-30.273,-32.715,-4.883,142.578
1690198118.589,-28.809,-30.762,-35.156,-21.973,301.270
1690198118.593,-4.395,-28.320,-33.691,-22.461,-22.461
1690198118.595,-0.488,-27.344,-31.738,-4.395,-116.211
1690198118.599,-17.578,-31.250,-32.227,-14.648,-60.547
1690198118.603,-28.809,-31.250,-31.738,-23.438,-154.297
1690198118.607,-28.320,-32.227,-34.180,-27.832,-192.383
1690198118.611,-10.254,-32.715,-39.062,-15.137,-113.770
1690198118.615,-10.254,-33.691,-36.621,-0.977,59.082
1690198118.619,-42.480,-36.621,-33.691,-14.648,84.961
1690198118.622,-55.176,-36.621,-36.621,-30.762,-86.426
1690198118.626,-40.527,-36.133,-37.598,-41.016,-120.117
1690198118.630,-16.113,-38.086,-28.320,-13.672,208.496
1690198118.634,-5.859,-41.016,-29.785,15.137,122.070
1690198118.638,-33.203,-39.062,-34.180,-5.859,-35.645
1690198118.640,-47.852,-37.109,-26.855,-23.926,34.668
1690198118.644,-30.762,-39.551,-24.902,-22.461,210.938
1690198118.648,-8.789,-43.457,-33.203,-25.391,10.254
1690198118.652,-12.695,-42.480,-34.180,-20.020,-215.820
1690198118.656,-31.250,-41.016,-29.785,-15.137,-101.562
1690198118.660,-31.738,-41.016,-27.832,-17.578,-75.195
1690198118.664,-25.391,-38.086,-30.273,-32.227,-71.289
1690198118.667,-5.371,-31.250,-32.715,-26.855,-82.520
1690198118.671,12.207,-30.273,-29.297,-4.395,62.012
1690198118.675,-2.441,-32.715,-25.879,-4.395,177.246
1690198118.679,-30.273,-32.715,-29.297,-19.531,-86.426
1690198118.683,-36.133,-33.203,-31.250,-28.320,-153.809
1690198118.686,-18.066,-36.133,-29.297,-18.066,-44.922
1690198118.690,-4.395,-41.504,-28.320,-2.441,1.465
1690198118.694,-19.043,-43.945,-31.250,-7.812,-71.777
1690198118.698,-35.156,-44.434,-32.227,-22.949,-98.633
1690198118.702,-33.691,-44.434,-29.785,-41.504,8.789
1690198118.706,-25.391,-41.504,-28.809,-47.852,-49.805
1690198118.710,-19.043,-38.086,-29.297,-26.367,-113.770
1690198118.713,-20.508,-34.668,-29.297,-13.184,-12.695
1690198118.717,-21.484,-31.250,-24.414,-9.766,228.027
1690198118.721,-30.762,-31.738,-28.320,-46.387,54.688
1690198118.725,-18.066,-33.203,-29.297,-53.711,-164.062
1690198118.729,0.488,-34.668,-23.438,-6.836,4.395
1690198118.730,-12.207,-35.156,-25.879,4.883,104.980
1690198118.734,-30.762,-33.691,-30.762,-14.160,-18.066
1690198118.738,-35.156,-34.668,-30.273,-28.809,-111.328
1690198118.742,-20.020,-39.551,-29.297,-19.531,-60.059
1690198118.746,-8.789,-37.598,-31.738,3.418,26.367
1690198118.750,-1.953,-30.273,-27.832,6.348,31.738
1690198118.754,-6.836,-28.809,-23.926,4.883,19.043
1690198118.757,-24.902,-30.273,-24.902,-10.742,158.691
1690198118.761,-22.949,-33.691,-26.367,-25.879,347.168
1690198118.765,-5.859,-34.668,-29.785,-10.254,40.039
1690198118.769,-9.277,-32.227,-27.832,-3.418,-102.051
1690198118.773,-18.066,-32.227,-26.855,-12.695,-24.414
1690198118.775,-32.227,-37.109,-29.297,-23.926,-132.324
1690198118.779,-39.551,-41.504,-26.855,-22.949,-170.410
1690198118.783,-18.555,-40.527,-26.367,-15.137,-86.426
1690198118.787,0.488,-42.480,-32.227,-0.488,-50.781
1690198118.791,-17.090,-48.340,-33.203,7.812,-46.875
1690198118.795,-28.809,-42.969,-27.344,-2.441,-28.809
1690198118.799,-24.414,-31.250,-31.738,-15.137,-33.691
1690198118.802,-14.648,-32.715,-36.621,-14.648,269.043
1690198118.806,-8.301,-33.691,-37.109,1.953,251.953
1690198118.810,-18.555,-31.738,-30.762,0.000,-121.582
1690198118.814,-21.484,-31.738,-26.367,-19.043,-135.254
1690198118.818,-15.137,-30.762,-26.855,-18.066,15.625
1690198118.820,-1.465,-33.691,-29.297,-17.578,20.508
1690198118.824,7.324,-33.203,-36.133,-20.508,-115.723
1690198118.828,-2.930,-36.133,-39.551,-22.949,-80.078
1690198118.832,-27.344,-40.039,-37.109,-33.691,-63.965
1690198118.836,-34.180,-39.062,-37.109,-43.457,-143.066
1690198118.840,-17.090,-39.551,-36.133,-26.367,-19.043
1690198118.844,-0.488,-37.598,-33.203,-4.395,240.723
1690198118.847,-9.277,-37.109,-34.668,-18.066,229.980
1690198118.851,-42.480,-39.062,-41.504,-34.180,-50.293
1690198118.855,-38.574,-34.668,-35.645,-28.809,-75.684
1690198118.859,-13.672,-34.180,-28.809,-27.832,45.410
1690198118.863,-0.488,-31.738,-32.227,-17.578,-17.578
1690198118.865,-4.883,-30.273,-30.273,-8.301,-131.836
1690198118.869,-26.855,-34.668,-25.879,-22.949,-70.312
1690198118.873,-31.250,-37.109,-31.738,-41.504,-54.688
1690198118.877,-11.719,-35.645,-36.133,-29.785,-106.934
1690198118.881,-7.812,-36.621,-29.785,-8.789,-118.164
1690198118.885,-4.395,-38.574,-25.879,0.000,8.301
1690198118.889,-6.348,-37.109,-28.809,-3.906,347.656
1690198118.892,-47.852,-33.691,-29.785,-30.762,117.676
1690198118.896,-40.527,-32.715,-29.785,-39.551,-186.035
1690198118.900,-4.883,-34.180,-31.738,-19.531,-142.090
1690198118.904,-5.859,-33.203,-34.668,-19.043,-57.617
1690198118.908,-17.578,-29.297,-33.691,-22.461,20.996
1690198118.911,-24.902,-20.508,-30.762,-29.785,-99.609
1690198118.915,-10.742,-22.949,-35.156,-32.715,-74.219
1690198118.919,3.418,-31.738,-37.598,-14.160,194.824
1690198118.923,-8.301,-32.715,-39.062,-10.254,1.465
1690198118.927,-26.367,-32.227,-41.016,-21.484,-97.656
1690198118.931,-33.691,-34.668,-42.969,-41.016,42.480
1690198118.935,-27.344,-33.691,-39.551,-48.340,17.090
1690198118.938,-23.438,-27.344,-36.621,-28.809,-72.754
1690198118.942,-8.301,-26.855,-36.133,-13.184,-128.418
1690198118.946,-10.742,-35.645,-35.156,-13.184,78.125
1690198118.950,-40.039,-37.109,-38.574,-22.949,149.414
1690198118.954,-37.109,-35.645,-39.062,-32.715,-112.793
1690198118.970,-21.484,-42.969,-37.109,-20.020,-140.137
1690198118.974,-15.625,-47.363,-36.621,-6.836,-5.859
1690198118.978,-20.508,-45.410,-38.574,-14.648,-37.598
1690198118.982,-37.598,-45.410,-40.527,-32.227,-153.320
1690198118.986,-44.434,-45.410,-37.109,-43.945,-84.473
1690198118.990,-20.508,-41.992,-31.250,-29.297,258.789
1690198118.994,-7.324,-43.457,-34.180,-11.230,228.027
1690198118.997,-26.367,-42.480,-39.551,-30.762,-87.402
1690198119.001,-40.527,-41.016,-36.621,-42.969,-91.309
1690198119.005,-41.016,-42.480,-34.668,-33.691,70.312
1690198119.009,-31.250,-43.945,-38.574,-37.109,-65.430
1690198119.013,-15.625,-43.945,-37.598,-30.762,-126.953
1690198119.015,-8.789,-41.992,-37.109,-19.043,-1.953
1690198119.019,-27.832,-38.086,-40.527,-27.344,77.637
1690198119.023,-46.387,-34.668,-38.574,-42.969,-97.168
1690198119.027,-27.832,-40.039,-36.621,-42.480,-172.852
1690198119.031,-1.953,-41.992,-32.715,-29.785,54.688
1690198119.035,-13.184,-40.527,-34.180,-23.926,179.688
1690198119.039,-35.156,-39.062,-38.086,-37.598,-23.926
1690198119.042,-43.457,-39.062,-34.668,-50.293,-126.465
1690198119.046,-28.809,-41.504,-32.715,-33.691,61.523
1690198119.050,-11.719,-43.945,-32.715,-8.789,207.520
1690198119.054,-14.160,-39.551,-36.621,-26.855,-43.945
1690198119.058,-35.156,-35.156,-38.086,-50.293,-158.691
1690198119.060,-44.434,-41.504,-39.551,-57.617,-67.383
1690198119.064,-32.227,-46.875,-43.457,-54.688,-109.375
1690198119.068,-18.555,-50.293,-45.410,-33.691,-159.180
1690198119.072,-12.695,-41.016,-42.969,-24.902,-108.887
1690198119.076,-18.066,-38.086,-36.133,-38.574,-8.789
1690198119.080,-31.250,-41.016,-35.645,-51.758,0.977
1690198119.084,-22.461,-37.598,-34.668,-48.828,-102.051
1690198119.087,-4.883,-37.598,-36.133,-26.367,-38.086
1690198119.091,-2.930,-36.621,-38.574,0.000,277.832
1690198119.095,-23.926,-30.762,-39.062,-20.508,231.934
1690198119.099,-38.086,-30.273,-37.109,-46.387,-80.078
1690198119.103,-21.973,-31.738,-34.668,-39.551,11.719
1690198119.105,-2.441,-34.180,-34.180,-20.020,136.719
1690198119.109,-5.859,-41.016,-28.809,-13.184,-39.062
1690198119.113,-22.949,-41.992,-25.879,-9.766,-126.465
1690198119.117,-27.344,-41.016,-23.438,4.395,-116.211
1690198119.121,-23.438,-39.062,-29.297,-7.324,-208.984
1690198119.125,-4.883,-39.551,-32.715,-2.441,-104.004
1690198119.129,6.836,-42.480,-31.250,14.160,-22.461
1690198119.132,-6.836,-42.480,-28.809,1.465,1.953
1690198119.136,-17.578,-43.945,-29.785,-11.230,92.773
1690198119.140,-19.531,-44.434,-33.203,-18.066,-104.004
1690198119.144,-24.902,-48.340,-31.738,-2.930,-232.422
1690198119.148,-9.766,-48.828,-31.738,13.184,0.000
1690198119.150,-12.695,-41.016,-30.762,-2.441,-1.465
1690198119.154,-32.715,-38.086,-29.297,-23.926,-161.133
1690198119.158,-37.109,-45.410,-31.738,-34.668,-104.980
1690198119.162,-26.367,-49.316,-33.203,-10.742,-64.941
1690198119.166,-7.324,-45.410,-31.738,15.137,-96.191
1690198119.170,-8.301,-41.992,-34.180,-5.859,-40.527
1690198119.174,-25.391,-37.598,-36.133,-29.785,-6.836
1690198119.177,-32.715,-39.062,-31.738,-24.414,178.223
1690198119.181,-26.367,-46.387,-31.738,-20.508,56.152
1690198119.185,-16.113,-47.852,-35.156,-13.672,-136.719
1690198119.189,-20.508,-45.898,-30.273,-0.977,-32.715
1690198119.193,-42.480,-46.875,-25.879,-20.508,44.434
1690198119.210,-41.016,-41.504,-28.320,-39.551,-33.203
1690198119.214,-37.598,-37.598,-32.227,-30.762,-166.992
1690198119.218,-15.625,-37.109,-32.227,-0.488,-68.359
1690198119.222,-2.930,-41.504,-30.762,11.230,168.457
1690198119.226,-32.227,-40.527,-31.250,-13.184,-44.434
1690198119.230,-46.387,-37.109,-34.668,-37.598,-175.293
1690198119.234,-28.320,-46.387,-36.133,-33.203,142.090
1690198119.237,-10.742,-51.758,-32.227,-11.230,271.973
1690198119.241,-20.996,-50.781,-33.203,-3.906,-51.758
1690198119.245,-36.621,-42.969,-33.203,-21.973,-128.418
1690198119.249,-50.781,-42.969,-33.691,-52.734,-54.199
1690198119.253,-37.598,-48.828,-34.180,-64.941,-66.895
1690198119.241,-13.184,-44.434,-36.621,-51.270,-146.484
1690198119.245,-15.137,-40.527,-36.133,-27.832,-63.477
1690198119.249,-26.855,-42.480,-36.133,-36.133,145.996
1690198119.253,-35.645,-43.457,-37.598,-60.059,26.855
1690198119.257,-40.039,-38.086,-37.109,-59.082,-114.258
1690198119.261,-20.508,-38.574,-35.645,-36.133,45.898
1690198119.265,-3.418,-41.016,-29.297,-6.836,210.938
1690198119.268,-20.996,-29.297,-29.297,-25.391,62.500
1690198119.272,-48.828,-23.926,-39.062,-70.312,-88.867
1690198119.276,-54.688,-26.367,-41.016,-75.195,-86.914
1690198119.280,-18.066,-28.320,-37.598,-33.691,260.742
1690198119.284,-12.207,-28.809,-41.504,-27.832,310.547
1690198119.300,-50.293,-24.902,-43.457,-58.594,-49.316
1690198119.304,-67.383,-24.902,-42.480,-74.219,-45.898
1690198119.308,-55.176,-25.391,-40.039,-68.359,16.113
1690198119.312,-38.574,-27.344,-40.527,-50.781,-107.422
1690198119.316,-30.273,-28.320,-39.551,-25.879,-101.074
1690198119.320,-31.250,-31.250,-38.086,-23.926,229.980
1690198119.324,-42.480,-34.180,-39.551,-41.992,305.664
1690198119.327,-35.645,-33.691,-45.898,-65.918,-103.027
1690198119.331,-8.301,-32.715,-45.898,-55.176,-248.047
1690198119.335,8.789,-30.762,-35.156,-12.695,11.719
1690198119.339,-18.066,-35.645,-35.645,-7.812,61.523
1690198119.343,-46.387,-38.086,-38.574,-40.039,-141.113
1690198119.345,-53.711,-32.227,-36.133,-59.570,-156.250
1690198119.349,-26.855,-34.180,-34.180,-29.785,-47.852
1690198119.353,2.930,-32.715,-29.297,5.371,-53.711
1690198119.357,-5.859,-31.250,-29.785,0.977,-103.027
1690198119.361,-32.715,-35.156,-33.691,-18.555,-79.590
1690198119.365,-43.457,-36.133,-34.668,-36.133,22.461
1690198119.369,-20.508,-34.180,-36.621,-32.715,41.992
1690198119.372,-2.441,-34.180,-36.621,-7.812,-15.137
1690198119.376,-0.488,-31.250,-33.203,6.348,-22.461
1690198119.380,-2.930,-27.832,-30.762,1.953,200.195
1690198119.384,-19.531,-28.320,-32.715,-34.180,152.344
1690198119.388,-16.602,-28.320,-32.715,-44.434,-57.129
1690198119.390,-0.977,-30.273,-33.691,-9.277,-22.949
1690198119.394,-8.789,-36.133,-34.668,2.930,113.770
1690198119.398,-29.297,-35.156,-32.227,-19.531,-4.395
1690198119.402,-27.832,-30.762,-29.785,-35.645,-209.473
1690198119.406,-16.113,-30.762,-30.762,-28.320,-88.867
1690198119.410,-5.371,-28.809,-34.180,-7.812,116.699
1690198119.414,1.953,-26.367,-32.227,4.883,71.289
1690198119.417,-9.766,-25.879,-29.785,-8.301,-124.023
1690198119.421,-28.320,-29.785,-26.367,-26.367,-49.805
1690198119.425,-19.043,-35.645,-27.832,-41.016,131.348
1690198119.429,-1.953,-34.180,-31.738,-27.344,-71.777
1690198119.433,-5.371,-37.598,-23.926,-0.488,-77.637
1690198119.434,-18.066,-40.527,-21.973,1.953,94.238
1690198119.438,-37.598,-37.598,-27.832,-24.414,-58.594
1690198119.442,-39.062,-40.527,-24.902,-28.320,-178.223
1690198119.446,-23.438,-46.387,-25.879,-12.695,-103.027
1690198119.450,-17.090,-46.387,-33.203,-13.184,-46.875
1690198119.454,-25.391,-45.898,-35.156,-11.719,91.797
1690198119.458,-40.527,-46.387,-36.621,-33.203,80.078
1690198119.461,-49.316,-46.387,-37.109,-44.922,-38.574
1690198119.465,-25.391,-44.434,-31.738,-12.207,171.875
1690198119.469,-8.789,-39.062,-30.273,7.812,92.773
1690198119.473,-15.625,-35.645,-30.762,-1.465,-124.512
1690198119.477,-27.832,-34.668,-26.855,-18.066,-5.371
1690198119.480,-37.598,-37.598,-29.785,-36.621,145.996
1690198119.484,-31.738,-38.086,-32.715,-26.855,-55.176
1690198119.488,-20.996,-41.504,-30.273,-5.371,-171.387
1690198119.492,-23.926,-38.086,-28.809,-8.789,-70.312
1690198119.496,-31.250,-33.691,-31.250,-28.809,-32.227
1690198119.500,-33.691,-34.668,-34.668,-35.156,-8.301
1690198119.504,-21.484,-37.598,-33.691,-15.137,7.324
1690198119.507,-1.953,-38.574,-32.227,6.836,112.305
1690198119.511,-7.324,-36.621,-33.203,7.812,192.871
1690198119.515,-36.621,-29.297,-31.738,-22.949,-122.559
1690198119.519,-35.156,-27.832,-29.297,-45.898,-255.371
1690198119.523,-12.207,-32.227,-31.738,-35.156,-153.320
1690198119.526,1.465,-33.691,-31.738,-11.719,-134.766
1690198119.530,-9.766,-35.156,-30.762,-14.648,-116.699
1690198119.534,-28.320,-34.180,-27.832,-36.621,-17.578
1690198119.538,-45.410,-35.156,-27.344,-54.688,77.148
1690198119.542,-41.992,-35.156,-29.785,-54.688,-35.156
1690198119.546,-13.672,-32.715,-32.227,-32.227,-25.391
1690198119.550,0.977,-31.738,-33.691,-12.207,61.035
1690198119.553,-7.812,-32.715,-30.273,-24.414,253.906
1690198119.557,-36.133,-33.691,-32.227,-55.664,51.758
1690198119.561,-37.109,-34.180,-36.133,-50.293,-237.793
1690198119.565,-3.418,-30.762,-32.227,-10.254,-129.395
1690198119.569,3.418,-26.367,-26.855,-2.930,-1.953
1690198119.570,-30.273,-32.227,-32.715,-29.297,-58.105
1690198119.574,-52.246,-33.691,-37.598,-59.570,-119.629
1690198119.578,-43.457,-33.203,-32.227,-62.500,-50.293
1690198119.582,-26.855,-38.574,-30.273,-28.320,55.176
1690198119.586,-13.184,-40.039,-32.715,-18.555,50.293
1690198119.590,-19.531,-42.969,-31.250,-33.691,-43.945
1690198119.594,-41.016,-45.898,-27.344,-40.527,110.352
1690198119.597,-34.668,-46.387,-30.273,-37.109,300.781
1690198119.601,-15.625,-42.969,-33.203,-25.391,-71.777
1690198119.605,-14.160,-40.527,-30.273,-9.277,-184.082
1690198119.609,-26.855,-41.992,-27.832,-16.602,-5.859
1690198119.613,-57.129,-46.387,-31.250,-46.387,-69.336
1690198119.615,-52.734,-44.922,-33.203,-54.688,-162.109
1690198119.619,-17.090,-37.109,-25.391,-22.949,-94.727
1690198119.623,-9.766,-38.574,-23.926,8.789,-28.320
1690198119.627,-29.297,-40.527,-21.973,-1.953,-62.012
1690198119.631,-40.527,-38.574,-20.996,-30.762,-129.883
1690198119.635,-25.391,-38.086,-25.879,-37.109,4.883
1690198119.639,-16.602,-41.016,-32.227,-5.859,365.723
1690198119.642,-11.230,-38.574,-35.645,11.719,243.652
1690198119.646,-19.043,-35.645,-36.133,-4.395,-73.242
1690198119.650,-31.738,-36.133,-31.250,-25.391,-35.156
1690198119.654,-28.809,-38.574,-30.273,-42.969,101.074
1690198119.658,-26.367,-46.387,-34.180,-28.320,42.480
1690198119.660,-7.812,-47.852,-36.133,-9.766,-21.973
1690198119.664,-13.672,-43.945,-38.574,-15.625,-10.254
1690198119.668,-44.922,-40.527,-35.645,-30.273,40.039
1690198119.672,-48.340,-37.598,-32.715,-48.828,-115.723
1690198119.676,-19.043,-32.715,-33.203,-33.203,-224.121
1690198119.680,5.371,-28.809,-23.926,-1.953,-89.844
1690198119.684,-7.324,-35.156,-19.043,2.930,26.367
1690198119.687,-20.996,-37.109,-23.926,-19.531,-22.949
1690198119.691,-22.461,-33.691,-26.367,-39.551,-158.203
1690198119.695,-17.090,-37.598,-25.391,-27.832,48.828
1690198119.699,1.953,-38.574,-21.484,8.789,192.871
1690198119.703,-15.137,-36.621,-22.461,17.090,-81.055
1690198119.720,-43.945,-37.109,-26.367,-18.066,-119.141
1690198119.724,-52.734,-39.062,-25.879,-37.109,-28.320
1690198119.728,-37.109,-42.969,-24.414,-21.973,-75.684
1690198119.732,-3.418,-40.039,-26.855,0.000,-107.910
1690198119.736,5.371,-40.527,-30.273,19.043,-39.062
1690198119.740,-24.414,-42.480,-28.320,5.859,114.746
1690198119.744,-40.039,-40.039,-26.855,-27.344,58.594
1690198119.747,-19.043,-42.480,-30.762,-18.066,-143.555
1690198119.751,11.230,-39.062,-31.250,11.230,-62.500
1690198119.755,17.090,-38.086,-28.809,20.020,211.914
1690198119.759,-17.090,-41.504,-31.738,-10.742,62.500
1690198119.763,-46.387,-40.527,-35.156,-39.062,-77.148
1690198119.765,-25.391,-35.156,-34.180,-24.414,74.707
1690198119.769,11.719,-31.250,-31.738,8.301,303.223
1690198119.773,4.883,-31.738,-32.715,18.066,33.691
1690198119.777,-22.949,-28.809,-27.344,6.348,-130.859
1690198119.781,-41.504,-29.297,-23.926,-23.438,-84.961
1690198119.785,-33.691,-29.297,-24.902,-33.691,-123.047
1690198119.789,-12.207,-30.762,-24.902,-9.277,-44.434
1690198119.792,-4.395,-33.203,-27.832,5.859,-108.398
1690198119.796,-14.648,-30.762,-27.344,-3.418,52.734
1690198119.800,-39.551,-34.180,-29.297,-25.391,157.227
1690198119.804,-47.363,-38.574,-32.715,-41.016,-104.980
1690198119.808,-22.461,-34.668,-29.297,-20.508,-26.855
1690198119.810,-4.883,-34.668,-27.344,9.277,102.051
1690198119.814,-15.137,-34.668,-25.391,2.930,-73.242
1690198119.818,-36.133,-32.227,-20.996,-28.809,-128.906
1690198119.822,-41.504,-31.738,-23.438,-35.156,-3.418
1690198119.826,-17.090,-36.133,-28.809,-13.184,93.262
1690198119.830,2.930,-40.527,-31.250,8.789,30.273
1690198119.834,-6.836,-41.992,-36.133,7.812,11.719
1690198119.837,-24.414,-41.504,-32.227,-28.809,5.371
1690198119.841,-27.344,-41.992,-22.461,-35.645,166.016
1690198119.845,-15.625,-38.086,-25.391,-2.441,66.895
1690198119.849,3.906,-38.086,-33.203,19.043,-100.098
1690198119.853,-6.836,-41.016,-31.250,9.766,101.562
1690198119.855,-42.480,-41.504,-29.297,-23.438,145.020
1690198119.859,-42.480,-41.016,-30.762,-38.574,-102.539
1690198119.863,-21.973,-36.621,-30.762,-23.438,-164.551
1690198119.867,1.953,-36.133,-27.344,-2.930,-62.012
1690198119.871,8.301,-37.109,-28.320,1.465,-20.996
1690198119.875,-19.043,-33.203,-28.809,-12.695,-65.430
1690198119.879,-41.504,-35.156,-32.227,-40.527,-170.410
1690198119.882,-26.855,-39.062,-33.203,-40.039,95.215
1690198119.886,4.883,-41.504,-31.738,4.883,413.574
1690198119.890,-7.324,-40.527,-38.086,-1.465,89.355
1690198119.894,-31.250,-40.527,-38.574,-38.086,-125.000
1690198119.898,-34.180,-43.457,-36.621,-43.945,-115.723
1690198119.899,-24.414,-39.551,-35.645,-38.574,-170.410
1690198119.903,-14.648,-35.645,-38.086,-13.184,-142.090
1690198119.907,0.488,-31.738,-37.109,8.789,-51.758
1690198119.911,-16.602,-33.691,-36.621,-13.672,-45.410
1690198119.915,-50.781,-37.109,-34.668,-49.805,-130.371
1690198119.919,-35.156,-40.527,-32.715,-49.316,-188.477
1690198119.923,-8.789,-43.945,-34.668,-13.184,12.695
1690198119.926,7.324,-40.039,-30.762,25.391,409.180
1690198119.930,-9.766,-38.574,-34.180,-4.883,220.215
1690198119.934,-39.551,-34.180,-36.133,-47.363,-168.945
1690198119.938,-26.855,-26.855,-31.250,-43.457,-99.609
1690198119.942,1.465,-31.250,-31.250,-15.625,103.027
1690198119.944,9.277,-34.180,-33.203,12.207,-1.953
1690198119.948,-5.371,-29.297,-29.785,7.324,-134.277
1690198119.952,-31.738,-27.344,-26.855,-20.996,-92.773
1690198119.956,-32.227,-28.320,-31.738,-33.691,-100.586
1690198119.960,-7.324,-33.203,-36.621,-11.230,-153.320
1690198119.964,5.859,-39.062,-36.133,6.348,-116.211
1690198119.968,-2.930,-41.504,-35.156,-1.465,156.250
1690198119.971,-25.879,-38.574,-35.645,-22.461,252.441
1690198119.975,-33.203,-37.598,-39.062,-49.805,-127.441
1690198119.979,-22.949,-40.039,-42.969,-44.922,-166.016
1690198119.983,-12.695,-40.039,-40.039,-7.324,75.684
1690198119.987,-21.973,-38.086,-39.062,-2.441,-13.672
1690198119.990,-47.363,-36.621,-37.598,-30.273,-161.133
1690198119.994,-48.340,-39.551,-33.691,-41.992,-161.621
1690198119.998,-13.184,-39.551,-31.738,-20.020,13.184
1690198120.002,12.207,-36.621,-29.297,-1.465,29.297
1690198120.006,0.977,-39.062,-34.180,-8.301,-78.125
1690198120.010,-30.273,-40.527,-34.180,-24.902,10.254
1690198120.014,-41.992,-34.180,-34.668,-31.250,247.559
1690198120.017,-27.344,-37.598,-41.016,-23.926,46.875
1690198120.021,-3.418,-40.039,-41.016,4.395,-140.137
1690198120.025,-13.184,-37.109,-38.574,12.695,-61.035
1690198120.029,-39.062,-39.062,-33.691,-21.484,-35.156
1690198120.033,-47.363,-36.621,-30.273,-51.270,-28.809
1690198120.036,-33.203,-41.504,-35.156,-49.805,-124.512
1690198120.040,5.371,-45.410,-32.715,-12.207,-56.152
1690198120.044,12.695,-38.574,-28.320,19.043,244.629
1690198120.048,-37.109,-38.086,-30.762,-19.531,-7.324
1690198120.052,-57.617,-38.574,-31.738,-47.363,-269.043
1690198120.056,-31.250,-39.551,-32.227,-33.691,-92.773
1690198120.060,-9.766,-42.480,-33.203,-8.301,76.660
1690198120.063,-13.672,-40.527,-33.203,0.977,57.129
1690198120.067,-33.203,-41.992,-31.738,-22.949,-24.902
1690198120.071,-44.922,-43.945,-34.668,-42.969,-5.371
1690198120.075,-33.691,-42.969,-38.574,-48.340,-60.547
1690198120.079,-7.812,-42.969,-34.668,-14.648,-56.641
1690198120.095,0.488,-42.969,-33.203,13.672,-43.457
1690198120.099,-19.531,-37.598,-39.062,-2.441,124.512
1690198120.103,-53.223,-31.738,-43.945,-31.738,73.242
1690198120.107,-40.039,-28.320,-43.457,-53.711,-69.336
1690198120.111,-9.766,-27.832,-43.457,-26.855,-36.133
1690198120.115,8.301,-29.297,-41.016,17.578,335.938
1690198120.119,-1.465,-24.902,-43.945,-6.348,338.379
1690198120.122,-27.832,-25.391,-48.828,-51.270,-77.637
1690198120.126,-22.461,-25.391,-42.969,-49.805,-114.746
1690198120.130,2.930,-26.855,-40.039,-23.926,30.273
1690198120.134,9.766,-31.738,-41.992,-0.488,-63.965
1690198120.138,-4.395,-26.855,-36.133,3.906,-125.977
1690198120.155,-16.113,-22.461,-33.691,-19.043,0.488
1690198120.159,-14.648,-27.344,-39.551,-34.668,12.695
1690198120.163,-1.465,-28.809,-41.016,-16.602,-146.484
1690198120.167,16.602,-27.832,-39.062,2.930,-93.262
1690198120.171,8.301,-29.297,-35.156,-6.836,29.785
1690198120.175,-25.391,-31.738,-33.203,-22.949,16.602
1690198120.179,-30.762,-27.832,-29.297,-27.344,11.230
1690198120.182,-6.836,-28.809,-26.367,-8.789,17.578
1690198120.186,7.812,-32.715,-31.738,13.184,191.406
1690198120.190,0.000,-30.762,-32.715,20.020,359.863
1690198120.194,-30.273,-34.180,-36.133,-25.879,-57.129
1690198120.198,-37.598,-37.598,-39.062,-60.059,-259.766
1690198120.185,-21.973,-37.109,-38.086,-36.621,-116.699
1690198120.189,-6.836,-39.551,-37.109,-7.324,-112.305
1690198120.193,-11.230,-41.016,-39.551,-8.789,-140.625
1690198120.197,-33.691,-40.527,-36.621,-30.762,-93.262
1690198120.201,-45.898,-39.551,-32.715,-46.387,-56.152
1690198120.205,-25.879,-36.621,-32.715,-28.809,-7.324
1690198120.209,-5.859,-36.621,-34.180,0.977,69.336
1690198120.212,-8.301,-35.645,-31.738,5.859,63.477
1690198120.216,-20.020,-33.203,-29.297,-17.578,100.586
1690198120.220,-32.715,-36.133,-33.691,-51.758,-12.695
1690198120.224,-25.879,-35.156,-31.250,-34.180,-90.820
1690198120.228,-3.418,-30.273,-27.344,1.953,77.148
1690198120.230,-1.953,-29.297,-24.902,12.207,392.090
1690198120.234,-25.879,-32.715,-25.879,-7.812,328.125
1690198120.238,-41.016,-32.227,-34.180,-46.387,-142.578
1690198120.242,-32.227,-28.809,-33.203,-43.945,-173.340
1690198120.246,-14.648,-28.320,-33.691,-13.672,-93.262
1690198120.250,-12.207,-29.785,-34.668,1.953,-75.684
1690198120.254,-27.344,-32.715,-33.691,-19.043,-84.961
1690198120.257,-41.992,-33.691,-36.133,-44.922,-43.945
1690198120.261,-47.852,-36.133,-37.109,-45.410,62.012
1690198120.265,-32.715,-41.016,-39.551,-28.809,-160.645
1690198120.269,-18.066,-40.527,-35.156,-12.207,-149.902
1690198120.273,-33.691,-39.551,-32.227,-34.180,100.098
1690198120.274,-50.781,-36.133,-32.715,-66.406,-60.059
1690198120.278,-46.387,-36.621,-32.715,-60.547,-262.207
1690198120.282,-32.715,-39.551,-31.738,-37.109,-176.758
1690198120.286,-25.391,-41.992,-32.227,-22.461,-90.820
1690198120.290,-39.551,-46.387,-37.598,-44.434,-118.652
1690198120.294,-64.453,-45.898,-41.016,-72.266,-191.406
1690198120.298,-61.523,-39.551,-35.156,-65.430,-44.434
1690198120.301,-36.621,-39.062,-28.809,-39.062,309.082
1690198120.305,-27.344,-40.039,-31.250,-34.668,83.984
1690198120.309,-39.062,-39.062,-35.645,-52.246,-258.789
1690198120.313,-53.711,-39.551,-31.250,-63.477,-163.086
1690198120.317,-51.758,-39.551,-25.879,-66.406,-101.562
1690198120.336,-40.527,-40.527,-25.879,-43.945,-187.500
1690198120.340,-26.367,-40.039,-30.762,-15.625,-168.945
1690198120.344,-28.809,-43.457,-35.156,-20.996,-9.766
1690198120.348,-39.551,-45.898,-30.762,-36.621,145.020
1690198120.352,-42.969,-40.039,-29.785,-53.711,-64.453
1690198120.356,-19.531,-35.156,-25.391,-41.992,-181.152
1690198120.360,2.441,-31.250,-20.508,2.930,133.301
1690198120.363,-6.836,-27.832,-20.508,16.602,236.328
1690198120.367,-27.832,-28.809,-27.344,-22.461,-141.602
1690198120.371,-26.367,-30.273,-28.320,-43.945,-241.699
1690198120.375,-13.672,-34.180,-27.344,-25.879,-116.211
1690198120.379,4.883,-34.668,-34.180,-7.324,-81.055
1690198120.364,0.488,-34.180,-35.156,-0.488,-145.508
1690198120.368,-27.832,-36.621,-31.250,-21.484,-144.531
1690198120.372,-34.180,-37.598,-29.785,-43.457,-91.309
1690198120.376,-23.438,-40.039,-33.691,-29.297,-11.719
1690198120.380,-5.371,-39.551,-35.645,2.441,5.859
1690198120.384,10.254,-37.598,-32.715,9.277,88.867
1690198120.388,-16.602,-37.598,-29.785,-12.207,212.891
1690198120.391,-36.621,-33.691,-31.250,-29.785,-11.719
1690198120.395,-17.090,-28.809,-32.715,-20.508,-153.809
1690198120.399,-1.953,-32.227,-30.762,13.184,-87.891
1690198120.403,8.301,-32.715,-30.762,28.809,341.309
1690198120.407,-4.395,-26.855,-29.785,3.418,360.352
1690198120.410,-18.066,-27.344,-25.391,-33.691,-122.559
1690198120.414,-8.789,-27.344,-25.879,-23.926,-143.066
1690198120.418,1.953,-27.344,-27.344,9.277,44.922
1690198120.422,1.953,-29.297,-27.832,21.484,-38.086
1690198120.426,-14.648,-30.273,-27.344,0.977,-157.227
1690198120.430,-24.414,-35.645,-24.902,-19.531,18.066
1690198120.434,-16.113,-39.551,-25.879,-20.020,104.492
1690198120.437,3.418,-35.156,-28.320,-2.930,16.602
1690198120.441,5.371,-30.273,-27.832,22.461,-40.039
1690198120.445,-17.090,-29.785,-27.344,15.137,90.820
1690198120.449,-40.039,-33.203,-34.668,-25.879,189.453
1690198120.453,-33.691,-31.738,-39.551,-38.086,-124.023
1690198120.470,2.930,-24.414,-35.156,-13.184,-205.078
1690198120.474,0.488,-29.297,-34.668,-1.953,-68.359
1690198120.478,-20.020,-30.762,-33.691,-7.324,-125.488
1690198120.482,-32.227,-24.414,-29.785,-22.949,-200.684
1690198120.486,-29.297,-25.391,-29.297,-37.598,-140.625
1690198120.490,-9.766,-27.832,-31.738,-22.949,136.719
1690198120.494,-0.488,-31.738,-34.668,0.488,189.941
1690198120.497,-5.371,-33.691,-35.156,0.000,-17.090
1690198120.501,-23.926,-31.250,-30.273,-24.902,23.438
1690198120.505,-24.902,-29.785,-29.785,-31.738,61.523
1690198120.509,-5.371,-29.297,-34.668,-10.742,-23.438
1690198120.513,8.301,-29.785,-33.691,12.695,-3.906
1690198120.514,-1.465,-34.668,-33.203,4.883,29.297
1690198120.518,-16.113,-33.691,-29.785,-11.719,343.262
1690198120.522,-33.203,-34.668,-26.855,-33.691,213.379
1690198120.526,-25.879,-34.668,-24.902,-30.273,-174.316
1690198120.530,-2.930,-33.203,-24.414,-1.465,-96.680
1690198120.534,-6.348,-32.715,-24.414,2.441,81.055
1690198120.538,-30.273,-34.668,-27.344,-25.879,42.969
1690198120.541,-45.410,-36.621,-31.250,-50.293,-180.176
1690198120.545,-29.785,-33.691,-28.809,-28.320,-28.320
1690198120.549,-13.184,-33.691,-35.156,-0.488,147.949
1690198120.553,-15.137,-35.645,-41.992,-2.441,-101.074
1690198120.557,-38.574,-37.598,-36.133,-28.809,-99.121
1690198120.560,-56.152,-39.551,-31.738,-44.922,54.199
1690198120.564,-35.156,-36.133,-40.527,-38.086,-40.527
1690198120.568,1.465,-36.621,-40.527,1.465,-118.652
1690198120.572,5.371,-39.551,-29.297,16.113,-28.809
1690198120.576,-38.574,-44.922,-27.344,-21.484,-27.344
1690198120.580,-50.781,-45.898,-28.320,-41.992,-3.418
1690198120.584,-38.086,-46.875,-28.809,-40.527,71.777
1690198120.587,-30.273,-51.758,-32.715,-25.879,80.566
1690198120.591,-20.020,-51.270,-29.785,-7.812,230.469
1690198120.595,-39.551,-50.781,-34.668,-28.809,83.496
1690198120.599,-57.129,-50.293,-38.574,-59.570,-187.500
1690198120.603,-37.109,-45.898,-36.133,-52.734,-66.406
1690198120.606,-16.602,-41.016,-34.668,-9.277,104.980
1690198120.610,-8.789,-40.527,-28.809,15.625,25.391
1690198120.614,-19.043,-41.016,-28.320,-20.996,-91.309
1690198120.618,-42.480,-42.480,-28.320,-60.059,-88.379
1690198120.622,-41.504,-44.922,-22.461,-49.316,-27.344
1690198120.626,-14.648,-45.898,-22.461,-12.207,-86.914
1690198120.630,-2.930,-46.875,-30.762,3.906,-104.980
1690198120.633,-10.254,-47.363,-28.320,-8.301,103.027
1690198120.637,-27.344,-43.945,-26.367,-29.297,278.809
1690198120.641,-38.574,-44.434,-32.715,-46.875,-28.320
1690198120.645,-21.484,-43.945,-34.668,-33.203,-145.996
1690198120.649,-1.953,-41.992,-31.250,-0.488,-27.344
1690198120.650,-20.508,-42.969,-28.320,5.859,-34.180
1690198120.654,-44.434,-38.574,-31.738,-26.855,-152.832
1690198120.658,-46.387,-37.109,-36.133,-45.898,-162.598
1690198120.662,-26.855,-38.086,-33.203,-21.484,-41.016
1690198120.666,-8.301,-36.133,-31.738,3.906,22.949
1690198120.670,-15.625,-35.156,-29.297,-3.906,28.320
1690198120.674,-33.691,-36.133,-28.809,-33.691,-42.969
1690198120.677,-28.320,-34.668,-28.320,-40.039,167.969
1690198120.681,-16.113,-36.133,-32.715,-20.020,186.035
1690198120.685,4.395,-34.180,-34.668,-0.977,-83.008
1690198120.689,1.953,-30.762,-32.715,2.441,-109.863
1690198120.693,-22.949,-32.715,-32.227,-18.555,-13.184
1690198120.695,-33.691,-35.645,-31.738,-40.527,-80.566
1690198120.699,-26.367,-35.156,-30.762,-35.156,-162.598
1690198120.703,1.953,-36.133,-27.832,1.953,-49.316
1690198120.707,-3.418,-38.574,-25.879,3.418,68.359
1690198120.711,-33.203,-37.598,-25.879,-29.297,-14.160
1690198120.715,-29.785,-36.133,-23.438,-40.039,-113.281
1690198120.719,-7.324,-35.156,-24.414,-29.785,150.391
1690198120.722,-1.953,-39.062,-25.391,4.883,400.391
1690198120.726,-15.625,-40.527,-31.250,9.277,105.957
1690198120.730,-38.086,-38.086,-32.715,-13.672,-84.961
1690198120.734,-51.758,-37.598,-29.785,-21.484,-10.254
1690198120.738,-41.992,-41.504,-35.156,-28.320,-66.895
1690198120.739,-12.695,-41.504,-34.668,-17.578,-157.715
1690198120.743,-6.836,-42.480,-36.621,-3.418,-80.566
1690198120.747,-28.320,-44.434,-40.527,-16.113,-54.688
1690198120.751,-31.250,-43.457,-36.621,-30.762,-112.305
1690198120.755,-26.367,-42.480,-33.203,-44.922,-147.949
1690198120.759,-8.789,-40.527,-30.273,-22.949,-43.457
1690198120.763,2.441,-38.086,-30.762,4.883,365.234
1690198120.766,-20.020,-38.086,-33.691,-15.137,205.566
1690198120.770,-35.645,-41.504,-36.621,-43.945,-179.199
1690198120.774,-27.832,-38.086,-36.133,-41.016,-83.008
1690198120.778,-1.953,-31.250,-27.832,-6.348,106.934
1690198120.782,12.207,-26.367,-27.832,0.488,-5.859
1690198120.785,-13.184,-30.273,-35.156,-12.695,-207.031
1690198120.789,-30.273,-32.227,-30.762,-28.320,-113.281
1690198120.793,-21.973,-27.344,-27.344,-38.574,63.477
1690198120.797,-1.465,-23.438,-33.691,-20.996,-47.852
1690198120.801,9.277,-23.438,-29.297,-0.488,-73.242
1690198120.805,-2.930,-32.715,-29.297,-3.418,158.203
1690198120.809,-18.066,-35.645,-35.156,-24.414,104.492
1690198120.812,-27.832,-32.227,-36.621,-39.551,-146.484
1690198120.816,-15.137,-32.227,-39.062,-22.949,-159.668
1690198120.820,16.602,-33.691,-35.645,-0.488,13.672
1690198120.824,-5.859,-30.762,-34.180,-13.672,55.176
1690198120.828,-48.828,-31.738,-32.715,-35.156,-79.590
1690198120.845,-45.898,-34.180,-31.738,-42.480,-103.027
1690198120.849,-13.184,-34.180,-37.598,-22.461,40.039
1690198120.853,3.418,-34.668,-40.039,9.766,27.832
1690198120.857,-14.648,-40.527,-37.598,-2.930,-109.375
1690198120.861,-36.621,-40.527,-36.133,-27.832,-80.078
1690198120.865,-30.273,-32.715,-32.227,-41.016,77.148
1690198120.869,-9.766,-30.762,-29.297,-41.992,128.906
1690198120.872,-2.441,-27.344,-27.832,-15.137,13.184
1690198120.876,-6.836,-26.855,-25.879,2.441,11.230
1690198120.880,-26.855,-32.227,-25.879,-10.254,237.793
1690198120.884,-40.527,-36.621,-30.762,-39.551,67.871
1690198120.888,-21.973,-34.180,-30.762,-33.691,-99.121
1690198120.891,0.000,-27.832,-30.762,-5.371,11.719
1690198120.895,-1.953,-30.273,-33.691,5.859,149.902
1690198120.899,-32.715,-30.762,-35.645,-21.484,63.477
1690198120.903,-40.039,-30.762,-39.551,-53.711,-169.434
1690198120.907,-14.160,-33.203,-39.062,-28.809,-115.234
1690198120.911,12.695,-27.832,-31.738,22.461,103.516
1690198120.915,6.348,-31.738,-24.902,17.090,23.926
1690198120.918,-27.832,-36.621,-24.902,-26.855,-127.930
1690198120.922,-46.875,-35.156,-27.832,-43.457,1.953
1690198120.926,-24.414,-31.738,-27.832,-33.691,111.816
1690198120.930,-0.977,-26.855,-28.320,-18.555,-99.121
1690198120.934,4.395,-29.785,-27.832,-0.488,-81.543
1690198120.935,-10.742,-32.715,-29.297,-16.113,-23.926
1690198120.939,-28.320,-32.715,-33.203,-39.062,-147.949
1690198120.943,-22.461,-33.691,-32.715,-25.879,-231.445
1690198120.947,-8.789,-35.645,-33.691,2.930,-140.137
1690198120.951,3.418,-33.691,-30.762,25.879,40.039
1690198120.955,-4.883,-33.203,-27.344,15.625,97.656
1690198120.959,-29.297,-40.039,-28.320,-30.762,59.570
1690198120.962,-37.109,-46.875,-34.180,-52.246,-3.418
1690198120.966,-9.277,-46.875,-35.156,-15.137,242.188
1690198120.970,0.000,-43.457,-34.180,6.348,209.473
1690198120.974,-23.926,-44.922,-36.133,-18.066,-122.070
1690198120.978,-42.969,-44.922,-35.645,-39.062,-32.227
1690198120.979,-45.410,-43.457,-32.715,-46.387,68.359
1690198120.983,-29.297,-41.016,-31.250,-30.273,-123.535
1690198120.987,-24.902,-43.945,-34.668,-9.277,-149.902
1690198120.991,-30.762,-44.922,-30.762,-21.484,-51.270
1690198120.995,-44.922,-47.363,-33.691,-47.852,-100.098
1690198120.999,-53.711,-50.293,-40.039,-48.340,-78.613
1690198121.003,-38.086,-42.969,-42.969,-32.227,-83.984
1690198121.006,-11.230,-42.480,-45.898,-14.648,137.695
1690198121.010,-11.719,-42.969,-41.504,-15.137,410.156
1690198121.014,-45.410,-40.039,-38.086,-51.270,45.898
1690198121.018,-58.105,-40.527,-35.156,-65.430,-172.852
1690198121.022,-31.250,-36.621,-31.250,-32.715,-61.523
1690198121.024,-13.184,-38.574,-33.203,-4.395,-63.477
1690198121.028,-18.066,-39.062,-30.273,-8.301,-120.117
1690198121.032,-33.691,-37.109,-25.879,-29.297,-94.238
1690198121.036,-36.133,-37.598,-26.367,-36.133,-77.637
1690198121.040,-16.602,-38.086,-27.832,-27.832,-92.285
1690198121.044,-12.695,-41.016,-29.785,-13.184,-16.113
1690198121.048,-24.902,-42.969,-29.297,-9.277,116.211
1690198121.051,-34.180,-39.551,-26.367,-25.391,298.340
1690198121.055,-36.621,-36.133,-28.320,-44.434,85.449
1690198121.059,-23.926,-35.645,-29.785,-37.598,-136.719
1690198121.063,-12.207,-40.039,-28.320,-14.160,46.875
1690198121.067,-11.230,-40.527,-25.391,-7.812,371.582
1690198121.069,-31.250,-38.086,-27.344,-20.996,114.258
1690198121.073,-44.922,-40.039,-32.227,-48.340,-161.133
1690198121.077,-39.062,-42.969,-31.738,-55.664,-63.477
1690198121.081,-18.066,-41.504,-30.273,-23.438,-17.578
1690198121.085,-10.254,-42.969,-29.785,-5.371,-106.445
1690198121.089,-33.203,-41.992,-30.273,-34.668,-130.859
1690198121.093,-49.805,-40.527,-29.785,-53.223,117.676
1690198121.096,-41.016,-38.086,-27.832,-43.945,252.930
1690198121.100,-29.785,-35.645,-31.738,-20.996,-52.734
1690198121.104,-16.602,-41.016,-35.156,-5.371,-160.156
1690198121.108,-16.602,-43.457,-35.645,-19.043,-114.746
1690198121.112,-36.133,-37.598,-34.180,-45.410,-118.652
1690198121.115,-35.156,-37.598,-34.180,-56.152,-116.211
1690198121.119,-10.742,-40.039,-34.180,-30.273,-102.539
1690198121.123,-1.465,-42.480,-33.691,-0.977,56.641
1690198121.127,-25.879,-39.062,-33.203,-19.043,-44.922
1690198121.131,-42.969,-39.551,-32.715,-55.664,-216.309
1690198121.135,-32.227,-43.945,-36.133,-60.059,-70.801
1690198121.139,-10.742,-44.434,-34.180,-34.180,242.676
1690198121.142,-12.695,-40.527,-36.133,-12.695,106.445
1690198121.146,-26.367,-38.574,-41.992,-14.648,-161.133
1690198121.150,-24.902,-37.109,-35.645,-28.320,-166.992
1690198121.154,-23.926,-40.527,-35.156,-39.551,-128.906
1690198121.158,-23.926,-41.992,-42.480,-27.832,-176.270
1690198121.190,-8.301,-38.574,-43.457,-1.465,-240.723
1690198121.194,-8.789,-44.434,-39.551,-9.277,-102.539
1690198121.198,-33.203,-48.340,-38.086,-34.180,208.984
1690198121.202,-42.969,-43.945,-40.527,-57.129,7.324
1690198121.206,-22.461,-39.551,-41.992,-46.875,-195.801
1690198121.210,2.930,-37.109,-38.574,-7.324,83.984
1690198121.214,-4.395,-39.551,-38.574,2.441,192.383
1690198121.217,-27.832,-37.109,-38.086,-27.344,-83.984
1690198121.221,-39.551,-34.180,-38.574,-52.734,-220.215
1690198121.225,-18.066,-36.133,-37.598,-29.297,-31.738
1690198121.229,-1.465,-33.203,-36.133,9.766,38.086
1690198121.233,-8.789,-35.645,-39.062,8.789,-57.617
1690198121.220,-38.574,-41.016,-41.504,-25.879,-44.434
1690198121.224,-55.664,-39.062,-42.480,-68.359,-33.203
1690198121.228,-34.668,-36.133,-38.574,-66.895,-78.613
1690198121.232,-3.418,-34.668,-32.227,-26.855,-158.203
1690198121.236,-8.789,-39.062,-31.250,-9.766,-97.168
1690198121.240,-30.762,-39.551,-29.785,-22.949,41.992
1690198121.244,-36.621,-36.621,-28.809,-34.668,-38.086
1690198121.247,-35.645,-37.109,-31.738,-43.945,-62.988
1690198121.251,-13.184,-34.668,-36.133,-27.832,-4.395
1690198121.255,-0.488,-35.156,-32.227,2.441,61.035
1690198121.259,-18.555,-37.598,-31.250,-3.906,6.348
1690198121.263,-43.457,-33.203,-32.227,-38.574,-29.297
1690198121.265,-44.434,-32.227,-28.809,-43.945,-59.570
1690198121.269,-14.648,-35.156,-27.344,-8.789,270.996
1690198121.273,-7.812,-35.645,-31.250,6.836,276.367
1690198121.277,-29.297,-36.621,-38.086,-16.602,-107.910
1690198121.281,-47.363,-30.273,-37.598,-48.340,-161.621
1690198121.285,-38.086,-29.297,-38.574,-47.852,-74.219
1690198121.289,-5.371,-32.715,-38.574,-11.719,-42.969
1690198121.292,8.789,-25.391,-32.227,16.602,-85.938
1690198121.296,-8.789,-24.414,-30.762,20.996,33.203
1690198121.300,-25.391,-30.762,-28.809,-6.348,241.699
1690198121.304,-32.715,-27.344,-30.762,-38.086,-41.504
1690198121.308,-4.883,-24.414,-38.086,-14.648,-147.461
1690198121.310,15.625,-29.785,-30.273,26.855,18.555
1690198121.314,-14.160,-39.551,-21.484,11.719,-18.066
1690198121.318,-41.992,-42.480,-24.902,-33.691,-85.938
1690198121.322,-34.668,-42.969,-20.020,-34.180,-110.840
1690198121.326,-13.672,-47.852,-14.648,2.930,44.922
1690198121.330,-6.836,-55.664,-13.184,19.043,73.730
1690198121.334,-24.902,-61.035,-9.277,6.348,9.277
1690198121.337,-51.270,-67.383,0.000,-18.555,33.691
1690198121.341,-57.129,-76.660,0.488,-33.203,265.137
1690198121.345,-38.574,-75.195,-4.883,-13.672,171.387
1690198121.349,-24.414,-70.312,-2.930,21.973,-22.461
1690198121.353,-34.668,-67.871,-5.859,32.227,164.062
1690198121.370,-58.594,-59.570,-8.301,-1.953,345.215
1690198121.374,-64.941,-54.688,-13.184,-49.316,56.641
1690198121.378,-33.203,-57.617,-16.602,-26.855,-145.996
1690198121.382,-12.695,-54.688,-11.230,22.949,-21.484
1690198121.386,-24.414,-51.758,-14.648,27.344,-18.555
1690198121.390,-39.062,-51.758,-20.508,-7.324,-32.715
1690198121.394,-38.086,-48.828,-23.438,-32.715,-29.297
1690198121.397,-9.766,-48.340,-19.531,-9.277,64.941
1690198121.401,10.742,-52.246,-18.555,19.531,192.383
1690198121.405,5.371,-48.828,-21.973,22.461,-30.273
1690198121.409,-17.090,-43.457,-20.996,14.160,-132.812
1690198121.413,-35.156,-45.898,-21.484,0.977,-34.668
1690198121.400,-20.996,-46.875,-22.949,-13.672,-31.250
1690198121.404,-8.301,-47.363,-28.809,-8.301,-163.086
1690198121.408,-15.625,-50.293,-34.180,12.695,-121.582
1690198121.412,-31.250,-47.363,-25.391,4.395,87.891
1690198121.416,-36.621,-46.875,-21.484,-30.762,-51.758
1690198121.420,-23.438,-48.828,-21.973,-41.992,-157.715
1690198121.424,3.906,-42.480,-20.020,-11.230,6.348
1690198121.427,17.090,-36.133,-20.996,22.949,123.535
1690198121.431,-8.789,-35.645,-27.344,2.441,19.043
1690198121.435,-33.203,-38.086,-26.855,-33.203,-167.969
1690198121.439,-31.738,-38.086,-23.926,-34.668,-141.602
1690198121.443,-6.348,-38.574,-21.484,0.488,358.398
1690198121.445,7.812,-43.945,-24.902,30.762,313.477
1690198121.449,-9.277,-41.016,-26.367,17.578,-121.582
1690198121.453,-33.691,-31.738,-33.691,-27.832,-120.117
1690198121.457,-35.645,-31.250,-42.480,-54.199,-109.863
1690198121.461,-6.836,-31.738,-40.527,-19.043,-164.062
1690198121.465,14.160,-13.672,-40.527,1.465,-120.117
1690198121.469,-1.953,-0.488,-41.504,3.418,80.566
1690198121.472,-38.086,1.465,-44.434,-33.691,231.934
1690198121.476,-48.340,9.766,-55.176,-78.125,-120.117
1690198121.480,-13.184,12.207,-52.734,-36.133,-220.215
1690198121.484,18.066,14.648,-50.781,7.812,-47.363
1690198121.488,3.906,12.207,-58.594,3.418,-41.016
1690198121.490,-15.625,13.672,-58.594,-32.715,-141.602
1690198121.494,-12.695,23.438,-62.012,-61.035,-154.297
1690198121.498,14.160,28.809,-66.406,-45.898,-33.203
1690198121.502,59.082,30.762,-61.523,-9.766,-4.883
1690198121.506,59.082,21.973,-64.941,-30.273,-0.488
1690198121.510,7.324,17.578,-69.336,-75.195,76.660
1690198121.514,-11.230,8.301,-74.219,-82.031,298.828
1690198121.517,-4.883,1.953,-76.660,-64.941,190.430
1690198121.521,19.531,20.996,-76.660,-30.762,-66.406
1690198121.525,25.391,38.086,-74.707,-17.578,-38.086
1690198121.529,-7.812,38.086,-68.848,-29.297,110.352
1690198121.533,-11.719,38.574,-69.824,-50.781,53.223
1690198121.535,10.742,38.574,-71.777,-47.363,-101.074
1690198121.539,44.434,34.668,-63.477,2.441,-29.785
1690198121.543,49.805,26.855,-58.105,10.742,152.344
1690198121.547,15.625,21.973,-61.035,-30.762,-51.270
1690198121.551,15.137,20.020,-53.711,-47.852,-220.215
1690198121.555,10.254,20.508,-48.828,-29.785,-39.551
1690198121.559,14.648,20.020,-50.781,-2.441,161.133
1690198121.562,27.832,-3.906,-48.828,12.207,109.863
1690198121.566,-4.395,-20.508,-55.176,-26.367,-60.547
1690198121.570,-29.297,-9.766,-53.711,-53.223,0.000
1690198121.574,-21.484,1.465,-42.969,-45.410,94.727
1690198121.578,1.953,0.000,-39.062,-20.996,-91.309
1690198121.595,4.883,-10.254,-43.457,7.324,-114.746
1690198121.599,-1.465,-10.254,-40.039,-10.254,-78.613
1690198121.603,-28.320,-17.090,-34.668,-54.688,-149.902
1690198121.607,-43.457,-20.508,-38.086,-45.898,-227.539
1690198121.611,-7.324,-11.230,-26.855,10.254,-87.402
1690198121.615,5.859,-16.602,-25.391,27.832,88.379
1690198121.619,-28.320,-28.809,-38.086,-11.719,-4.883
1690198121.622,-44.434,-23.926,-35.645,-54.688,-105.957
1690198121.626,-20.508,-19.531,-30.762,-51.758,-62.988
1690198121.630,2.930,-24.902,-34.180,-2.930,220.215
1690198121.634,14.160,-24.414,-31.738,30.762,196.289
1690198121.638,-18.066,-27.344,-32.227,-3.906,20.508
1690198121.640,-53.711,-25.879,-32.715,-60.059,8.789
1690198121.644,-32.227,-28.809,-28.320,-57.129,157.227
1690198121.648,-4.395,-34.668,-32.227,-16.602,-0.977
1690198121.652,12.695,-30.273,-35.645,16.113,-91.797
1690198121.656,-4.395,-28.320,-32.715,9.277,17.578
1690198121.660,-41.992,-30.273,-35.645,-21.484,3.418
1690198121.664,-39.551,-36.621,-32.715,-46.387,-11.230
1690198121.667,-14.160,-39.062,-30.762,-36.133,-78.613
1690198121.671,19.043,-33.203,-33.203,23.926,100.098
1690198121.675,0.000,-33.691,-35.156,36.621,284.180
1690198121.679,-36.621,-33.691,-39.551,-24.902,-48.340
1690198121.683,-33.203,-25.879,-29.785,-52.734,-238.770
1690198121.685,1.465,-32.227,-24.902,-20.508,-43.945
1690198121.689,28.320,-37.109,-40.039,17.578,14.160
1690198121.693,0.000,-41.016,-42.480,12.695,-68.359
1690198121.697,-35.645,-41.992,-37.598,-30.762,-72.266
1690198121.701,-30.762,-31.738,-38.574,-44.922,4.395
1690198121.705,-3.418,-35.156,-25.391,-9.277,-18.555
1690198121.709,14.648,-37.598,-14.160,11.719,-9.277
1690198121.712,-25.879,-39.551,-19.043,-5.371,36.621
1690198121.716,-80.566,-56.152,-19.043,-34.180,193.848
1690198121.720,-97.168,-62.012,-28.809,-83.984,-3.906
1690198121.724,-110.352,-69.336,-36.133,-109.863,-244.629
1690198121.728,-93.262,-59.570,-15.625,-67.383,17.090
1690198121.730,-94.238,-58.105,-12.695,-51.758,142.090
1690198121.734,-154.297,-80.078,-25.391,-115.723,-43.945
1690198121.738,-190.918,-83.008,-19.043,-172.363,-171.875
1690198121.742,-170.898,-76.660,-7.324,-157.715,-53.223
1690198121.746,-141.602,-80.566,-5.859,-117.188,139.648
1690198121.750,-145.996,-79.102,-17.578,-115.234,61.523
1690198121.754,-173.828,-78.125,-16.113,-143.555,-39.062
1690198121.757,-208.008,-80.566,-15.137,-186.035,0.000
1690198121.761,-179.199,-78.125,-19.043,-169.922,56.641
1690198121.765,-125.488,-78.125,-23.926,-111.328,-138.672
1690198121.769,-108.887,-73.242,-29.785,-80.566,-77.148
1690198121.773,-108.887,-71.289,-26.855,-103.516,89.355
1690198121.775,-137.207,-68.848,-27.344,-140.137,-95.703
1690198121.779,-133.789,-64.453,-29.297,-134.766,-233.887
1690198121.783,-75.684,-68.359,-30.273,-85.938,-159.668
1690198121.787,-38.086,-67.871,-26.855,-40.039,25.879
1690198121.791,-62.500,-65.918,-26.855,-36.621,-4.883
1690198121.795,-88.867,-66.895,-32.715,-77.637,-101.562
1690198121.799,-79.590,-62.988,-30.273,-92.285,-12.207
1690198121.802,-39.551,-60.059,-22.949,-35.645,333.496
1690198121.806,-20.508,-59.570,-22.461,3.906,325.195
1690198121.810,-28.809,-51.758,-23.926,-11.719,-89.844
1690198121.814,-51.270,-49.316,-20.508,-45.410,-158.691
1690198121.818,-50.293,-51.270,-22.461,-66.895,-76.660
1690198121.820,-25.391,-51.758,-24.414,-34.180,-153.809
1690198121.824,-0.977,-50.781,-23.926,8.789,-127.930
1690198121.828,-10.254,-50.293,-25.391,-1.465,4.395
1690198121.832,-42.969,-52.734,-30.273,-44.434,-10.742
1690198121.836,-47.363,-47.852,-31.738,-67.871,-180.664
1690198121.840,-16.113,-47.363,-30.273,-30.273,-115.234
1690198121.844,20.508,-51.270,-27.832,18.066,220.215
1690198121.847,19.531,-50.781,-26.855,16.602,394.043
1690198121.851,-31.250,-47.363,-27.832,-21.484,105.469
1690198121.855,-43.945,-42.969,-26.855,-54.688,-124.023
1690198121.859,-8.789,-42.969,-25.391,-34.668,-19.531
1690198121.863,18.555,-42.480,-25.879,26.855,-10.742
1690198121.864,14.648,-42.480,-28.320,37.598,-123.047
1690198121.868,-14.648,-43.945,-27.832,-16.602,-94.238
1690198121.872,-33.691,-43.457,-25.391,-45.898,-70.312
1690198121.876,-14.648,-44.922,-27.344,-27.832,-111.328
1690198121.880,18.555,-44.922,-32.715,9.277,-90.820
1690198121.884,39.551,-37.598,-29.785,48.828,110.840
1690198121.888,8.789,-41.016,-21.973,20.996,366.699
1690198121.891,-51.270,-47.852,-20.996,-59.082,98.633
1690198121.895,-45.898,-48.828,-27.832,-58.105,-145.996
1690198121.899,-17.578,-53.711,-26.855,2.441,-37.109
1690198121.903,-14.648,-53.711,-23.926,28.809,135.254
1690198121.907,-41.016,-50.293,-21.484,-12.695,59.082
1690198121.910,-83.984,-49.805,-24.414,-70.312,-125.000
1690198121.914,-68.848,-49.805,-27.344,-71.777,-156.250
1690198121.918,-9.766,-53.711,-21.973,-11.719,159.668
1690198121.922,-6.348,-55.176,-26.367,10.254,90.820
1690198121.926,-39.062,-51.270,-29.297,-22.461,-107.422
1690198121.930,-52.734,-49.316,-26.855,-59.082,17.090
1690198121.934,-42.480,-49.316,-30.273,-69.336,44.922
1690198121.937,-23.926,-49.805,-35.645,-30.762,-101.074
1690198121.941,-9.277,-46.875,-33.203,3.418,-119.141
1690198121.945,-20.508,-45.410,-31.250,-11.719,72.754
1690198121.949,-45.898,-46.875,-33.203,-49.805,22.949
1690198121.953,-54.199,-46.387,-28.320,-62.500,-201.172
1690198121.969,-20.996,-47.363,-25.391,-23.926,-112.793
1690198121.973,8.301,-46.875,-24.414,20.508,153.809
1690198121.977,-13.672,-44.922,-23.438,-0.488,73.730
1690198121.981,-46.875,-43.457,-27.344,-50.293,-133.301
1690198121.985,-41.504,-41.992,-26.855,-59.570,-155.762
1690198121.989,-9.766,-45.898,-24.902,-21.484,81.543
1690198121.993,15.137,-42.969,-27.344,20.020,191.406
1690198121.996,0.977,-35.156,-27.832,12.207,27.344
1690198122.000,-32.715,-36.133,-26.367,-38.086,-84.961
1690198122.004,-29.785,-40.039,-21.973,-52.246,65.918
1690198122.008,-4.883,-41.992,-25.879,-20.508,-14.648
1690198122.012,20.996,-42.480,-32.227,16.113,-57.129
1690198122.015,8.301,-43.457,-33.203,17.578,9.766
1690198122.019,-41.504,-44.434,-35.645,-34.180,-2.930
1690198122.023,-60.547,-40.039,-39.551,-64.941,-175.781
1690198122.027,-15.625,-38.086,-40.527,-33.203,-166.504
1690198122.031,15.625,-34.180,-35.645,14.160,42.969
1690198122.035,0.488,-33.691,-34.180,17.090,171.875
1690198122.039,-29.297,-37.109,-35.156,-27.832,64.941
1690198122.042,-48.828,-37.598,-33.203,-59.082,-188.477
1690198122.046,-23.926,-38.086,-27.832,-40.039,-48.340
1690198122.050,14.160,-39.551,-25.391,10.254,220.703
1690198122.054,15.137,-37.109,-28.809,14.648,-50.781
1690198122.058,-19.531,-35.156,-28.809,-22.949,-205.078
1690198122.060,-49.805,-34.668,-25.391,-63.965,-113.281
1690198122.064,-40.527,-41.016,-29.785,-63.477,-138.672
1690198122.068,-2.441,-42.480,-32.715,-11.719,-136.719
1690198122.072,1.465,-36.621,-27.344,9.766,-59.570
1690198122.076,-32.715,-43.457,-29.297,-23.438,-5.371
1690198122.080,-52.734,-49.316,-35.156,-63.965,32.227
1690198122.084,-33.203,-46.875,-34.668,-57.617,-39.062
1690198122.087,-1.953,-46.875,-31.738,-10.742,-28.320
1690198122.091,3.906,-44.434,-26.855,14.648,347.656
1690198122.095,-31.738,-42.480,-23.926,-16.113,270.996
1690198122.099,-65.430,-44.434,-24.902,-73.730,-165.039
1690198122.103,-43.945,-44.434,-26.855,-73.730,-125.488
1690198122.105,-6.836,-47.363,-29.297,-16.602,-40.527
1690198122.109,8.301,-44.922,-32.227,10.254,-109.375
1690198122.113,-10.254,-38.574,-30.273,-14.160,-164.062
1690198122.117,-36.621,-38.574,-28.320,-42.969,-154.297
1690198122.121,-26.855,-41.016,-27.344,-41.992,-47.852
1690198122.125,-3.906,-37.598,-24.902,-7.812,-9.277
1690198122.129,10.254,-28.809,-25.391,28.809,20.508
1690198122.132,-3.418,-29.297,-25.391,9.766,149.414
1690198122.136,-31.738,-34.180,-23.438,-32.715,224.609
1690198122.140,-32.715,-29.785,-26.855,-43.945,-141.113
1690198122.144,-1.465,-28.320,-27.344,-9.277,-221.680
1690198122.148,26.855,-29.785,-25.879,37.109,47.852
1690198122.150,16.602,-28.809,-31.250,25.391,12.207
1690198122.154,-24.902,-27.344,-30.273,-33.691,-161.133
1690198122.158,-50.293,-37.109,-28.809,-60.547,-151.855
1690198122.162,-22.461,-41.992,-31.250,-31.250,-83.008
1690198122.166,13.184,-36.621,-32.715,0.488,-35.156
1690198122.170,4.883,-36.133,-31.250,-3.418,50.781
1690198122.174,-25.391,-39.062,-30.273,-33.691,106.445
1690198122.177,-40.039,-44.922,-31.738,-54.199,209.473
1690198122.181,-14.160,-48.340,-35.645,-42.969,80.566
1690198122.185,8.789,-42.480,-35.645,-10.254,-65.430
1690198122.189,-3.906,-41.992,-30.273,-5.371,3.418
1690198122.193,-32.715,-45.898,-31.738,-47.363,35.645
1690198122.194,-53.711,-44.434,-37.109,-75.684,-81.543
1690198122.198,-33.203,-42.480,-34.180,-49.316,-143.066
1690198122.202,7.812,-35.645,-26.855,8.301,25.879
1690198122.206,1.465,-36.621,-27.344,24.414,178.711
1690198122.210,-31.738,-33.203,-29.297,-25.879,-47.363
1690198122.214,-41.504,-22.949,-23.438,-59.082,-154.785
1690198122.218,-20.508,-27.832,-21.973,-42.480,36.621
1690198122.221,8.301,-31.250,-26.855,7.324,251.953
1690198122.225,5.859,-22.461,-24.902,31.250,51.270
1690198122.229,-11.719,-24.414,-24.902,4.395,-99.609
1690198122.233,-26.367,-33.691,-29.297,-39.551,-119.629
1690198122.237,-25.879,-39.551,-29.297,-48.828,-163.086
1690198122.241,4.395,-36.621,-25.879,-13.672,-113.281
1690198122.245,1.953,-34.180,-24.902,5.859,19.531
1690198122.249,-38.086,-36.133,-24.902,-13.672,151.367
1690198122.253,-57.129,-34.668,-22.949,-56.152,-13.672
1690198122.257,-38.574,-33.203,-25.391,-56.641,-172.363
1690198122.261,-7.812,-36.621,-29.785,-10.742,41.992
1690198122.265,7.324,-35.645,-30.273,20.508,388.184
1690198122.268,-15.625,-34.180,-30.762,-13.672,144.531
1690198122.272,-72.754,-42.480,-33.691,-69.336,-182.617
1690198122.276,-79.590,-40.039,-35.156,-67.871,-142.578
1690198122.280,-37.598,-34.668,-34.668,-31.738,28.320
1690198122.284,-14.160,-40.527,-33.691,-6.836,63.477
1690198122.285,-31.250,-41.504,-33.691,-8.789,-65.918
1690198122.289,-61.523,-38.574,-33.203,-44.922,-88.379
1690198122.293,-62.988,-40.527,-34.180,-67.871,-33.203
1690198122.297,-32.227,-42.480,-36.133,-26.367,-44.922
1690198122.301,-8.301,-41.016,-38.574,12.695,-29.785
1690198122.305,-18.066,-37.598,-38.574,1.953,196.289
1690198122.309,-47.852,-38.086,-34.180,-35.156,439.453
1690198122.312,-57.129,-40.527,-32.715,-59.082,23.438
1690198122.316,-23.438,-41.504,-34.668,-33.691,-186.035
1690198122.320,5.371,-40.039,-35.156,11.719,77.637
1690198122.324,-5.859,-34.180,-36.133,7.812,53.711
1690198122.328,-51.270,-39.062,-39.551,-42.969,-183.594
1690198122.345,-65.430,-49.316,-37.598,-68.359,-191.406
1690198122.349,-15.137,-49.316,-35.156,-29.297,-21.973
1690198122.353,16.113,-43.945,-37.598,16.113,41.504
1690198122.357,4.883,-40.527,-33.691,19.531,-0.977
1690198122.361,-25.879,-42.969,-31.738,-19.531,-20.020
1690198122.365,-34.180,-42.969,-35.156,-47.363,36.621
1690198122.369,-9.766,-37.598,-31.738,-25.391,-38.574
1690198122.372,14.160,-33.691,-35.156,16.602,-17.578
1690198122.376,13.672,-32.715,-37.598,15.137,73.242
1690198122.380,-20.020,-37.109,-32.715,-22.461,223.633
1690198122.384,-53.711,-36.621,-36.621,-51.270,53.223
1690198122.388,-36.133,-33.691,-38.574,-35.156,-149.902
1690198122.390,8.301,-36.133,-39.062,6.348,-10.742
1690198122.394,0.000,-39.551,-35.645,18.555,122.559
1690198122.398,-42.480,-37.598,-32.715,-18.066,-77.148
1690198122.402,-59.082,-41.016,-38.086,-60.059,-208.008
1690198122.406,-34.180,-45.898,-38.574,-51.758,-86.426
1690198122.410,1.465,-41.992,-33.203,0.000,31.250
1690198122.414,14.648,-38.574,-26.367,12.207,76.660
1690198122.417,-16.113,-38.086,-25.391,-18.555,-12.207
1690198122.421,-49.805,-38.086,-28.809,-47.852,66.895
1690198122.425,-41.992,-48.340,-29.297,-50.781,350.098
1690198122.429,-16.602,-51.270,-35.156,-30.762,33.691
1690198122.433,3.418,-40.527,-33.691,0.977,-152.832
1690198122.435,-15.137,-40.039,-32.227,-7.324,-79.590
1690198122.439,-50.293,-46.387,-37.109,-61.035,-191.406
1690198122.443,-46.387,-43.457,-36.621,-65.918,-254.883
1690198122.447,-6.348,-40.039,-33.203,-14.160,-131.348
1690198122.451,19.531,-39.062,-31.250,19.531,24.414
1690198122.455,-7.812,-43.457,-32.227,-1.465,14.648
1690198122.459,-54.688,-50.781,-34.668,-37.598,-14.648
1690198122.462,-44.922,-42.969,-38.086,-49.316,-25.391
1690198122.466,-1.953,-35.156,-30.273,-5.859,228.027
1690198122.470,-2.930,-36.133,-23.926,13.184,185.547
1690198122.474,-34.180,-41.016,-33.203,-13.672,-81.543
1690198122.478,-57.129,-41.016,-29.785,-44.922,-22.949
1690198122.480,-44.922,-37.598,-22.461,-49.316,163.086
1690198122.484,-14.648,-38.086,-26.367,-21.973,-82.031
1690198122.488,1.465,-39.551,-26.855,11.719,-192.871
1690198122.492,-8.301,-32.227,-23.438,0.977,-27.344
1690198122.496,-35.645,-33.691,-26.367,-50.781,-71.289
1690198122.500,-51.758,-39.062,-27.832,-73.242,-101.562
1690198122.504,-22.461,-38.086,-35.156,-42.480,-22.461
1690198122.507,10.254,-38.574,-36.621,-3.418,128.906
1690198122.511,-6.836,-34.668,-29.785,2.441,228.516
1690198122.515,-46.875,-30.762,-30.762,-43.457,-102.539
1690198122.519,-59.082,-33.203,-29.785,-71.289,-268.555
1690198122.523,-25.879,-32.227,-24.414,-33.203,-116.699
1690198122.526,9.277,-27.832,-22.949,14.648,-55.176
1690198122.530,1.953,-30.273,-26.367,20.508,-101.562
1690198122.534,-31.250,-30.762,-21.973,-23.438,-100.098
1690198122.538,-40.527,-31.250,-22.949,-63.477,7.812
1690198122.542,-22.949,-36.133,-30.273,-41.016,-38.574
1690198122.546,3.418,-31.250,-29.297,8.301,-63.477
1690198122.550,7.812,-24.902,-22.949,21.973,93.262
1690198122.553,-25.879,-29.785,-20.996,-4.395,299.805
1690198122.557,-44.922,-28.320,-23.438,-48.828,53.223
1690198122.561,-20.020,-25.879,-21.973,-34.668,-235.352
1690198122.565,4.883,-25.879,-21.973,23.438,-66.895
1690198122.569,2.441,-24.414,-24.414,38.086,77.637
1690198122.570,-21.973,-29.297,-24.414,-7.812,-60.547
1690198122.574,-40.527,-34.180,-23.926,-49.316,-194.336
1690198122.578,-14.160,-34.668,-23.438,-41.016,-138.672
1690198122.582,14.160,-38.574,-24.414,-4.883,5.859
1690198122.586,16.113,-41.992,-27.832,16.602,51.758
1690198122.590,-6.836,-33.691,-31.738,-8.789,-15.625
1690198122.594,-34.180,-23.438,-28.320,-46.875,80.078
1690198122.597,-31.738,-26.855,-30.762,-41.016,345.215
1690198122.601,-0.488,-31.738,-33.203,0.000,115.234
1690198122.605,10.742,-38.086,-31.738,19.531,-62.988
1690198122.609,-14.160,-40.527,-31.250,-12.207,44.434
1690198122.613,-44.434,-35.156,-34.180,-52.246,-20.996
1690198122.614,-40.039,-35.156,-34.180,-54.199,-201.660
1690198122.618,-8.301,-38.574,-32.715,-17.090,-116.699
1690198122.622,0.488,-39.551,-32.227,11.719,83.984
1690198122.626,-17.578,-35.156,-32.227,-3.418,-10.254
1690198122.630,-50.781,-31.250,-32.227,-58.594,-194.824
1690198122.634,-46.387,-35.156,-29.785,-71.777,-151.367
1690198122.638,-1.465,-41.504,-19.043,-7.324,229.980
1690198122.641,21.973,-45.410,-20.508,41.016,258.789
1690198122.645,7.324,-33.203,-31.738,18.555,-2.441
1690198122.649,-32.227,-17.090,-36.621,-32.715,-85.938
1690198122.653,-51.758,-16.113,-42.480,-59.570,-3.906
1690198122.657,-20.996,-15.625,-46.387,-35.645,-18.555
1690198122.660,17.090,-18.066,-49.316,12.695,-101.074
1690198122.664,17.090,-16.113,-48.828,9.766,0.977
1690198122.668,-11.230,-7.324,-48.828,-36.621,60.059
1690198122.672,-31.250,-2.930,-58.594,-62.500,-170.410
1690198122.676,-6.348,6.836,-65.918,-38.574,-192.871
1690198122.680,35.645,12.695,-64.453,9.766,83.984
1690198122.684,43.457,15.137,-62.988,19.531,160.645
1690198122.687,12.207,17.090,-65.430,-25.879,-79.102
1690198122.691,-3.906,20.020,-64.453,-59.570,-244.629
1690198122.695,46.875,17.578,-56.641,-28.320,-11.719
1690198122.699,93.750,10.254,-54.688,30.273,195.801
1690198122.703,62.988,15.625,-60.547,22.949,-41.504
1690198122.720,23.438,17.578,-58.594,-9.277,-104.004
1690198122.724,26.855,23.926,-54.688,-19.043,-44.922
1690198122.728,62.988,28.809,-59.082,1.953,-114.258
1690198122.732,104.980,4.883,-62.012,51.270,-149.414
1690198122.736,98.633,-1.953,-58.594,67.871,-44.922
1690198122.740,50.293,26.855,-56.641,37.598,81.055
1690198122.744,25.879,46.387,-59.570,-15.625,-6.348
1690198122.747,35.156,50.293,-56.641,-24.902,-139.648
1690198122.751,72.266,47.852,-46.875,36.133,-79.590
1690198122.755,84.961,42.480,-43.457,68.848,205.566
1690198122.759,44.434,32.227,-49.805,22.949,39.551
1690198122.763,20.996,21.973,-54.688,-17.578,-201.660
1690198122.764,37.598,16.602,-50.293,-11.719,-59.570
1690198122.768,69.824,13.184,-41.992,46.387,242.188
1690198122.772,70.801,6.836,-45.410,65.430,106.934
1690198122.776,35.645,1.465,-41.992,20.508,-107.910
1690198122.780,7.812,-2.930,-36.621,-14.160,-109.863
1690198122.784,11.230,-10.254,-38.574,-13.672,-90.332
1690198122.788,30.762,-11.719,-39.551,23.926,40.527
1690198122.791,44.922,-12.207,-41.016,41.992,26.855
1690198122.795,36.133,-17.578,-38.574,36.621,87.402
1690198122.799,-1.953,-20.996,-33.203,3.906,180.176
1690198122.803,-16.113,-21.484,-37.109,-20.996,-157.715
1690198122.807,14.160,-21.973,-39.551,20.020,-202.148
1690198122.811,35.645,-20.508,-38.086,53.223,21.484
1690198122.815,22.461,-20.996,-36.621,32.715,5.371
1690198122.819,-6.836,-22.949,-36.133,-12.695,-62.500
1690198122.823,-6.348,-20.996,-35.156,-30.273,-83.984
1690198122.827,22.461,-19.531,-36.133,11.230,81.055
1690198122.831,38.574,-19.531,-32.227,48.340,195.801
1690198122.835,19.043,-23.926,-35.645,39.062,33.203
1690198122.838,-10.742,-23.438,-34.180,-3.418,-83.496
1690198122.842,-19.043,-20.996,-25.391,-20.508,146.484
1690198122.846,-8.301,-22.461,-31.250,-0.977,62.012
1690198122.850,19.531,-26.855,-39.062,24.902,-111.816
1690198122.854,19.531,-26.855,-36.621,25.391,20.996
1690198122.854,-21.484,-26.367,-33.691,-19.043,93.262
1690198122.858,-35.645,-29.297,-37.109,-57.617,-132.324
1690198122.862,-3.418,-30.762,-33.203,-36.133,-215.332
1690198122.866,28.320,-30.762,-32.715,17.578,-90.332
1690198122.870,21.484,-30.762,-31.738,29.785,46.875
1690198122.874,-27.344,-34.668,-32.715,-16.602,38.574
1690198122.878,-47.363,-34.668,-37.109,-52.246,-69.824
1690198122.881,-21.973,-36.621,-39.062,-31.738,101.074
1690198122.885,8.301,-37.109,-35.156,19.531,361.328
1690198122.889,10.742,-30.273,-28.320,25.879,91.309
1690198122.893,-20.508,-31.250,-30.273,-14.160,-137.695
1690198122.897,-42.480,-35.156,-33.691,-47.363,-86.426
1690198122.900,-17.578,-32.715,-32.227,-33.203,-130.371
1690198122.904,9.766,-31.250,-30.762,12.695,-164.062
1690198122.908,-4.883,-33.691,-31.250,28.320,-75.684
1690198122.912,-28.320,-33.691,-33.203,-2.930,-5.371
1690198122.916,-48.340,-34.668,-35.156,-52.734,-61.035
1690198122.920,-40.039,-38.086,-33.203,-47.363,-12.695
1690198122.924,0.488,-36.621,-28.809,2.930,113.770
1690198122.927,10.254,-35.645,-26.855,23.438,338.379
1690198122.931,-25.879,-35.156,-30.273,-10.254,123.047
1690198122.935,-54.688,-34.180,-33.691,-61.035,-259.277
1690198122.939,-40.039,-33.691,-30.762,-44.922,-169.922
1690198122.943,5.371,-33.203,-24.902,21.484,288.086
1690198122.945,15.625,-33.203,-27.832,32.227,219.238
1690198122.949,-20.996,-35.156,-33.691,-10.742,-134.277
1690198122.953,-40.527,-32.715,-32.715,-46.875,-144.531
1690198122.957,-20.996,-34.668,-34.668,-56.152,-161.621
1690198122.961,7.324,-42.969,-31.738,-15.137,-145.996
1690198122.965,23.438,-40.527,-23.438,28.809,8.301
1690198122.969,20.996,-27.344,-20.996,8.789,168.457
1690198122.972,-17.578,-17.578,-24.414,-36.621,200.684
1690198122.976,-47.852,-31.738,-29.785,-63.477,-151.367
1690198122.980,-16.602,-45.410,-36.133,-35.645,-207.031
1690198122.984,12.207,-35.156,-36.133,10.742,99.609
1690198122.988,-7.812,-38.086,-35.645,-9.766,94.727
1690198122.993,-43.945,-49.805,-42.969,-63.965,-85.449
1690198122.997,-48.828,-42.969,-43.945,-66.895,-202.637
1690198123.001,-21.484,-45.898,-44.922,-32.227,-114.746
1690198123.005,3.906,-48.340,-41.504,-2.441,-19.043
1690198123.009,-11.719,-59.082,-34.668,-4.395,-72.266
1690198123.013,-35.645,-56.152,-37.598,-37.109,-39.062
1690198123.017,-34.180,-53.223,-41.016,-41.504,235.840
1690198123.020,-20.508,-50.781,-53.711,-14.648,120.605
1690198123.024,-0.977,-22.461,-57.617,18.555,-45.410
1690198123.028,-13.672,-7.324,-43.457,7.812,-8.301
1690198123.032,-37.598,-15.625,-29.297,-41.504,-19.531
1690198123.036,-45.410,-23.926,-22.461,-65.918,-6.836
1690198123.036,-32.715,-33.203,-27.344,-54.199,-51.758
1690198123.040,1.953,-34.180,-30.762,-8.789,-14.648
1690198123.044,-0.488,-29.297,-29.297,12.207,77.148
1690198123.048,-30.273,-26.855,-24.414,-18.066,-34.180
1690198123.052,-32.227,-29.297,-34.180,-63.477,-219.727
1690198123.056,1.465,-44.922,-45.410,-49.316,-32.227
1690198123.060,19.531,-59.082,-34.180,13.672,496.094
1690198123.063,-15.137,-69.336,-33.203,18.066,340.332
1690198123.067,-58.594,-84.473,-40.039,-42.480,-136.719
1690198123.071,-75.195,-80.078,-30.762,-77.148,-179.199
1690198123.075,-70.312,-63.965,-21.484,-66.406,-188.477
1690198123.079,-55.176,-64.941,-15.137,-33.203,-193.848
1690198123.111,-53.711,-71.289,-13.184,-9.277,-98.145
1690198123.115,-87.891,-77.637,-12.695,-42.480,-10.254
1690198123.119,-130.371,-92.773,-6.348,-89.844,-24.902
1690198123.123,-113.281,-105.957,-1.953,-83.984,-104.492
1690198123.127,-81.055,-115.723,-4.883,-39.062,-65.918
1690198123.131,-62.988,-120.605,-2.930,1.953,360.840
1690198123.135,-77.637,-124.512,-1.465,-18.066,303.711
1690198123.138,-116.211,-125.488,-0.488,-71.289,-137.695
1690198123.142,-112.305,-123.047,8.301,-58.594,-195.801
1690198123.146,-66.406,-121.582,13.184,1.465,52.246
1690198123.150,-36.133,-114.258,7.324,27.832,70.801
1690198123.154,-48.828,-110.352,0.000,7.812,-47.852
1690198123.140,-81.055,-102.051,-2.930,-34.668,-87.891
1690198123.144,-71.289,-92.773,0.977,-50.293,-5.371
1690198123.148,-43.457,-92.773,-1.465,-24.902,-83.984
1690198123.152,-28.320,-89.844,-9.766,11.230,-131.348
1690198123.156,-36.133,-83.984,-12.207,0.000,-64.941
1690198123.160,-64.453,-82.520,-14.160,-42.480,-31.250
1690198123.164,-66.406,-81.055,-15.137,-58.105,-118.652
1690198123.167,-39.551,-78.125,-19.531,-25.879,-91.797
1690198123.171,-14.160,-74.219,-22.949,10.254,91.797
1690198123.175,-19.043,-72.754,-23.438,1.465,33.691
1690198123.179,-54.688,-70.801,-23.438,-27.344,-111.816
1690198123.183,-53.711,-67.383,-22.461,-38.086,-206.543
1690198123.184,-20.508,-67.383,-20.996,-11.230,-11.719
1690198123.188,-1.953,-58.105,-19.531,41.504,305.664
1690198123.192,-14.648,-52.246,-23.438,34.180,13.672
1690198123.196,-53.711,-55.176,-25.391,-24.414,-156.250
1690198123.200,-64.941,-55.664,-23.438,-50.293,-104.980
1690198123.204,-37.598,-50.781,-21.484,-27.832,-110.840
1690198123.208,-1.465,-44.922,-17.090,15.625,-31.738
1690198123.211,0.000,-43.945,-15.137,26.855,63.965
1690198123.215,-26.855,-47.363,-16.602,-6.348,326.660
1690198123.219,-52.734,-45.410,-21.484,-48.828,181.152
1690198123.223,-41.504,-37.598,-29.785,-45.898,-213.867
1690198123.227,3.418,-33.691,-26.367,5.859,-83.984
1690198123.230,3.906,-37.109,-21.973,11.230,125.977
1690198123.234,-33.691,-39.062,-24.414,-30.273,-94.238
1690198123.238,-53.223,-42.480,-19.043,-51.758,-233.887
1690198123.242,-34.668,-45.898,-20.508,-37.598,-108.398
1690198123.246,-5.371,-42.969,-25.879,10.254,1.953
1690198123.250,-0.977,-37.109,-23.926,33.691,69.336
1690198123.254,-34.668,-39.062,-24.902,-18.555,49.316
1690198123.257,-54.199,-41.992,-30.273,-61.523,71.777
1690198123.261,-39.551,-40.527,-33.203,-53.223,164.551
1690198123.265,-15.137,-40.527,-37.598,-24.414,-19.531
1690198123.269,0.977,-43.457,-41.504,16.602,22.461
1690198123.273,-19.043,-42.480,-32.227,10.254,142.578
1690198123.274,-60.059,-45.898,-21.973,-62.012,-78.125
1690198123.278,-72.754,-52.734,-29.785,-92.773,-207.520
1690198123.282,-53.223,-49.316,-38.574,-53.223,-83.008
1690198123.286,-56.152,-46.875,-32.227,-39.062,16.113
1690198123.290,-89.844,-49.316,-24.902,-67.871,24.902
1690198123.294,-123.047,-48.340,-29.785,-123.047,19.043
1690198123.298,-124.512,-47.852,-32.227,-137.207,20.508
1690198123.301,-97.168,-49.805,-24.902,-90.820,238.281
1690198123.305,-88.379,-48.340,-27.344,-81.543,187.012
1690198123.309,-120.117,-49.805,-30.762,-127.441,-134.766
1690198123.313,-157.715,-53.711,-31.250,-169.434,-200.684
1690198123.317,-151.855,-47.363,-36.133,-174.316,-156.738
1690198123.335,-122.559,-43.457,-39.062,-156.738,-101.562
1690198123.339,-90.820,-42.480,-37.109,-112.793,-94.727
1690198123.343,-104.004,-40.039,-30.762,-95.703,-39.062
1690198123.347,-135.254,-37.109,-29.297,-137.207,181.641
1690198123.351,-122.070,-41.504,-39.551,-158.691,-28.320
1690198123.355,-86.426,-50.781,-39.551,-114.258,-135.742
1690198123.359,-55.176,-43.457,-32.715,-56.641,188.965
1690198123.362,-57.129,-37.109,-25.879,-35.156,290.039
1690198123.366,-82.031,-38.086,-27.344,-82.520,-122.070
1690198123.370,-80.566,-38.086,-28.320,-116.699,-281.250
1690198123.374,-50.293,-43.457,-29.297,-83.496,-153.320
1690198123.378,-26.367,-49.316,-37.598,-36.621,-86.426
1690198123.364,-21.973,-52.734,-34.180,-29.297,-59.082
1690198123.368,-51.270,-55.664,-26.855,-65.430,-92.773
1690198123.372,-80.078,-50.781,-31.738,-91.309,-59.082
1690198123.376,-57.617,-38.086,-35.645,-63.477,20.020
1690198123.380,-26.367,-30.273,-42.480,-31.738,16.602
1690198123.384,-22.949,-29.297,-42.969,-19.531,141.113
1690198123.388,-35.645,-34.668,-36.621,-36.621,382.324
1690198123.391,-45.898,-37.109,-35.645,-77.148,111.816
1690198123.395,-20.020,-33.691,-31.250,-65.918,-209.961
1690198123.399,-6.348,-33.203,-29.785,-11.719,-124.023
1690198123.403,-4.883,-33.203,-30.762,10.742,278.320
1690198123.407,-27.832,-36.133,-32.227,-14.648,244.141
1690198123.424,-57.129,-36.621,-33.203,-55.664,-169.922
1690198123.428,-31.738,-35.645,-30.762,-50.293,-207.520
1690198123.432,4.395,-36.621,-31.250,-5.371,-26.855
1690198123.436,7.812,-36.133,-30.273,14.648,-34.668
1690198123.440,-16.602,-35.645,-27.344,-8.789,-159.180
1690198123.444,-32.227,-34.668,-25.391,-37.109,-111.816
1690198123.448,-22.461,-37.109,-25.391,-43.457,9.766
1690198123.451,-4.883,-39.062,-26.367,-13.672,-44.434
1690198123.455,1.953,-37.109,-25.879,15.625,-118.164
1690198123.459,-17.578,-32.715,-22.461,0.488,22.461
1690198123.463,-42.480,-39.551,-25.879,-36.621,113.281
1690198123.467,-45.898,-49.316,-30.762,-47.852,-121.094
1690198123.469,-17.090,-43.457,-32.227,-13.672,-84.473
1690198123.473,0.977,-37.598,-34.668,8.301,37.598
1690198123.477,-20.996,-35.645,-35.156,-12.207,-18.066
1690198123.481,-52.734,-30.273,-31.738,-58.105,-122.559
1690198123.485,-41.992,-30.273,-29.297,-66.406,-170.898
1690198123.489,-8.789,-32.227,-30.762,-24.414,31.738
1690198123.493,1.953,-32.715,-33.691,-0.977,106.934
1690198123.496,-6.836,-35.645,-32.227,-24.414,-31.738
1690198123.500,-52.246,-34.180,-34.668,-63.965,33.203
1690198123.504,-64.453,-33.203,-31.250,-67.871,267.090
1690198123.508,-25.391,-34.668,-31.738,-35.645,202.637
1690198123.512,2.441,-33.203,-30.273,0.488,-6.836
1690198123.515,0.000,-33.691,-28.320,-8.301,20.996
1690198123.519,-38.086,-33.203,-29.785,-39.551,48.340
1690198123.523,-65.918,-34.668,-30.273,-65.430,-157.227
1690198123.527,-39.551,-38.086,-30.762,-41.504,-204.102
1690198123.531,8.301,-32.227,-26.855,11.230,-59.570
1690198123.535,-3.418,-28.320,-24.902,16.113,41.992
1690198123.539,-43.945,-28.320,-30.273,-34.668,-18.555
1690198123.542,-58.594,-32.227,-37.598,-68.848,-128.418
1690198123.546,-21.484,-35.156,-36.621,-28.809,0.488
1690198123.550,23.438,-29.785,-25.391,16.602,213.867
1690198123.554,15.137,-25.879,-24.414,16.113,62.500
1690198123.558,-20.020,-28.809,-30.273,-16.113,-21.484
1690198123.559,-47.852,-32.227,-27.832,-55.176,39.062
1690198123.563,-30.273,-31.738,-33.691,-39.062,-67.383
1690198123.567,8.789,-37.109,-36.133,9.277,-138.184
1690198123.571,2.930,-41.504,-32.227,23.438,-50.781
1690198123.575,-36.133,-34.668,-29.785,-8.789,-26.367
1690198123.579,-55.664,-30.273,-26.855,-48.340,-45.898
1690198123.583,-31.738,-32.715,-30.273,-45.410,-81.543
1690198123.586,12.207,-33.691,-30.273,2.441,-77.637
1690198123.590,5.859,-37.598,-32.715,30.762,293.945
1690198123.594,-35.645,-39.062,-38.574,-17.578,208.008
1690198123.598,-56.152,-39.062,-41.016,-64.453,-157.715
1690198123.602,-33.691,-36.621,-39.551,-53.223,-115.234
1690198123.606,-4.395,-32.227,-38.086,-0.977,125.000
1690198123.610,-2.441,-36.621,-36.621,16.113,87.891
1690198123.614,-23.926,-40.527,-31.738,-17.090,-117.676
1690198123.618,-52.246,-39.062,-28.809,-52.734,-159.180
1690198123.622,-43.457,-38.086,-29.297,-52.734,-94.727
1690198123.626,6.348,-36.621,-28.809,-4.883,27.344
1690198123.630,15.137,-36.621,-31.250,25.879,58.105
1690198123.633,-21.484,-35.645,-29.785,0.977,49.805
1690198123.637,-43.945,-32.715,-23.926,-27.832,183.594
1690198123.641,-46.387,-29.785,-23.926,-33.691,-47.363
1690198123.645,-15.137,-31.738,-30.273,-3.906,-171.875
1690198123.649,13.672,-41.992,-29.297,37.109,-20.996
1690198123.650,-4.883,-45.410,-31.250,14.648,-35.156
1690198123.654,-32.227,-38.086,-37.598,-33.203,-134.277
1690198123.658,-32.715,-34.180,-33.691,-45.898,-196.777
1690198123.662,-6.348,-33.203,-30.762,-19.043,-88.379
1690198123.666,21.484,-31.738,-33.203,28.809,-20.020
1690198123.670,19.531,-30.762,-37.109,34.180,-28.809
1690198123.674,2.441,-26.855,-33.203,-4.883,-9.766
1690198123.677,11.230,-27.832,-25.879,-14.648,243.652
1690198123.681,51.270,-32.715,-32.715,31.250,229.004
1690198123.685,84.473,-31.738,-36.621,91.797,-153.809
1690198123.689,80.078,-29.785,-37.109,106.934,-191.406
1690198123.693,59.082,-31.738,-38.574,65.918,-85.449
1690198123.695,57.129,-30.273,-36.133,52.246,-182.129
1690198123.699,90.820,-25.391,-34.668,76.660,-257.324
1690198123.703,124.512,-24.414,-31.738,119.141,-90.820
1690198123.707,116.699,-17.090,-28.809,131.836,100.586
1690198123.711,75.195,-16.113,-22.949,79.590,-111.328
1690198123.715,54.688,-21.973,-24.902,50.293,-214.355
1690198123.719,67.383,-21.484,-31.738,64.941,52.734
1690198123.722,95.703,-19.043,-24.414,107.422,459.473
1690198123.726,89.355,-15.137,-26.367,107.910,132.812
1690198123.730,41.992,-16.113,-33.203,54.199,-286.621
1690198123.734,10.742,-17.090,-27.832,12.207,-198.730
1690198123.738,22.949,-18.066,-28.809,8.789,-161.621
1690198123.740,49.805,-18.555,-32.715,46.387,-107.910
1690198123.744,50.781,-20.996,-31.738,71.289,15.137
1690198123.748,1.953,-24.902,-32.715,33.691,73.730
1690198123.752,-27.832,-26.855,-34.668,-6.348,-40.039
1690198123.756,-3.906,-32.227,-33.691,-1.465,-156.250
1690198123.760,21.973,-32.227,-34.668,44.922,23.438
1690198123.764,30.273,-29.297,-36.621,74.219,445.801
1690198123.767,-2.930,-25.879,-33.691,28.320,263.184
1690198123.771,-22.949,-25.879,-29.785,-12.695,-114.258
1690198123.775,0.977,-29.785,-27.344,-8.301,-103.516
1690198123.779,27.832,-29.785,-29.785,19.043,58.594
1690198123.783,29.297,-29.297,-27.832,43.457,84.961
1690198123.785,-3.906,-31.250,-27.344,20.020,-73.242
1690198123.789,-32.715,-38.574,-35.156,-30.762,-95.703
1690198123.793,-23.438,-42.969,-38.086,-25.391,12.207
1690198123.797,2.930,-41.992,-41.992,13.672,-119.629
1690198123.801,11.230,-42.969,-43.945,29.297,-107.910
1690198123.805,-8.789,-41.016,-38.574,12.207,106.934
1690198123.809,-33.203,-49.805,-40.527,-40.039,67.383
1690198123.812,-14.160,-58.105,-41.504,-58.105,-136.230
1690198123.816,26.855,-63.965,-35.645,-8.301,-193.359
1690198123.820,30.273,-69.336,-38.086,30.273,36.621
1690198123.824,-15.137,-45.898,-44.922,8.789,221.191
1690198123.828,-44.434,-11.230,-31.738,-18.066,-7.324
1690198123.860,-8.789,-53.223,-12.207,0.977,-187.500
1690198123.864,1.953,-97.168,-29.785,19.531,-11.230
1690198123.868,-5.859,-36.133,-47.363,23.438,76.172
1690198123.872,-14.648,-13.672,-45.898,0.977,-96.191
1690198123.876,-46.387,-20.020,-35.156,-45.410,-109.375
1690198123.880,-57.129,-22.461,-29.297,-67.383,122.070
1690198123.884,-36.621,-25.391,-22.949,-25.879,96.680
1690198123.887,-20.996,-35.156,-37.598,18.066,-81.055
1690198123.891,-26.367,-42.480,-36.133,-2.441,-45.898
1690198123.895,-37.598,-40.039,-15.137,-32.715,128.418
1690198123.899,-50.293,-67.383,-21.484,-50.293,-6.836
1690198123.903,-29.785,-78.125,-21.973,-22.949,-116.699
1690198123.890,1.953,-82.031,-18.555,31.738,-25.391
1690198123.894,-18.066,-55.664,-26.367,5.859,267.578
1690198123.898,-76.172,-26.367,-36.133,-71.289,85.449
1690198123.902,-106.934,-31.250,-38.086,-94.727,-223.633
1690198123.906,-92.773,-29.785,-34.180,-70.312,-135.254
1690198123.910,-58.105,-28.809,-32.715,-37.598,67.383
1690198123.914,-30.762,-46.875,-34.668,-11.719,94.727
1690198123.917,-45.898,-63.965,-33.691,-32.227,5.859
1690198123.921,-74.707,-55.664,-31.250,-79.102,-23.926
1690198123.925,-55.664,-39.551,-30.762,-72.266,-107.910
1690198123.929,-10.254,-24.414,-32.227,-18.066,-123.047
1690198123.933,-11.230,-23.438,-35.156,18.066,-84.961
1690198123.935,-26.855,-42.969,-38.086,-5.371,99.609
1690198123.939,-25.391,-31.250,-35.156,-56.641,139.160
1690198123.943,-46.875,-25.879,-37.109,-75.195,-147.949
1690198123.947,-53.711,-54.688,-37.109,-49.316,-74.707
1690198123.951,-46.387,-64.941,-38.574,-25.391,137.207
1690198123.955,-71.777,-38.574,-37.109,-47.363,104.980
1690198123.959,-86.914,-38.086,-27.344,-93.262,-58.594
1690198123.962,-61.035,-49.805,-26.367,-93.262,-157.227
1690198123.966,-40.527,-47.363,-28.320,-34.668,167.969
1690198123.970,-24.902,-48.340,-31.738,-4.883,237.305
1690198123.974,-32.715,-45.898,-29.297,-22.461,-48.340
1690198123.978,-70.801,-43.457,-27.344,-61.035,-38.574
1690198123.980,-75.195,-45.898,-28.320,-78.125,58.105
1690198123.984,-29.297,-58.594,-26.855,-31.738,-70.801
1690198123.988,-12.207,-70.312,-25.391,13.184,-125.977
1690198123.992,-32.227,-54.688,-27.344,-12.695,-36.133
1690198123.996,-56.641,-36.621,-32.227,-57.617,-34.668
1690198124.000,-66.895,-34.180,-30.273,-54.199,-44.922
1690198124.004,-37.598,-40.039,-31.250,-26.367,22.461
1690198124.007,-20.996,-44.922,-30.273,7.812,185.059
1690198124.011,-30.762,-37.109,-28.320,11.230,397.949
1690198124.015,-55.664,-35.645,-33.203,-50.293,19.043
1690198124.019,-66.406,-46.387,-40.527,-82.520,-266.602
1690198124.023,-41.016,-51.270,-41.504,-61.035,-134.766
1690198124.024,-11.719,-41.992,-39.062,-21.973,-98.633
1690198124.028,-22.949,-34.668,-39.551,-20.020,-97.656
1690198124.032,-47.363,-32.227,-37.598,-52.246,-100.586
1690198124.036,-53.223,-34.180,-39.062,-70.312,-124.023
1690198124.040,-26.367,-39.062,-43.945,-43.945,-124.512
1690198124.044,13.184,-33.203,-41.016,6.836,9.277
1690198124.048,1.465,-34.180,-34.180,16.602,126.465
1690198124.051,-23.926,-34.668,-26.367,-18.555,263.672
1690198124.055,-37.109,-32.715,-24.414,-44.922,144.531
1690198124.059,-30.273,-32.715,-28.809,-22.461,-87.402
1690198124.063,1.953,-30.273,-25.879,20.020,-16.113
1690198124.067,0.000,-35.156,-28.320,39.062,297.363
1690198124.069,-31.250,-33.203,-34.668,-8.301,50.293
1690198124.073,-34.180,-27.344,-30.273,-51.758,-229.492
1690198124.077,-9.277,-31.250,-36.133,-33.691,-159.180
1690198124.081,18.555,-35.645,-35.645,14.160,-72.754
1690198124.085,5.859,-32.715,-17.578,20.508,-3.906
1690198124.089,-48.340,-35.645,-18.066,-49.316,-104.004
1690198124.093,-85.449,-37.109,-26.855,-107.422,-16.602
1690198124.096,-80.078,-15.625,-23.926,-101.074,211.426
1690198124.100,-74.219,-12.695,-34.180,-71.777,-29.297
1690198124.104,-76.660,-21.973,-34.668,-68.848,-157.227
1690198124.108,-110.840,-22.461,-22.949,-93.262,-54.199
1690198124.112,-157.227,-29.297,-24.902,-144.531,-4.883
1690198124.114,-150.879,-41.992,-29.785,-155.762,-110.352
1690198124.118,-102.539,-34.668,-24.414,-116.211,-131.348
1690198124.122,-85.938,-22.949,-16.602,-85.449,139.648
1690198124.126,-139.648,-45.898,-29.297,-125.488,134.277
1690198124.130,-190.918,-51.758,-35.645,-186.035,-179.688
1690198124.134,-172.363,-29.297,-24.902,-186.035,-133.301
1690198124.138,-110.352,-39.551,-31.250,-129.883,217.773
1690198124.141,-83.984,-57.617,-42.969,-89.355,171.875
1690198124.145,-127.441,-50.293,-43.457,-125.000,-62.012
1690198124.149,-141.602,-35.156,-36.621,-164.062,-108.398
1690198124.153,-126.465,-41.016,-33.691,-149.414,-140.625
1690198124.157,-92.285,-41.016,-29.297,-92.773,-70.801
1690198124.161,-60.059,-34.668,-30.273,-60.547,-81.055
1690198124.165,-59.570,-35.645,-32.715,-60.059,21.484
1690198124.169,-81.543,-42.480,-28.809,-71.289,295.898
1690198124.173,-97.656,-43.457,-28.320,-97.656,-17.578
1690198124.177,-62.988,-33.691,-28.320,-74.219,-251.465
1690198124.181,-29.785,-39.062,-36.621,-29.297,-8.789
1690198124.185,-39.551,-35.156,-43.457,-23.926,137.695
1690198124.188,-63.477,-39.062,-35.645,-64.453,-95.703
1690198124.192,-70.801,-46.387,-27.832,-101.074,-320.801
1690198124.196,-43.457,-33.691,-20.996,-66.895,-129.395
1690198124.200,-6.348,-30.762,-20.020,-8.789,3.906
1690198124.204,-21.973,-45.898,-34.180,-13.672,-113.281
1690198124.220,-50.293,-35.645,-29.785,-47.363,-111.816
1690198124.224,-47.852,-23.926,-20.996,-70.801,-79.102
1690198124.228,-22.461,-36.621,-33.691,-66.406,-111.816
1690198124.232,-11.230,-30.762,-41.016,-22.461,-76.660
1690198124.236,-18.555,-36.621,-35.156,-9.766,93.262
1690198124.240,-47.363,-45.898,-34.668,-44.922,316.895
1690198124.244,-73.730,-31.738,-37.598,-87.402,147.949
1690198124.247,-46.387,-23.926,-36.133,-66.895,-161.133
1690198124.251,-8.789,-38.086,-35.645,-4.395,-52.734
1690198124.255,-12.207,-40.039,-29.785,20.508,167.969
1690198124.259,-41.016,-29.297,-30.762,-23.926,48.828
1690198124.263,-42.480,-39.551,-34.180,-73.242,-85.449
1690198124.280,-23.438,-41.992,-29.785,-41.992,-70.801
1690198124.284,8.789,-33.203,-29.297,25.879,171.387
1690198124.288,4.883,-32.227,-32.227,25.391,77.637
1690198124.292,-15.137,-35.645,-29.785,-13.184,-141.602
1690198124.296,-26.367,-41.992,-28.809,-38.574,-134.766
1690198124.300,-17.578,-57.617,-36.133,-23.438,-44.922
1690198124.304,17.578,-47.363,-43.457,20.020,69.336
1690198124.307,26.367,-23.438,-35.645,41.992,65.430
1690198124.311,9.277,-22.461,-21.973,25.879,163.574
1690198124.315,-10.254,-22.949,-19.043,-2.930,323.242
1690198124.319,-20.020,-26.367,-25.879,-8.789,3.418
1690198124.323,0.488,-30.762,-27.344,15.625,-80.566
1690198124.309,18.066,-27.832,-26.855,26.855,61.035
1690198124.313,-0.977,-26.855,-38.086,-0.977,-22.461
1690198124.317,-24.902,-31.250,-33.691,-51.270,-127.930
1690198124.321,-31.250,-35.156,-30.273,-59.082,-140.625
1690198124.325,-13.184,-40.527,-31.738,-12.695,-61.035
1690198124.329,18.066,-40.527,-24.902,24.902,17.578
1690198124.333,0.000,-30.762,-25.879,14.648,80.566
1690198124.336,-43.457,-37.109,-26.367,-35.156,-41.992
1690198124.340,-49.805,-50.293,-25.391,-58.105,-43.945
1690198124.344,-10.742,-39.062,-26.855,-21.484,-31.250
1690198124.348,19.531,-31.738,-25.391,20.508,-20.996
1690198124.352,16.113,-53.223,-28.809,27.344,33.203
1690198124.354,-20.996,-61.523,-25.391,-6.348,277.832
1690198124.358,-53.223,-36.133,-15.625,-40.527,322.266
1690198124.362,-11.719,-18.066,-25.391,-21.484,-77.148
1690198124.366,19.531,-22.949,-28.809,15.625,-152.832
1690198124.370,0.000,-35.645,-20.020,-1.953,-122.559
1690198124.374,-30.762,-32.227,-13.672,-30.762,-116.211
1690198124.378,-54.688,-31.738,-25.391,-54.199,-107.910
1690198124.381,-32.227,-38.574,-38.086,-39.062,-37.109
1690198124.385,17.578,-36.133,-32.715,11.230,223.633
1690198124.389,6.836,-33.203,-29.785,18.066,12.695
1690198124.393,-41.992,-26.367,-37.598,-24.414,-177.246
1690198124.397,-55.664,-25.391,-39.551,-44.434,-24.902
1690198124.399,-34.180,-21.484,-34.668,-5.371,-21.484
1690198124.403,2.930,-21.484,-34.668,32.227,-93.750
1690198124.407,14.648,-30.273,-33.691,19.043,-35.156
1690198124.411,-14.648,-31.738,-23.926,-13.184,59.082
1690198124.415,-45.898,-40.527,-26.855,-45.898,-35.645
1690198124.419,-27.344,-44.922,-38.086,-49.316,-64.941
1690198124.423,-1.465,-39.062,-41.992,0.000,30.273
1690198124.426,-5.371,-34.668,-31.250,36.621,269.531
1690198124.430,-40.527,-40.527,-26.367,-11.230,162.598
1690198124.434,-66.406,-41.504,-28.320,-57.129,-166.992
1690198124.438,-38.574,-39.062,-28.809,-48.828,-168.945
1690198124.442,-4.883,-40.527,-29.785,-6.836,29.297
1690198124.446,7.324,-44.434,-33.691,31.738,9.277
1690198124.450,-7.812,-41.016,-34.180,9.766,-136.230
1690198124.454,-37.598,-31.250,-30.273,-34.180,-47.852
1690198124.458,-43.457,-27.344,-32.715,-53.223,148.926
1690198124.462,-14.160,-30.762,-37.598,-22.461,-6.348
1690198124.466,18.555,-33.203,-42.480,20.996,-86.426
1690198124.470,2.441,-35.645,-40.039,-1.953,129.395
1690198124.473,-34.180,-42.969,-36.133,-33.691,201.660
1690198124.477,-28.809,-44.434,-39.551,-27.832,-123.047
1690198124.481,12.695,-35.645,-32.715,6.348,-174.805
1690198124.485,24.902,-37.109,-31.250,26.855,-14.160
1690198124.489,12.207,-41.016,-38.086,14.160,-41.016
1690198124.489,-23.438,-40.527,-41.016,-23.438,-177.246
1690198124.493,-39.551,-42.480,-42.480,-50.293,-206.055
1690198124.497,-15.137,-34.180,-40.527,-16.602,-58.105
1690198124.501,0.488,-23.926,-40.527,17.578,-5.371
1690198124.505,-19.531,-25.879,-32.227,-10.742,-12.207
1690198124.509,-46.387,-34.180,-29.297,-54.199,54.688
1690198124.513,-52.246,-42.480,-29.785,-58.594,327.148
1690198124.516,-26.855,-36.133,-24.414,-25.879,311.523
1690198124.520,-2.930,-28.320,-30.273,14.648,-26.855
1690198124.524,-9.766,-31.738,-40.527,9.277,-56.152
1690198124.528,-41.992,-40.039,-34.668,-42.969,-19.043
1690198124.532,-57.617,-41.016,-31.250,-62.988,-77.148
1690198124.535,-27.344,-32.715,-33.691,-26.367,-169.922
1690198124.539,4.395,-33.691,-27.832,18.066,-97.168
1690198124.543,-1.953,-41.016,-27.344,17.090,102.539
1690198124.547,-30.273,-47.852,-29.785,-16.113,-82.520
1690198124.551,-38.574,-44.922,-31.738,-41.992,-248.047
1690198124.555,-22.461,-32.715,-38.086,-29.297,-16.602
1690198124.559,0.488,-32.227,-42.969,6.836,157.715
1690198124.562,-6.836,-30.762,-49.316,17.578,93.750
1690198124.566,-48.828,-25.391,-44.922,-21.484,-51.758
1690198124.570,-62.012,-27.344,-31.250,-56.641,-50.293
1690198124.574,-33.691,-24.414,-26.855,-47.363,44.922
1690198124.578,2.441,-22.461,-26.367,-5.371,-47.363
1690198124.594,3.906,-25.879,-19.043,9.277,-9.766
1690198124.598,-35.156,-30.273,-23.438,-30.762,7.812
1690198124.602,-53.223,-33.691,-28.809,-63.965,-80.566
1690198124.606,-26.367,-31.738,-29.297,-47.852,-168.945
1690198124.610,9.277,-29.785,-28.809,-2.441,-62.012
1690198124.614,4.395,-29.785,-27.344,23.926,187.988
1690198124.618,-30.273,-31.738,-31.250,-4.395,105.469
1690198124.621,-45.898,-34.668,-31.738,-53.711,-142.578
1690198124.625,-26.367,-38.086,-30.273,-45.410,-91.309
1690198124.629,7.324,-37.598,-25.879,10.254,261.719
1690198124.633,11.719,-36.621,-26.367,37.109,184.570
1690198124.637,-20.508,-29.785,-31.250,0.977,-25.391
1690198124.640,-38.574,-25.879,-32.715,-46.875,-39.062
1690198124.644,-16.113,-33.691,-29.297,-45.898,77.148
1690198124.648,11.719,-36.133,-31.250,-13.672,-45.898
1690198124.652,13.184,-32.715,-30.762,23.438,-171.387
1690198124.656,-5.859,-30.762,-27.832,20.020,-129.395
1690198124.660,-37.598,-33.203,-27.832,-34.180,-134.766
1690198124.664,-45.410,-47.852,-28.809,-61.523,-147.949
1690198124.667,-14.648,-43.457,-31.250,-30.273,-180.176
1690198124.671,6.348,-24.902,-26.367,12.695,51.758
1690198124.675,-12.695,-27.344,-21.973,7.324,276.855
1690198124.679,-53.711,-32.227,-32.227,-56.641,-72.754
1690198124.683,-51.270,-27.832,-41.504,-80.078,-189.941
1690198124.685,-7.812,-31.738,-38.574,-21.973,81.055
1690198124.689,2.930,-35.645,-32.715,14.160,69.824
1690198124.693,-15.625,-32.227,-29.785,-9.277,-48.828
1690198124.697,-31.738,-36.621,-33.691,-30.762,-37.109
1690198124.701,-23.926,-34.668,-36.621,-36.621,-26.367
1690198124.705,20.020,-28.320,-34.668,-4.395,64.941
1690198124.709,60.547,-29.297,-31.738,53.223,155.273
1690198124.712,58.594,-30.762,-31.738,62.500,48.340
1690198124.716,28.320,-32.227,-32.227,34.180,157.715
1690198124.720,13.184,-33.691,-34.180,14.648,-6.836
1690198124.724,42.969,-33.691,-34.180,34.668,-259.766
1690198124.728,83.008,-26.367,-32.715,84.473,17.578
1690198124.731,82.031,-26.855,-37.109,101.074,233.887
1690198124.735,46.875,-23.438,-38.574,56.641,-39.062
1690198124.739,36.133,-19.531,-37.598,25.391,-157.227
1690198124.743,61.035,-21.484,-38.086,48.828,-3.906
1690198124.747,91.797,-23.926,-36.621,85.938,56.152
1690198124.751,86.914,-23.926,-37.598,95.703,75.195
1690198124.755,52.246,-23.926,-36.133,65.918,5.859
1690198124.758,24.902,-22.461,-33.203,22.949,-23.438
1690198124.762,27.344,-20.508,-31.250,36.133,125.977
1690198124.766,58.105,-17.090,-31.738,83.984,-36.621
1690198124.770,62.988,-17.090,-32.227,82.031,-104.492
1690198124.774,24.902,-22.461,-28.809,39.062,-71.289
1690198124.774,0.977,-28.320,-28.320,0.977,-216.797
1690198124.778,11.719,-33.203,-31.738,-0.977,-215.332
1690198124.782,41.016,-30.762,-30.762,49.316,-109.375
1690198124.786,48.340,-30.762,-28.809,69.336,-62.988
1690198124.790,19.531,-25.879,-27.344,32.227,-83.008
1690198124.794,-7.324,-32.227,-25.391,-9.766,-119.141
1690198124.798,-12.207,-37.598,-25.879,-15.137,-64.453
1690198124.801,15.137,-26.855,-26.855,30.273,278.809
1690198124.805,15.137,-28.809,-29.785,51.270,362.305
1690198124.809,-15.137,-29.785,-31.250,15.625,-42.480
1690198124.813,-39.062,-28.809,-28.320,-25.879,-119.141
1690198124.817,-36.133,-33.691,-34.668,-32.227,50.293
1690198124.820,0.977,-37.109,-42.480,-2.930,-54.688
1690198124.824,17.090,-37.109,-40.039,21.973,-151.367
1690198124.828,-5.371,-36.133,-38.574,14.160,-64.453
1690198124.832,-38.574,-35.645,-34.668,-18.555,43.945
1690198124.836,-41.992,-38.574,-34.668,-42.480,-157.227
1690198124.840,-11.230,-41.992,-33.691,-19.043,-218.750
1690198124.844,16.113,-40.039,-27.344,19.531,137.207
1690198124.847,-8.789,-40.039,-29.297,11.230,397.461
1690198124.851,-48.340,-43.945,-33.691,-42.480,29.785
1690198124.855,-49.805,-41.016,-30.762,-61.035,-206.543
1690198124.859,-7.324,-37.598,-27.832,0.000,6.348
1690198124.863,29.785,-39.551,-28.809,40.527,21.484
1690198124.880,13.672,-36.133,-32.715,19.531,-138.672
1690198124.884,-40.527,-32.715,-34.180,-40.527,-163.086
1690198124.888,-57.129,-33.691,-31.250,-79.102,-141.113
1690198124.892,-41.992,-32.227,-31.250,-44.434,-115.234
1690198124.896,-16.113,-24.902,-33.691,11.230,-30.273
1690198124.900,-7.812,-20.996,-33.691,6.836,154.785
1690198124.904,-29.297,-25.391,-30.762,-33.691,414.062
1690198124.907,-38.574,-25.879,-31.738,-43.945,102.051
1690198124.911,-31.250,-25.879,-33.691,-37.109,-208.008
1690198124.915,-3.418,-24.902,-27.832,2.930,-48.340
1690198124.919,0.977,-29.297,-25.879,26.855,73.242
1690198124.923,-25.879,-39.551,-28.320,-17.578,-35.645
1690198124.924,-42.969,-38.574,-34.668,-46.387,-221.191
1690198124.928,-26.855,-29.297,-39.551,-24.902,-179.688
1690198124.932,3.906,-25.879,-37.109,18.555,186.035
1690198124.936,-4.395,-29.785,-35.645,17.090,113.770
1690198124.940,-37.109,-28.809,-28.320,-15.137,-109.375
1690198124.944,-48.340,-27.344,-23.438,-42.480,-59.570
1690198124.948,-25.879,-28.809,-22.949,-24.414,29.297
1690198124.951,12.207,-27.832,-27.832,34.668,38.086
1690198124.955,17.090,-36.133,-32.715,52.246,-51.758
1690198124.959,-10.254,-36.621,-28.809,13.184,54.199
1690198124.963,-34.180,-25.879,-28.809,-42.480,217.773
1690198124.967,-21.973,-28.320,-32.715,-43.945,-56.641
1690198124.970,-1.953,-34.668,-32.227,4.395,-99.609
1690198124.974,7.324,-31.738,-27.344,32.715,152.344
1690198124.978,-8.789,-31.250,-28.809,-7.324,33.203
1690198124.982,-41.504,-31.738,-36.621,-61.035,-203.125
1690198124.986,-32.227,-32.227,-39.062,-43.457,-163.086
1690198124.990,3.906,-28.809,-31.738,4.395,94.238
1690198124.994,24.902,-29.297,-29.297,23.926,116.211
1690198124.997,1.953,-32.227,-37.109,0.000,-100.586
1690198125.001,-42.480,-24.414,-34.668,-43.945,-169.434
1690198125.005,-51.758,-20.020,-22.461,-54.688,71.777
1690198125.009,-18.066,-29.785,-28.320,-40.039,97.168
1690198125.013,7.812,-44.434,-33.203,2.441,-35.156
1690198125.015,-12.207,-40.527,-28.320,6.836,-7.324
1690198125.019,-41.992,-41.992,-27.832,-48.828,89.844
1690198125.023,-49.316,-42.480,-27.344,-68.848,-90.820
1690198125.027,-19.043,-37.109,-28.320,-31.738,-138.672
1690198125.031,0.488,-39.062,-38.574,4.883,-30.762
1690198125.035,-12.207,-33.203,-38.574,0.488,100.098
1690198125.039,-38.574,-31.738,-31.738,-36.621,20.020
1690198125.042,-48.340,-31.250,-34.668,-61.035,-151.855
1690198125.046,-28.320,-30.273,-38.086,-39.551,27.832
1690198125.050,-0.488,-41.992,-35.645,15.137,281.738
1690198125.054,-9.277,-42.969,-39.551,15.625,31.738
1690198125.058,-42.480,-39.062,-38.086,-44.922,-130.859
1690198125.060,-48.828,-39.551,-29.297,-65.430,-109.375
1690198125.064,-25.879,-30.273,-30.762,-45.898,-176.270
1690198125.068,4.883,-28.320,-36.133,-7.812,-116.699
1690198125.072,15.137,-43.457,-46.387,22.461,-23.926
1690198125.076,-13.672,-44.922,-35.645,-8.301,-14.160
1690198125.080,-65.430,-41.992,-20.020,-73.730,-50.781
1690198125.084,-71.777,-45.898,-28.320,-88.867,0.977
1690198125.087,-42.480,-30.762,-22.949,-44.434,98.633
1690198125.091,-37.109,-41.504,-6.836,-17.578,339.355
1690198125.095,-90.820,-67.383,-20.020,-65.430,235.352
1690198125.099,-143.555,-39.062,-34.180,-142.578,-216.309
1690198125.103,-132.324,-34.180,-34.668,-148.438,-167.480
1690198125.119,-119.629,-44.922,-44.922,-116.211,96.191
1690198125.123,-130.371,-35.156,-49.805,-122.559,27.832
1690198125.127,-147.949,-37.598,-40.527,-145.996,-112.793
1690198125.131,-163.086,-50.293,-35.156,-187.500,-162.598
1690198125.135,-154.297,-58.105,-34.180,-200.195,-127.930
1690198125.139,-125.977,-50.781,-33.691,-147.461,15.137
1690198125.143,-117.188,-51.270,-41.016,-130.859,95.215
1690198125.146,-141.113,-45.898,-42.480,-151.855,78.613
1690198125.150,-155.762,-35.645,-35.645,-162.598,81.543
1690198125.154,-131.836,-30.762,-31.738,-152.344,-145.996
1690198125.158,-81.055,-34.180,-34.180,-105.469,-197.266
1690198125.162,-44.434,-40.527,-34.180,-65.918,140.137
1690198125.150,-66.895,-41.016,-30.762,-73.242,207.031
1690198125.154,-105.957,-44.922,-35.645,-114.746,-130.859
1690198125.158,-92.285,-46.875,-39.062,-119.629,-216.309
1690198125.162,-44.922,-42.480,-40.039,-69.336,-108.887
1690198125.166,-19.531,-42.480,-42.480,-27.344,-2.930
1690198125.170,-28.809,-41.504,-38.574,-34.180,10.742
1690198125.174,-62.500,-37.109,-34.668,-72.266,37.598
1690198125.177,-69.336,-42.480,-39.551,-80.078,52.246
1690198125.181,-31.738,-49.316,-38.086,-37.598,-101.074
1690198125.185,3.418,-58.105,-25.879,14.648,-80.078
1690198125.189,-21.484,-44.434,-26.367,-13.184,26.367
1690198125.193,-63.477,-20.508,-32.227,-67.871,463.867
1690198125.194,-65.918,-22.461,-38.574,-90.332,472.656
1690198125.198,-56.641,-24.902,-45.410,-92.285,-77.148
1690198125.202,-43.945,-17.578,-39.551,-46.875,-119.629
1690198125.206,-47.363,-8.789,-40.039,-43.457,5.371
1690198125.210,-73.242,-11.719,-50.293,-94.727,-125.488
1690198125.214,-81.055,-19.043,-52.246,-116.699,-249.023
1690198125.218,-53.711,-20.996,-46.387,-76.660,-98.633
1690198125.221,-22.949,-28.809,-40.527,-33.203,188.477
1690198125.225,-23.926,-30.273,-44.922,-38.574,3.418
1690198125.229,-51.758,-22.949,-47.363,-76.172,-162.598
1690198125.233,-60.059,-19.531,-44.434,-96.680,-130.859
1690198125.237,-31.738,-18.555,-44.434,-68.359,-156.250
1690198125.241,-4.883,-24.902,-45.898,-14.648,-91.309
1690198125.245,-2.930,-30.273,-46.387,3.418,69.336
1690198125.249,-30.762,-31.738,-47.363,-30.762,145.996
1690198125.253,-52.246,-36.133,-41.992,-70.801,-0.488
1690198125.257,-24.902,-42.969,-38.574,-57.617,-199.219
1690198125.261,6.836,-43.945,-37.598,-10.742,-43.457
1690198125.265,11.230,-37.109,-31.250,11.230,363.281
1690198125.268,-20.020,-38.574,-36.133,-12.207,153.320
1690198125.272,-42.969,-42.969,-41.016,-45.410,-170.898
1690198125.276,-32.227,-35.156,-37.598,-52.734,-141.602
1690198125.280,-2.441,-25.879,-36.621,-4.395,-42.969
1690198125.284,13.184,-26.367,-32.715,29.297,96.680
1690198125.285,-20.508,-29.785,-30.273,-10.254,-16.113
1690198125.289,-48.340,-30.762,-28.320,-45.898,-77.148
1690198125.293,-32.715,-37.598,-30.273,-32.715,57.129
1690198125.297,6.836,-42.480,-33.691,-0.977,-13.184
1690198125.301,16.602,-46.387,-30.762,21.973,-125.977
1690198125.305,-8.301,-46.875,-26.367,8.789,13.672
1690198125.309,-21.973,-49.805,-26.367,-34.180,300.781
1690198125.312,-23.926,-52.246,-32.227,-56.152,-3.418
1690198125.316,-2.441,-41.016,-37.598,-19.043,-164.062
1690198125.320,16.602,-31.738,-35.156,20.508,12.207
1690198125.324,-10.254,-35.156,-32.715,-0.977,-21.484
1690198125.328,-39.551,-38.574,-30.273,-44.922,-176.758
1690198125.344,-41.016,-40.527,-30.762,-54.199,-209.961
1690198125.348,-9.766,-39.551,-31.250,-25.391,-21.973
1690198125.352,25.391,-36.621,-33.691,20.020,36.133
1690198125.356,0.488,-37.109,-34.180,18.066,-83.496
1690198125.360,-46.387,-39.551,-30.273,-39.551,-142.578
1690198125.364,-42.969,-38.574,-31.738,-62.012,-33.203
1690198125.368,-9.277,-34.180,-34.668,-23.438,68.359
1690198125.371,17.578,-37.598,-30.273,20.996,65.918
1690198125.375,8.301,-49.316,-22.949,15.625,58.594
1690198125.379,-26.367,-47.363,-26.855,-37.598,196.777
1690198125.383,-51.270,-36.621,-36.621,-68.848,80.566
1690198125.387,-24.414,-32.715,-40.039,-42.480,-92.285
1690198125.390,9.766,-35.156,-33.691,5.371,4.883
1690198125.394,1.465,-38.574,-30.273,4.883,157.715
1690198125.398,-33.691,-39.551,-32.715,-48.828,-58.594
1690198125.402,-54.688,-40.039,-34.180,-75.684,-277.832
1690198125.406,-29.785,-39.551,-36.133,-35.645,-190.430
1690198125.410,17.578,-42.480,-36.133,25.879,58.105
1690198125.414,23.926,-42.969,-36.133,25.879,155.762
1690198125.417,-24.414,-36.133,-32.715,-34.668,-66.895
1690198125.421,-44.922,-37.109,-25.879,-63.965,-1.465
1690198125.425,-16.113,-39.551,-25.879,-40.527,278.320
1690198125.429,6.348,-42.480,-34.180,-10.254,15.137
1690198125.433,1.465,-37.109,-36.621,4.395,-87.402
1690198125.434,-26.367,-28.320,-28.809,-17.578,-8.301
1690198125.438,-55.176,-31.250,-32.227,-63.477,-133.301
1690198125.442,-24.414,-27.344,-38.086,-45.898,-163.086
1690198125.446,17.578,-33.691,-34.180,11.719,-73.242
1690198125.450,2.930,-41.016,-26.855,17.090,28.320
1690198125.454,-37.598,-35.156,-22.461,-20.996,76.660
1690198125.458,-51.758,-34.180,-20.508,-50.293,-25.879
1690198125.461,-29.297,-35.156,-20.020,-45.898,-102.539
1690198125.465,-0.977,-35.645,-24.902,7.324,162.598
1690198125.469,9.277,-39.062,-28.809,26.855,179.688
1690198125.473,-23.926,-39.551,-35.645,-13.184,-83.984
1690198125.477,-51.758,-49.805,-38.574,-54.688,-66.895
1690198125.479,-34.668,-64.941,-35.645,-43.945,214.355
1690198125.483,-3.906,-54.199,-38.574,-14.160,51.758
1690198125.487,8.789,-37.109,-44.434,4.395,-111.816
1690198125.491,-16.602,-30.273,-44.434,-7.812,-11.719
