timestamps,TP9,AF7,AF8,TP10,Right AUX
1690199226.364,16.602,-19.043,-22.949,21.484,-208.984
1690199226.368,55.176,-18.555,-20.508,142.090,-81.543
1690199226.372,-9.766,-24.414,-23.438,44.434,-37.598
1690199226.376,-99.609,-29.297,-28.809,-150.879,-172.852
1690199226.380,-93.262,-27.344,-31.250,-189.453,-316.406
1690199226.384,0.977,-20.020,-31.738,-8.301,-112.305
1690199226.388,45.410,-15.625,-29.297,141.602,362.793
1690199226.391,-6.836,-20.508,-24.414,61.035,256.348
1690199226.395,-98.633,-24.414,-23.926,-140.137,-112.305
1690199226.399,-112.793,-22.461,-26.855,-200.195,-173.340
1690199226.403,-16.113,-20.996,-24.414,-31.250,40.039
1690199226.407,57.129,-23.926,-22.461,129.395,23.926
1690199226.411,26.367,-38.086,-35.645,90.332,-79.102
1690199226.415,-24.414,-36.133,-33.691,43.945,221.680
1690199226.419,-107.910,-33.691,-34.668,-130.859,185.547
1690199226.422,-116.211,-33.203,-36.621,-207.031,-70.801
1690199226.426,-46.387,-29.785,-35.645,-93.750,-172.363
1690199226.430,35.645,-27.344,-27.832,98.633,113.770
1690199226.434,14.160,-26.367,-25.879,106.445,257.812
1690199226.438,-83.496,-31.250,-33.691,-72.266,-130.859
1690199226.456,-121.582,-33.691,-32.715,-195.801,-277.832
1690199226.460,-48.340,-26.367,-25.879,-101.562,-72.754
1690199226.464,39.062,-29.297,-31.250,86.426,-40.527
1690199226.468,29.785,-31.738,-33.691,111.816,-92.285
1690199226.472,-63.965,-30.273,-32.227,-62.012,-91.309
1690199226.476,-120.605,-31.738,-31.250,-195.801,-28.809
1690199226.480,-67.383,-30.762,-30.762,-119.141,-36.133
1690199226.483,28.320,-26.367,-29.297,70.312,-73.730
1690199226.487,39.062,-24.414,-24.902,125.488,42.480
1690199226.491,-55.664,-31.250,-26.367,-26.855,307.129
1690199226.495,-119.629,-31.738,-28.320,-192.383,8.789
1690199226.499,-65.430,-29.785,-28.320,-148.438,-216.797
1690199226.500,35.645,-32.715,-26.367,52.246,29.297
1690199226.504,61.035,-25.391,-23.926,141.602,152.344
1690199226.508,-20.996,-22.461,-27.832,0.000,-31.250
1690199226.512,-92.285,-24.902,-25.391,-174.316,-255.859
1690199226.516,-58.105,-25.879,-24.902,-151.855,-138.184
1690199226.520,31.738,-28.809,-28.809,39.062,180.176
1690199226.524,60.059,-29.785,-25.879,144.043,176.270
1690199226.527,-19.043,-28.320,-23.926,33.203,14.160
1690199226.531,-103.027,-32.227,-21.484,-142.578,39.062
1690199226.535,-81.055,-33.691,-20.996,-159.668,173.340
1690199226.539,6.836,-32.227,-22.949,6.836,-62.988
1690199226.543,49.805,-31.250,-24.414,138.672,-71.289
1690199226.561,-16.113,-31.250,-26.367,47.363,2.441
1690199226.565,-110.840,-28.809,-26.367,-144.043,-200.684
1690199226.569,-98.145,-28.320,-24.414,-172.852,-291.016
1690199226.573,1.953,-30.273,-27.344,-11.230,-96.191
1690199226.577,58.105,-32.227,-28.809,129.395,142.090
1690199226.581,3.418,-28.320,-26.367,67.871,121.094
1690199226.585,-94.727,-25.879,-29.297,-123.535,-61.523
1690199226.588,-101.074,-26.367,-32.715,-188.477,-203.125
1690199226.592,-7.812,-22.461,-27.344,-31.250,174.805
1690199226.596,52.734,-24.414,-29.297,125.488,233.398
1690199226.600,1.465,-32.227,-31.738,82.520,-50.293
1690199226.604,-89.844,-33.691,-28.320,-98.145,-78.613
1690199226.590,-112.305,-32.227,-27.344,-188.965,-210.449
1690199226.594,-34.180,-31.250,-27.344,-65.918,-215.332
1690199226.598,43.945,-30.273,-31.250,99.609,-23.926
1690199226.602,13.184,-36.133,-34.668,86.914,52.734
1690199226.606,-85.449,-39.062,-26.855,-83.984,-106.934
1690199226.610,-109.863,-32.715,-24.414,-187.988,-210.449
1690199226.614,-38.086,-30.762,-30.273,-82.031,-72.266
1690199226.617,39.551,-26.855,-29.297,100.586,206.543
1690199226.621,25.879,-24.902,-28.809,114.746,216.797
1690199226.625,-62.012,-26.855,-29.785,-60.547,-78.613
1690199226.629,-111.816,-24.902,-27.344,-187.012,-252.441
1690199226.633,-53.223,-28.809,-27.832,-93.750,23.438
1690199226.636,44.434,-26.367,-25.879,102.051,475.098
1690199226.640,46.875,-22.461,-27.344,131.348,274.414
1690199226.644,-51.758,-28.320,-29.785,-53.223,-102.051
1690199226.648,-107.422,-26.367,-29.297,-192.383,-229.004
1690199226.652,-55.664,-24.902,-30.273,-125.977,-258.789
1690199226.656,35.156,-25.879,-25.391,63.965,-97.168
1690199226.660,55.664,-32.715,-20.020,151.367,198.242
1690199226.663,-43.945,-27.832,-22.949,0.488,309.082
1690199226.667,-120.117,-17.090,-28.320,-185.059,-47.363
1690199226.671,-77.148,-18.066,-31.738,-162.598,-264.160
1690199226.675,10.742,-19.531,-39.062,20.508,-102.539
1690199226.679,38.086,-16.602,-40.527,110.840,102.051
1690199226.679,-28.809,-9.277,-39.062,-18.555,-83.008
1690199226.683,-108.887,-10.742,-38.574,-189.453,-308.594
1690199226.687,-83.008,-10.254,-36.621,-178.711,-220.703
1690199226.691,19.531,-6.348,-36.133,6.348,-46.875
1690199226.695,55.176,-7.324,-36.133,122.559,67.871
1690199226.699,-19.531,-11.230,-34.180,8.789,101.074
1690199226.703,-108.887,-17.578,-36.621,-172.852,132.324
1690199226.706,-89.844,-17.578,-39.062,-187.500,234.863
1690199226.710,5.371,-18.555,-43.945,-20.996,-26.855
1690199226.714,50.293,-22.949,-45.410,119.141,-128.906
1690199226.718,-7.812,-21.484,-38.574,44.434,21.973
1690199226.722,-102.539,-23.926,-35.156,-145.508,-81.543
1690199226.728,-102.539,-25.879,-34.668,-194.824,-311.523
1690199226.732,-4.395,-19.531,-30.762,-40.039,-222.656
1690199226.736,55.664,-18.555,-30.273,106.934,137.695
1690199226.740,-3.906,-21.973,-28.809,47.363,48.340
1690199226.744,-96.680,-21.973,-27.832,-137.695,-274.902
1690199226.748,-104.980,-23.926,-31.250,-201.660,-227.539
1690199226.752,-15.137,-20.020,-30.762,-53.223,238.770
1690199226.755,62.012,-12.207,-32.715,106.934,175.293
1690199226.759,24.902,-12.207,-27.344,77.148,-88.867
1690199226.763,-71.777,-13.672,-20.508,-97.168,-167.480
1690199226.767,-94.238,-15.625,-20.996,-189.941,-251.953
1690199226.771,-12.695,-20.996,-23.438,-74.707,-219.727
1690199226.785,61.523,-23.438,-29.785,106.934,-94.727
1690199226.789,29.297,-21.973,-35.645,104.980,85.449
1690199226.793,-62.012,-22.461,-35.156,-74.707,45.410
1690199226.797,-100.098,-21.973,-37.598,-193.848,-219.727
1690199226.801,-27.344,-20.508,-32.715,-103.027,-250.488
1690199226.805,58.594,-20.020,-29.785,88.867,197.266
1690199226.809,40.039,-21.484,-34.180,120.117,575.684
1690199226.812,-59.082,-27.832,-40.527,-58.594,132.812
1690199226.816,-106.445,-32.227,-39.062,-197.266,-228.027
1690199226.820,-43.457,-33.691,-30.273,-110.840,-52.734
1690199226.824,49.316,-31.250,-27.344,78.613,75.684
1690199226.828,55.664,-28.320,-28.809,124.512,-50.781
1690199226.831,-44.434,-29.785,-27.344,-25.391,-108.398
1690199226.835,-113.281,-27.344,-24.902,-182.129,-147.949
1690199226.839,-57.129,-24.902,-25.879,-138.184,-211.914
1690199226.843,46.875,-25.879,-27.344,93.750,-81.543
1690199226.847,25.391,-26.367,-25.879,108.398,194.336
1690199226.851,-71.777,-22.461,-29.785,-88.379,157.227
1690199226.855,-89.844,-21.973,-32.715,-182.129,-112.305
1690199226.858,-15.137,-26.367,-28.320,-61.035,-244.629
1690199226.862,60.059,-23.926,-27.344,127.441,81.055
1690199226.866,16.113,-21.973,-28.809,114.746,250.000
1690199226.870,-80.566,-20.508,-24.902,-76.660,-145.996
1690199226.874,-100.098,-22.461,-20.996,-191.895,-270.020
1690199226.875,-26.855,-24.414,-20.508,-76.660,-104.980
1690199226.879,47.852,-21.973,-22.461,113.770,19.043
1690199226.883,32.715,-22.949,-28.320,120.117,-30.273
1690199226.887,-57.617,-27.832,-30.273,-54.199,-58.594
1690199226.891,-103.516,-26.367,-24.414,-186.035,-101.562
1690199226.895,-39.062,-20.508,-21.973,-104.492,-77.148
1690199226.899,47.363,-20.996,-24.902,85.938,51.758
1690199226.902,38.086,-21.973,-26.855,125.488,166.016
1690199226.906,-48.828,-23.926,-22.949,-22.949,393.066
1690199226.910,-109.375,-23.438,-20.996,-167.480,183.594
1690199226.914,-63.965,-27.832,-25.879,-110.840,-280.273
1690199226.918,36.133,-31.738,-26.855,79.102,-191.895
1690199226.921,51.758,-29.785,-26.367,129.395,2.930
1690199226.925,-40.527,-28.809,-24.902,-17.090,-136.719
1690199226.929,-111.328,-27.344,-24.414,-177.246,-265.625
1690199226.933,-70.801,-28.809,-30.762,-151.367,-218.750
1690199226.937,26.367,-27.832,-30.273,37.109,-94.727
1690199226.941,51.758,-26.367,-25.879,134.766,79.102
1690199226.945,-34.180,-28.320,-28.809,5.371,38.574
1690199226.948,-113.281,-30.762,-29.297,-168.945,36.133
1690199226.952,-77.637,-31.250,-27.344,-161.621,132.812
1690199226.956,16.602,-27.344,-30.762,16.602,-50.293
1690199226.960,53.223,-24.902,-28.320,139.160,-73.730
1690199226.964,-19.043,-25.879,-22.461,42.480,11.719
1690199226.965,-109.863,-30.273,-26.367,-147.461,-150.879
1690199226.969,-91.797,-28.320,-27.344,-170.898,-285.645
1690199226.973,-0.488,-21.973,-25.391,14.160,-124.512
1690199226.977,41.992,-20.508,-22.949,136.719,46.875
1690199226.981,-10.254,-23.926,-22.949,44.434,25.391
1690199226.985,-92.773,-30.762,-25.391,-131.836,-63.965
1690199226.989,-89.844,-27.344,-22.949,-178.711,-73.242
1690199226.992,-9.277,-24.414,-21.484,-20.508,339.355
1690199226.996,41.504,-25.391,-27.832,127.441,414.062
1690199227.000,-11.230,-30.273,-36.133,62.500,-31.738
1690199227.004,-102.051,-34.668,-34.180,-124.512,-185.547
1690199227.008,-99.609,-27.832,-26.367,-186.035,-212.402
1690199227.011,-8.789,-20.996,-19.043,-45.410,-199.707
1690199227.015,57.617,-19.531,-18.555,120.117,-136.719
1690199227.019,13.672,-22.461,-19.043,98.145,29.785
1690199227.023,-84.961,-25.879,-22.949,-98.145,-36.133
1690199227.027,-108.398,-29.785,-29.785,-214.355,-241.211
1690199227.031,-34.668,-28.809,-33.691,-84.961,-180.664
1690199227.035,42.969,-30.273,-36.133,113.770,261.719
1690199227.038,13.184,-33.203,-32.227,108.887,427.734
1690199227.042,-82.031,-33.203,-28.320,-90.820,-83.496
1690199227.046,-111.328,-34.180,-27.832,-207.031,-302.734
1690199227.050,-44.434,-37.598,-28.320,-97.656,-204.102
1690199227.054,47.363,-38.574,-28.809,97.656,-5.859
1690199227.056,45.898,-33.691,-31.250,128.906,-37.598
1690199227.060,-61.035,-29.297,-30.273,-55.664,-97.656
1690199227.064,-115.723,-33.203,-29.297,-197.754,-82.520
1690199227.068,-42.969,-36.621,-28.320,-104.492,-191.895
1690199227.072,61.523,-34.668,-24.414,94.238,-15.137
1690199227.076,69.824,-33.691,-27.344,146.973,175.293
1690199227.080,-21.973,-32.715,-29.297,6.836,447.266
1690199227.083,-85.938,-35.156,-33.203,-148.438,249.023
1690199227.087,-41.016,-33.203,-37.598,-113.770,-292.969
1690199227.091,53.711,-33.203,-33.203,80.078,-151.855
1690199227.095,71.777,-30.762,-31.738,161.621,1.953
1690199227.099,-13.672,-26.367,-25.391,20.996,-134.277
1690199227.102,-84.961,-27.344,-23.926,-157.227,-293.945
1690199227.106,-45.898,-25.879,-26.855,-133.789,-258.789
1690199227.110,47.363,-24.414,-25.879,52.734,-131.836
1690199227.114,70.312,-25.391,-24.414,149.414,-56.641
1690199227.118,-7.812,-28.320,-26.367,24.414,-41.504
1690199227.122,-94.727,-34.180,-29.785,-148.926,88.867
1690199227.126,-76.172,-33.203,-27.832,-150.391,261.719
1690199227.129,23.438,-26.367,-25.391,14.160,26.855
1690199227.133,66.895,-27.344,-25.391,142.578,-49.805
1690199227.137,-7.324,-28.809,-23.926,52.246,65.918
1690199227.141,-92.285,-23.926,-24.414,-133.301,-89.844
1690199227.145,-80.078,-24.414,-27.344,-162.109,-285.645
1690199227.160,17.578,-30.762,-22.949,7.324,-182.617
1690199227.164,75.684,-28.809,-19.043,158.203,2.441
1690199227.168,14.160,-24.414,-21.973,84.473,-29.297
1690199227.172,-83.008,-28.809,-24.414,-109.375,-234.863
1690199227.176,-92.285,-34.180,-27.832,-167.969,-176.270
1690199227.180,-4.395,-34.180,-32.715,-15.137,246.094
1690199227.184,60.059,-31.738,-32.715,143.555,237.793
1690199227.187,12.695,-24.902,-28.320,79.590,29.297
1690199227.191,-82.031,-23.438,-27.344,-117.188,-18.555
1690199227.195,-98.633,-23.926,-28.320,-187.500,101.562
1690199227.199,-13.672,-19.531,-26.855,-55.176,32.715
1690199227.203,55.176,-22.461,-28.809,113.770,-99.121
1690199227.206,14.648,-23.926,-26.367,99.121,-14.160
1690199227.210,-76.660,-24.902,-21.484,-91.309,-129.883
1690199227.214,-104.004,-23.926,-25.391,-192.871,-269.043
1690199227.218,-33.691,-23.438,-27.832,-72.754,-235.352
1690199227.222,46.875,-25.879,-27.832,93.262,24.414
1690199227.226,27.344,-22.949,-24.902,102.539,255.859
1690199227.230,-68.359,-20.020,-20.508,-64.453,83.496
1690199227.233,-109.375,-21.973,-23.438,-192.871,-244.629
1690199227.237,-43.945,-24.902,-21.484,-87.402,-39.551
1690199227.241,33.691,-21.484,-20.508,99.609,403.809
1690199227.245,25.391,-23.926,-24.902,113.281,79.590
1690199227.249,-60.547,-36.133,-26.855,-48.828,-202.637
1690199227.249,-114.746,-41.016,-25.879,-175.293,-232.422
1690199227.253,-55.176,-32.227,-29.297,-102.051,-229.492
1690199227.257,37.598,-18.555,-33.203,64.941,-110.840
1690199227.261,36.621,-13.672,-33.691,119.629,-18.555
1690199227.265,-54.688,-12.695,-32.715,-27.832,7.324
1690199227.269,-117.188,-18.066,-33.691,-191.406,-56.641
1690199227.273,-67.871,-21.973,-39.551,-149.902,-171.875
1690199227.276,19.531,-17.578,-36.133,36.133,-81.543
1690199227.280,38.086,-16.602,-31.738,130.371,336.914
1690199227.284,-37.598,-17.090,-37.109,-2.441,288.574
1690199227.288,-114.258,-19.043,-41.016,-179.199,-261.230
1690199227.292,-85.449,-22.949,-44.434,-170.898,-249.512
1690199227.297,7.812,-27.344,-45.898,1.953,-79.590
1690199227.301,44.922,-24.902,-42.969,114.746,-136.230
1690199227.305,-25.879,-25.391,-42.480,8.301,-138.184
1690199227.309,-104.492,-26.855,-37.598,-175.293,-160.645
1690199227.313,-85.449,-23.926,-31.250,-177.734,-230.469
1690199227.317,-2.441,-28.320,-35.156,-10.254,-119.141
1690199227.321,37.598,-30.273,-31.738,110.840,102.539
1690199227.324,-19.531,-26.855,-25.391,36.621,236.328
1690199227.328,-100.098,-27.344,-25.879,-147.949,109.863
1690199227.332,-97.656,-26.855,-26.855,-190.430,-257.324
1690199227.336,-9.277,-23.926,-24.414,-30.762,-180.176
1690199227.340,54.199,-20.508,-23.438,128.418,17.090
1690199227.341,7.812,-19.531,-21.973,62.988,-17.578
1690199227.345,-97.656,-21.973,-17.090,-128.906,-142.090
1690199227.349,-106.934,-22.461,-18.066,-179.688,-164.551
1690199227.353,-14.648,-24.902,-19.043,-39.062,-12.207
1690199227.357,55.176,-25.879,-20.508,123.047,135.254
1690199227.361,12.695,-30.762,-28.320,81.055,170.898
1690199227.365,-91.797,-30.762,-28.320,-111.328,11.230
1690199227.368,-112.793,-29.297,-29.785,-189.453,207.031
1690199227.372,-30.273,-31.738,-32.715,-68.848,259.277
1690199227.376,47.363,-27.832,-32.715,95.703,-57.129
1690199227.380,24.902,-25.391,-28.809,98.633,-57.617
1690199227.384,-76.660,-31.738,-24.414,-83.008,-117.188
1690199227.386,-116.211,-29.297,-23.438,-203.125,-301.270
1690199227.390,-37.109,-21.973,-18.066,-91.797,-296.875
1690199227.394,47.852,-20.508,-12.207,103.027,-33.691
1690199227.398,24.414,-21.484,-14.648,115.723,35.645
1690199227.402,-71.289,-23.438,-20.996,-62.012,-93.750
1690199227.406,-115.234,-26.855,-23.926,-191.895,-198.730
1690199227.410,-56.641,-26.367,-26.855,-113.281,86.914
1690199227.413,31.738,-23.438,-34.668,75.684,400.391
1690199227.417,39.551,-20.996,-34.668,134.277,85.449
1690199227.421,-49.316,-23.926,-30.273,-25.391,-200.684
1690199227.425,-130.371,-33.691,-27.344,-203.613,-255.859
1690199227.429,-91.797,-37.598,-28.809,-150.391,-188.965
1690199227.430,8.789,-41.992,-26.855,52.246,-92.285
1690199227.434,25.879,-47.852,-21.973,126.953,27.832
1690199227.438,-61.523,-49.316,-25.391,-11.719,24.414
1690199227.442,-132.812,-51.270,-25.879,-178.711,-154.297
1690199227.446,-86.914,-49.316,-26.855,-158.691,-175.781
1690199227.450,14.160,-46.387,-29.297,28.320,-15.625
1690199227.454,39.062,-37.598,-25.391,134.277,478.516
1690199227.457,-41.992,-34.668,-24.414,10.742,520.508
1690199227.461,-120.117,-33.691,-25.391,-173.828,-136.230
1690199227.465,-82.520,-25.879,-22.461,-166.992,-230.957
1690199227.469,13.672,-25.391,-17.578,20.508,59.082
1690199227.473,35.156,-28.809,-21.973,132.324,33.203
1690199227.490,-30.762,-32.715,-24.902,28.320,-81.055
1690199227.494,-109.863,-35.156,-20.020,-146.484,-179.199
1690199227.498,-100.098,-33.691,-21.973,-175.781,-235.352
1690199227.502,-6.836,-29.785,-23.926,-6.348,-173.340
1690199227.506,47.363,-26.855,-22.461,137.695,-44.434
1690199227.510,-7.812,-24.902,-20.508,56.152,162.598
1690199227.514,-102.539,-25.391,-24.902,-141.602,85.938
1690199227.517,-104.492,-26.367,-27.832,-195.312,-235.840
1690199227.521,-17.090,-30.273,-28.809,-33.203,-232.910
1690199227.525,45.898,-29.785,-30.762,130.859,77.637
1690199227.529,1.953,-22.461,-31.250,74.707,122.070
1690199227.533,-90.820,-27.344,-29.785,-114.746,-143.066
1690199227.535,-98.633,-30.273,-31.738,-191.406,-246.582
1690199227.539,-11.230,-22.949,-25.391,-49.316,116.211
1690199227.543,56.152,-19.043,-17.090,131.836,278.320
1690199227.547,20.508,-24.902,-20.020,100.098,-60.059
1690199227.551,-81.055,-27.832,-17.578,-98.633,-124.023
1690199227.555,-102.051,-29.297,-19.043,-168.457,4.883
1690199227.559,-12.207,-27.832,-20.508,-33.203,7.812
1690199227.562,48.828,-23.926,-19.531,114.746,-4.395
1690199227.566,9.277,-20.996,-20.996,108.887,40.527
1690199227.570,-84.473,-21.973,-24.902,-66.895,126.465
1690199227.574,-115.234,-22.949,-24.902,-191.406,-111.328
1690199227.578,-45.898,-22.949,-22.461,-96.680,-278.320
1690199227.597,37.109,-24.902,-25.879,89.355,15.625
1690199227.601,32.227,-20.996,-28.320,110.840,80.078
1690199227.605,-61.035,-20.508,-27.832,-51.758,-172.363
1690199227.609,-106.445,-19.531,-28.320,-194.824,-322.266
1690199227.613,-44.434,-17.090,-30.273,-123.047,-226.074
1690199227.617,43.945,-19.531,-31.738,80.566,21.973
1690199227.621,54.199,-17.090,-31.250,137.207,145.020
1690199227.624,-35.156,-13.672,-27.344,-17.578,-4.883
1690199227.628,-100.098,-17.090,-24.902,-166.992,16.602
1690199227.632,-51.758,-20.508,-28.320,-123.047,115.234
1690199227.636,41.992,-22.949,-31.250,51.270,-52.734
1690199227.640,58.594,-17.090,-29.297,129.395,-30.762
1690199227.626,-29.785,-14.160,-32.227,0.977,-47.852
1690199227.630,-95.703,-18.066,-35.156,-165.527,-204.590
1690199227.634,-65.430,-20.996,-29.785,-149.902,-229.492
1690199227.638,6.836,-27.344,-29.297,16.602,-51.758
1690199227.642,35.645,-33.203,-26.855,116.211,115.234
1690199227.646,-33.691,-30.762,-24.902,8.301,51.758
1690199227.650,-111.328,-33.691,-26.855,-169.434,-155.273
1690199227.653,-79.102,-36.621,-26.367,-162.598,-77.637
1690199227.657,20.020,-32.715,-24.414,18.555,59.570
1690199227.661,59.082,-34.668,-23.926,141.602,-16.602
1690199227.665,-10.742,-32.715,-22.461,44.922,-83.984
1690199227.669,-100.098,-30.762,-20.020,-146.484,-150.391
1690199227.671,-88.379,-29.785,-16.602,-171.387,162.109
1690199227.675,4.883,-23.926,-17.090,-6.348,213.867
1690199227.679,59.082,-22.949,-21.484,142.090,-55.664
1690199227.683,3.906,-23.438,-21.484,84.473,-40.527
1690199227.687,-90.820,-22.949,-21.484,-116.699,-152.832
1690199227.691,-93.262,-26.855,-24.902,-187.500,-251.465
1690199227.695,-2.930,-25.391,-25.391,-35.156,-109.863
1690199227.698,63.965,-21.484,-22.949,131.348,254.883
1690199227.702,19.531,-23.926,-24.902,90.332,434.082
1690199227.706,-80.566,-22.949,-27.832,-101.562,-37.109
1690199227.710,-102.539,-21.484,-28.320,-190.918,-401.855
1690199227.714,-24.902,-23.926,-29.297,-58.105,-260.254
1690199227.715,46.875,-23.926,-26.855,120.605,-53.711
1690199227.719,16.602,-27.344,-22.461,103.027,-31.738
1690199227.723,-83.008,-26.367,-24.414,-85.938,-166.016
1690199227.727,-107.422,-19.531,-22.949,-178.223,-238.770
1690199227.731,-34.180,-19.531,-20.508,-54.688,-203.125
1690199227.735,45.410,-24.414,-20.020,114.258,-8.789
1690199227.739,29.785,-29.297,-20.020,108.398,168.945
1690199227.742,-65.430,-35.156,-18.555,-56.152,479.980
1690199227.746,-102.051,-34.180,-17.090,-167.969,406.738
1690199227.750,-46.875,-30.273,-17.578,-103.516,-138.184
1690199227.754,26.855,-28.320,-18.066,70.801,-85.938
1690199227.758,14.648,-24.902,-21.484,102.539,63.477
1690199227.761,-88.867,-29.785,-27.832,-75.195,-102.539
1690199227.765,-155.762,-31.250,-27.832,-229.492,-291.992
1690199227.769,-94.727,-27.832,-25.879,-163.574,-264.648
1690199227.773,-8.301,-23.438,-26.855,20.020,-95.215
1690199227.777,-9.277,-20.508,-25.391,80.566,-24.414
1690199227.781,-93.750,-21.484,-24.902,-63.477,-97.168
1690199227.785,-154.297,-22.461,-20.996,-215.332,64.941
1690199227.788,-101.074,-24.902,-22.461,-166.992,136.230
1690199227.792,3.418,-25.391,-25.879,21.973,-152.344
1690199227.796,31.738,-26.367,-20.996,111.328,-121.582
1690199227.800,-42.969,-23.926,-25.879,-16.113,11.719
1690199227.804,-118.164,-23.438,-33.691,-190.918,-120.605
1690199227.805,-86.426,-25.879,-33.203,-174.316,-277.344
1690199227.809,15.625,-24.414,-29.785,14.160,-133.301
1690199227.813,51.270,-23.438,-29.785,125.977,7.324
1690199227.817,-26.367,-22.461,-31.738,19.043,-26.855
1690199227.821,-109.375,-24.902,-30.762,-159.668,-124.512
1690199227.825,-91.797,-33.203,-35.645,-178.711,-111.816
1690199227.829,-0.977,-37.598,-39.551,-5.859,364.746
1690199227.832,44.922,-31.738,-37.598,131.836,525.391
1690199227.836,-17.090,-29.297,-39.062,41.016,57.617
1690199227.840,-103.516,-24.902,-33.203,-149.902,-96.680
1690199227.844,-100.098,-25.391,-33.203,-187.988,-125.977
1690199227.848,-4.395,-26.855,-34.668,-26.367,-111.816
1690199227.867,51.270,-26.855,-27.832,134.277,34.180
1690199227.871,-13.672,-31.738,-25.391,65.430,122.559
1690199227.875,-99.121,-28.809,-29.297,-135.742,-8.789
1690199227.879,-106.934,-27.832,-36.621,-197.754,-305.176
1690199227.883,-24.902,-28.320,-36.621,-55.664,-227.051
1690199227.887,42.480,-31.738,-34.180,105.469,104.980
1690199227.891,0.977,-30.762,-30.762,76.660,233.398
1690199227.894,-92.773,-30.762,-29.785,-108.887,-16.602
1690199227.898,-114.746,-37.109,-31.738,-207.520,-336.914
1690199227.902,-37.109,-35.645,-28.809,-74.219,-90.332
1690199227.906,46.387,-36.621,-34.180,112.305,183.105
1690199227.910,31.250,-27.832,-29.785,111.328,-35.156
1690199227.910,-62.012,-20.996,-21.484,-71.777,-202.148
1690199227.914,-106.934,-29.785,-29.785,-196.289,-234.863
1690199227.918,-38.574,-29.785,-34.668,-89.844,-144.043
1690199227.922,54.199,-24.902,-32.715,92.773,-4.395
1690199227.926,40.527,-28.809,-30.762,109.863,131.836
1690199227.930,-63.965,-33.691,-28.809,-53.711,133.789
1690199227.934,-115.723,-29.785,-30.273,-184.570,-43.457
1690199227.937,-46.387,-26.855,-32.715,-102.051,-130.371
1690199227.941,48.828,-27.344,-29.785,92.773,-47.363
1690199227.945,54.199,-21.484,-21.484,154.785,353.516
1690199227.949,-39.551,-16.602,-23.926,-8.301,311.523
1690199227.953,-109.863,-18.066,-30.273,-178.223,-208.496
1690199227.957,-55.176,-22.949,-29.297,-125.977,-266.602
1690199227.961,41.504,-23.438,-29.297,54.199,-105.957
1690199227.965,44.434,-25.879,-29.785,128.906,-47.852
1690199227.969,-39.062,-27.832,-28.809,-0.488,-137.695
1690199227.973,-101.562,-29.297,-28.809,-170.410,-230.957
1690199227.977,-68.359,-29.785,-38.086,-148.926,-156.738
1690199227.981,27.832,-26.855,-40.039,37.109,46.875
1690199227.984,47.363,-24.414,-35.645,128.906,114.746
1690199227.988,-36.621,-23.926,-39.551,6.836,150.391
1690199227.992,-108.887,-27.344,-40.527,-167.969,191.895
1690199227.996,-79.102,-28.320,-41.504,-177.246,-165.039
1690199228.000,9.277,-28.320,-41.504,-1.465,-182.617
1690199228.000,44.434,-26.855,-33.203,122.559,20.020
1690199228.004,-19.043,-28.320,-30.273,22.461,-51.270
1690199228.008,-101.562,-30.273,-32.227,-166.504,-213.867
1690199228.012,-91.309,-30.762,-26.367,-191.895,-285.645
1690199228.016,1.953,-30.762,-23.926,-23.438,-114.258
1690199228.020,58.594,-29.297,-25.879,123.047,85.449
1690199228.024,-6.348,-32.715,-25.879,50.293,108.887
1690199228.027,-104.004,-36.621,-30.273,-142.090,-114.746
1690199228.031,-108.887,-38.086,-30.762,-182.617,106.445
1690199228.035,-25.879,-37.109,-34.180,-29.297,304.688
1690199228.039,38.574,-30.762,-38.086,109.863,5.371
1690199228.043,-7.324,-30.762,-33.691,60.059,-45.898
1690199228.046,-105.957,-31.738,-31.250,-125.000,-143.066
1690199228.050,-121.582,-31.738,-34.668,-202.148,-329.102
1690199228.054,-34.668,-35.645,-36.621,-67.871,-258.301
1690199228.058,49.805,-34.180,-34.180,113.281,-34.180
1690199228.062,21.484,-29.785,-27.344,101.074,6.348
1690199228.066,-83.984,-29.297,-20.996,-91.797,-115.723
1690199228.070,-120.117,-33.203,-24.414,-196.777,-164.551
1690199228.073,-39.062,-32.715,-22.949,-66.895,128.418
1690199228.077,40.527,-29.785,-22.949,113.281,309.570
1690199228.081,22.461,-29.785,-26.367,114.746,-17.090
1690199228.085,-71.289,-28.809,-24.902,-64.941,-165.039
1690199228.089,-120.117,-32.715,-28.809,-199.219,-173.828
1690199228.105,-51.270,-32.227,-32.715,-101.074,-183.105
1690199228.109,41.992,-29.297,-29.297,87.402,-95.703
1690199228.113,36.133,-26.367,-29.785,124.512,53.223
1690199228.117,-57.617,-22.949,-30.762,-27.832,-8.789
1690199228.121,-112.793,-26.367,-30.273,-186.035,-120.117
1690199228.125,-55.664,-28.809,-35.645,-132.324,-93.750
1690199228.129,41.504,-26.367,-35.645,70.801,106.934
1690199228.132,48.340,-25.391,-22.949,145.996,484.863
1690199228.136,-41.504,-29.785,-21.973,-9.277,313.965
1690199228.140,-108.398,-30.273,-29.785,-186.035,-252.930
1690199228.144,-67.871,-32.227,-30.273,-147.461,-293.945
1690199228.148,29.297,-32.715,-30.273,46.875,-106.934
1690199228.138,49.316,-25.879,-30.762,133.789,14.648
1690199228.142,-42.969,-22.461,-28.809,-0.488,-49.805
1690199228.146,-118.164,-23.438,-31.738,-172.363,-106.934
1690199228.150,-81.543,-30.273,-37.109,-168.457,-101.074
1690199228.154,12.207,-29.297,-37.598,18.555,-93.262
1690199228.158,41.992,-23.926,-32.227,137.695,9.766
1690199228.162,-33.203,-27.832,-26.855,28.320,140.625
1690199228.165,-116.699,-28.809,-32.227,-148.438,-7.812
1690199228.169,-93.750,-25.879,-32.715,-172.852,-240.234
1690199228.173,-1.953,-25.879,-31.250,-11.230,-208.008
1690199228.177,37.598,-27.344,-28.809,129.395,147.949
1690199228.181,-24.902,-28.320,-23.926,41.504,319.336
1690199228.180,-106.445,-23.438,-24.414,-151.855,-155.273
1690199228.184,-98.145,-19.531,-22.461,-179.199,-277.344
1690199228.188,-2.930,-19.531,-20.020,-10.742,-117.676
1690199228.192,56.641,-19.531,-15.625,138.184,29.297
1690199228.196,4.883,-24.414,-17.578,75.684,97.168
1690199228.200,-88.867,-27.832,-25.391,-121.094,10.254
1690199228.204,-100.586,-28.320,-23.438,-185.059,229.004
1690199228.207,-19.531,-26.855,-24.902,-33.691,361.816
1690199228.211,37.598,-24.414,-26.855,131.836,49.805
1690199228.215,0.000,-21.484,-20.020,85.938,-48.828
1690199228.219,-83.496,-17.090,-17.090,-108.398,-150.391
1690199228.223,-102.539,-22.461,-20.508,-194.336,-358.398
1690199228.240,-26.367,-23.926,-26.855,-68.848,-314.941
1690199228.244,52.734,-20.996,-27.344,117.188,-93.750
1690199228.248,22.461,-22.461,-21.973,110.352,-2.441
1690199228.252,-74.707,-25.879,-20.508,-80.566,-175.781
1690199228.256,-114.258,-30.273,-23.926,-202.148,-238.281
1690199228.260,-45.410,-31.250,-27.832,-88.867,-60.059
1690199228.264,39.551,-29.785,-29.297,99.609,57.129
1690199228.267,12.695,-26.367,-24.902,109.863,100.586
1690199228.271,-74.707,-20.996,-19.531,-57.617,-58.105
1690199228.275,-112.793,-24.414,-19.043,-181.641,-116.699
1690199228.279,-50.293,-26.367,-24.902,-103.516,-63.477
1690199228.283,42.480,-25.879,-27.832,69.336,-145.020
1690199228.285,35.645,-28.320,-29.297,114.258,-64.453
1690199228.289,-58.105,-25.391,-33.691,-34.180,39.062
1690199228.293,-112.793,-22.949,-36.133,-190.430,-117.188
1690199228.297,-54.199,-18.066,-33.691,-137.695,-282.227
1690199228.301,39.551,-18.555,-27.832,60.059,-31.250
1690199228.305,41.992,-22.461,-25.391,129.395,236.816
1690199228.309,-44.922,-20.508,-26.855,-16.602,168.945
1690199228.312,-109.375,-20.508,-29.297,-182.129,-53.711
1690199228.316,-68.848,-27.344,-30.273,-163.086,-143.555
1690199228.320,28.320,-29.297,-29.297,36.133,254.883
1690199228.324,43.457,-28.320,-31.738,138.672,323.242
1690199228.328,-40.039,-28.320,-32.715,8.301,-109.375
1690199228.331,-104.004,-24.902,-25.391,-162.598,-218.750
1690199228.335,-78.613,-24.414,-26.855,-162.109,-238.770
1690199228.339,11.719,-25.391,-29.785,26.367,-192.871
1690199228.343,56.152,-26.367,-26.855,150.879,-30.762
1690199228.347,-14.160,-22.949,-23.926,29.785,50.781
1690199228.351,-97.168,-20.020,-22.949,-151.367,-74.219
1690199228.355,-74.219,-17.578,-19.531,-154.297,-192.383
1690199228.358,17.578,-14.648,-18.555,-3.906,-205.078
1690199228.362,68.848,-13.184,-19.531,138.672,143.555
1690199228.366,-0.977,-16.113,-21.484,61.035,287.598
1690199228.370,-96.680,-17.578,-28.320,-139.648,-144.531
1690199228.374,-95.703,-17.578,-30.762,-187.988,-245.117
1690199228.375,-7.324,-21.484,-32.715,-39.062,-76.660
1690199228.379,49.316,-24.414,-36.133,120.605,30.762
1690199228.383,-3.418,-29.785,-36.133,71.777,-40.039
1690199228.387,-100.098,-31.250,-36.621,-129.883,-172.363
1690199228.391,-114.746,-23.926,-34.180,-204.590,-181.152
1690199228.395,-23.926,-17.578,-29.297,-68.359,-55.664
1690199228.399,49.805,-19.531,-28.809,106.934,68.359
1690199228.402,9.766,-21.973,-27.832,84.473,76.172
1690199228.406,-82.031,-24.414,-23.438,-92.285,276.367
1690199228.410,-106.445,-26.855,-25.879,-192.383,152.832
1690199228.414,-33.203,-25.879,-27.344,-90.332,-221.191
1690199228.418,41.016,-30.762,-27.832,89.355,-40.527
1690199228.423,12.207,-29.785,-29.297,97.168,84.961
1690199228.427,-78.125,-21.973,-26.367,-69.824,-41.504
1690199228.431,-116.211,-23.438,-27.832,-200.684,-191.895
1690199228.435,-48.828,-30.273,-28.809,-105.957,-55.176
1690199228.439,29.297,-30.762,-26.855,76.660,128.418
1690199228.443,8.789,-30.762,-22.949,93.262,73.730
1690199228.447,-69.336,-30.273,-20.020,-44.922,-2.930
1690199228.450,-111.328,-27.832,-20.020,-171.875,71.777
1690199228.454,-49.805,-22.949,-19.043,-111.816,124.512
1690199228.458,44.922,-19.531,-20.996,68.848,-36.133
1690199228.462,45.898,-19.531,-24.414,122.070,-48.828
1690199228.466,-49.316,-20.508,-25.879,-19.043,-76.172
1690199228.465,-104.004,-22.461,-29.785,-177.246,-203.613
1690199228.469,-55.664,-20.996,-30.273,-139.160,-276.367
1690199228.473,33.203,-20.996,-29.785,57.129,-110.840
1690199228.477,51.270,-23.438,-29.785,142.578,97.656
1690199228.481,-37.598,-30.273,-28.809,4.395,52.734
1690199228.485,-112.305,-29.785,-28.809,-171.387,-57.129
1690199228.489,-74.219,-27.344,-28.809,-157.715,-58.594
1690199228.492,28.320,-27.832,-24.902,34.180,295.898
1690199228.496,56.152,-25.879,-24.902,141.602,490.723
1690199228.500,-29.785,-33.203,-28.809,13.184,-1.953
1690199228.504,-112.793,-37.598,-30.273,-161.133,-298.340
1690199228.508,-87.891,-35.645,-26.855,-162.598,-268.066
1690199228.511,4.883,-32.715,-27.344,5.859,-160.645
1690199228.515,42.969,-33.691,-30.762,132.324,-83.496
1690199228.519,-24.902,-31.250,-31.738,35.645,-57.617
1690199228.523,-115.234,-25.879,-32.715,-156.250,-140.137
1690199228.527,-103.516,-26.367,-34.180,-186.035,-236.328
1690199228.531,-9.277,-27.344,-35.156,-16.602,-125.977
1690199228.535,42.480,-28.320,-34.180,135.254,274.414
1690199228.538,-9.277,-32.227,-31.250,64.453,445.801
1690199228.542,-96.680,-27.832,-29.297,-127.930,-101.562
1690199228.546,-98.145,-27.344,-30.273,-184.570,-380.859
1690199228.550,-10.254,-28.809,-29.297,-37.109,-113.770
1690199228.554,54.199,-26.855,-30.273,121.582,82.031
1690199228.555,14.648,-26.367,-26.855,81.055,-69.336
1690199228.559,-84.961,-25.879,-22.949,-109.863,-248.535
1690199228.563,-110.352,-23.926,-27.832,-200.195,-251.465
1690199228.567,-28.320,-26.367,-27.832,-69.336,-144.531
1690199228.571,42.969,-28.809,-28.809,98.633,47.852
1690199228.575,14.160,-25.391,-26.855,83.984,86.426
1690199228.579,-79.590,-23.438,-20.996,-83.496,308.105
1690199228.582,-111.328,-21.973,-26.855,-192.871,171.875
1690199228.586,-40.527,-22.461,-32.715,-88.867,-270.508
1690199228.590,41.016,-23.438,-31.738,95.215,-56.641
1690199228.594,23.926,-19.531,-30.273,107.422,195.801
1690199228.598,-64.941,-19.531,-32.227,-65.918,-41.504
1690199228.615,-103.516,-24.414,-32.227,-192.871,-307.617
1690199228.619,-49.805,-24.902,-27.344,-98.145,-223.145
1690199228.623,30.762,-26.855,-27.832,88.867,-43.457
1690199228.627,37.598,-24.902,-22.949,129.883,-14.648
1690199228.631,-47.363,-20.996,-19.531,-21.484,-148.926
1690199228.635,-103.516,-22.949,-20.508,-154.297,-45.410
1690199228.639,-44.434,-26.367,-24.414,-94.727,70.801
1690199228.642,44.922,-26.855,-27.344,73.242,4.395
1690199228.646,45.410,-30.762,-30.762,136.719,-38.086
1690199228.650,-38.574,-31.250,-30.762,-5.859,114.746
1690199228.654,-102.051,-23.926,-31.250,-166.504,52.734
1690199228.658,-68.848,-23.438,-32.715,-145.020,-140.137
1690199228.660,26.855,-23.438,-29.785,44.922,-41.016
1690199228.664,47.852,-23.438,-30.762,136.719,101.074
1690199228.668,-28.809,-25.879,-32.715,-3.906,-1.465
1690199228.672,-96.191,-26.367,-31.738,-177.246,-245.117
1690199228.676,-67.383,-22.949,-32.227,-161.133,-164.551
1690199228.680,25.879,-18.555,-33.691,31.250,191.895
1690199228.684,59.082,-20.020,-29.785,139.648,256.836
1690199228.687,-18.555,-25.391,-31.250,23.438,-40.039
1690199228.691,-104.980,-28.320,-31.738,-161.133,-192.871
1690199228.695,-90.332,-25.879,-26.855,-173.828,24.902
1690199228.699,4.883,-23.438,-25.879,1.465,18.555
1690199228.703,52.246,-23.926,-27.832,136.230,-51.270
1690199228.707,-9.766,-25.391,-28.320,55.176,-72.754
1690199228.711,-95.703,-23.438,-25.391,-142.090,-77.148
1690199228.715,-96.191,-21.973,-27.344,-197.754,-140.137
1690199228.719,-5.371,-26.855,-28.809,-32.227,-227.051
1690199228.723,54.688,-24.414,-27.832,135.742,118.652
1690199228.727,-3.418,-16.602,-25.391,72.266,266.113
1690199228.731,-93.750,-15.625,-24.902,-127.930,25.391
1690199228.734,-94.238,-17.090,-26.855,-185.059,-198.730
1690199228.738,-2.930,-20.508,-24.902,-29.785,-49.805
1690199228.742,68.359,-23.926,-21.973,141.113,228.027
1690199228.746,17.578,-22.949,-23.438,98.633,-31.250
1690199228.750,-90.820,-20.996,-23.926,-102.539,-253.906
1690199228.750,-109.375,-18.066,-23.438,-200.195,-247.070
1690199228.754,-30.273,-19.043,-23.926,-77.148,-166.504
1690199228.758,35.156,-20.020,-24.902,96.680,-88.379
1690199228.762,11.719,-22.461,-28.809,98.145,-49.316
1690199228.766,-81.543,-27.832,-29.297,-84.473,-6.348
1690199228.770,-124.023,-28.809,-29.785,-202.637,-127.930
1690199228.774,-53.223,-32.715,-31.738,-100.098,-174.316
1690199228.777,35.156,-31.738,-35.156,82.520,29.297
1690199228.781,25.391,-28.809,-32.715,118.164,392.578
1690199228.785,-70.801,-24.902,-29.297,-55.176,303.711
1690199228.789,-123.047,-24.902,-31.250,-208.496,-232.910
1690199228.793,-54.688,-28.320,-26.367,-127.441,-256.348
1690199228.811,33.691,-28.320,-27.344,68.848,-77.148
1690199228.815,36.621,-25.391,-32.227,112.305,-53.711
1690199228.819,-44.922,-21.484,-31.250,-44.434,-116.211
1690199228.823,-107.910,-25.879,-35.156,-197.266,-219.727
1690199228.827,-60.547,-29.785,-38.086,-142.578,-193.359
1690199228.831,24.902,-27.832,-38.574,56.152,7.324
1690199228.835,35.645,-29.297,-40.039,119.629,103.516
1690199228.838,-48.340,-27.344,-30.273,-13.672,260.742
1690199228.842,-121.582,-29.785,-26.855,-178.223,273.438
1690199228.846,-83.496,-31.250,-31.738,-167.480,-133.789
1690199228.850,14.648,-28.320,-26.367,21.973,-148.438
1690199228.854,39.062,-28.809,-25.391,125.000,27.832
1690199228.839,-40.039,-32.715,-29.297,11.719,-56.641
1690199228.843,-113.281,-35.645,-28.809,-164.062,-252.930
1690199228.847,-88.867,-38.086,-30.273,-173.340,-298.340
1690199228.851,2.441,-37.109,-28.809,10.254,-69.824
1690199228.855,43.457,-35.645,-30.273,130.859,137.695
1690199228.859,-23.926,-35.645,-31.738,26.367,33.691
1690199228.863,-108.398,-30.273,-33.691,-159.180,-27.344
1690199228.866,-94.238,-27.832,-35.156,-179.688,6.348
1690199228.870,5.371,-25.879,-30.273,-14.160,-116.699
1690199228.874,55.176,-24.414,-31.250,120.605,-58.594
1690199228.878,-11.230,-23.926,-33.203,48.828,13.184
1690199228.882,-101.074,-23.438,-24.902,-128.418,211.426
1690199228.886,-104.492,-26.367,-26.367,-184.570,148.438
1690199228.890,-15.625,-28.809,-34.180,-46.875,-167.480
1690199228.894,46.387,-29.297,-32.227,113.281,-34.668
1690199228.898,-4.395,-28.809,-30.762,66.406,-2.930
1690199228.902,-96.680,-31.250,-30.762,-118.652,-181.641
1690199228.906,-104.004,-31.738,-28.809,-192.383,-178.223
1690199228.910,-15.625,-32.227,-30.273,-52.246,115.234
1690199228.913,51.270,-27.344,-31.738,117.188,273.926
1690199228.917,15.137,-18.066,-31.250,91.309,-35.156
1690199228.921,-75.684,-20.508,-34.180,-98.633,-229.004
1690199228.925,-106.934,-26.855,-37.109,-206.055,-270.020
1690199228.929,-28.320,-25.391,-34.668,-82.031,-160.156
1690199228.931,47.363,-26.855,-35.156,90.820,-24.414
1690199228.935,17.090,-30.762,-38.574,88.379,-14.648
1690199228.939,-80.078,-32.715,-40.039,-76.660,-29.297
1690199228.943,-126.953,-34.180,-35.645,-198.242,-169.434
1690199228.947,-55.176,-32.227,-34.668,-109.375,-181.641
1690199228.951,34.180,-31.738,-31.738,83.496,0.000
1690199228.955,21.973,-33.691,-26.855,119.629,404.297
1690199228.958,-68.359,-27.832,-24.902,-52.734,292.969
1690199228.962,-115.234,-23.926,-26.855,-201.172,-270.996
1690199228.966,-54.199,-27.344,-29.785,-129.883,-177.734
1690199228.970,36.133,-29.785,-25.391,63.965,53.223
1690199228.974,35.156,-29.297,-23.438,125.977,37.109
1690199228.991,-50.781,-26.855,-27.832,-24.902,-99.121
1690199228.995,-107.910,-26.367,-31.250,-178.711,-99.121
1690199228.999,-60.547,-24.902,-26.855,-129.395,-74.707
1690199229.003,33.203,-21.484,-24.902,62.012,-110.352
1690199229.007,51.270,-21.484,-19.531,149.414,-59.570
1690199229.011,-10.742,-23.926,-11.719,43.457,105.469
1690199229.015,-80.078,-15.625,-22.461,-141.602,174.316
1690199229.018,-80.078,-4.883,-34.668,-178.223,-146.973
1690199229.022,11.719,-3.906,-31.250,0.488,-220.703
1690199229.026,47.852,-5.859,-30.762,121.582,75.195
1690199229.030,-45.898,-9.277,-38.086,-3.906,58.105
1690199229.034,-135.254,-9.277,-41.016,-206.543,-300.781
1690199229.050,-113.281,-6.348,-39.062,-221.680,-307.129
1690199229.054,-21.484,-4.883,-42.480,-50.781,-139.160
1690199229.058,17.578,2.930,-39.551,77.637,-52.246
1690199229.062,-50.293,5.859,-39.062,-7.812,-98.633
1690199229.066,-141.113,0.488,-45.898,-201.172,-116.699
1690199229.070,-126.465,6.348,-44.922,-242.188,35.156
1690199229.074,-24.414,10.742,-51.270,-89.844,44.434
1690199229.077,32.715,10.254,-51.270,65.918,70.312
1690199229.081,-18.555,10.254,-43.945,20.996,77.148
1690199229.085,-107.422,9.277,-41.992,-163.086,218.750
1690199229.089,-114.258,8.789,-41.992,-229.004,85.449
1690199229.093,-22.949,4.395,-45.410,-86.426,-224.121
1690199229.081,49.316,1.953,-44.434,85.449,-31.250
1690199229.085,11.230,-1.465,-41.016,54.688,10.254
1690199229.089,-79.590,-7.324,-39.062,-127.441,-190.430
1690199229.093,-102.051,-11.230,-40.527,-224.121,-306.641
1690199229.097,-28.320,-15.625,-41.992,-95.703,-139.648
1690199229.101,35.156,-19.531,-38.574,86.914,141.602
1690199229.105,5.859,-21.973,-37.598,81.543,175.781
1690199229.108,-85.449,-20.996,-36.621,-93.262,-10.742
1690199229.112,-116.699,-19.043,-33.691,-212.402,-144.043
1690199229.116,-39.551,-23.926,-38.574,-106.934,-154.297
1690199229.120,38.574,-28.809,-40.527,77.637,-75.684
1690199229.124,25.879,-25.879,-38.086,102.539,-39.062
1690199229.124,-64.453,-24.902,-36.621,-55.176,129.395
1690199229.128,-114.746,-23.438,-34.180,-201.172,199.219
1690199229.132,-52.734,-16.113,-34.180,-129.395,-140.625
1690199229.136,43.457,-10.742,-34.668,73.730,-105.957
1690199229.140,37.598,-21.973,-33.203,124.023,83.984
1690199229.144,-60.059,-30.273,-33.691,-32.227,2.930
1690199229.148,-113.281,-26.855,-33.203,-187.012,-146.973
1690199229.151,-57.617,-23.438,-26.855,-127.441,-178.223
1690199229.155,29.297,-27.832,-26.855,71.777,223.145
1690199229.159,42.969,-32.715,-30.273,146.484,470.703
1690199229.163,-36.133,-28.809,-26.855,-1.953,-53.711
1690199229.167,-105.957,-22.949,-26.367,-171.875,-266.113
1690199229.171,-65.430,-25.391,-29.297,-132.812,-203.613
1690199229.175,34.668,-27.832,-30.273,55.664,-178.223
1690199229.179,70.801,-15.625,-28.320,151.367,-64.941
1690199229.183,-2.930,-13.672,-23.926,29.297,-34.668
1690199229.187,-90.820,-21.973,-24.902,-146.484,-175.781
1690199229.191,-66.895,-24.414,-24.902,-144.531,-197.266
1690199229.195,33.203,-20.996,-24.414,34.668,-27.344
1690199229.198,72.266,-14.648,-20.020,163.086,262.207
1690199229.202,0.000,-20.508,-20.020,63.965,313.477
1690199229.206,-83.984,-25.879,-28.809,-142.090,-185.059
1690199229.210,-72.266,-18.066,-22.461,-172.852,-328.613
1690199229.214,18.555,-11.719,-18.555,7.812,-77.148
1690199229.214,65.430,-14.160,-24.902,141.113,83.008
1690199229.218,2.441,-17.090,-26.855,53.223,-52.734
1690199229.222,-82.520,-22.461,-25.879,-131.836,-184.570
1690199229.226,-88.379,-25.391,-29.297,-178.711,-134.766
1690199229.230,-9.766,-25.391,-32.715,-26.367,-23.926
1690199229.234,41.504,-25.879,-32.715,132.812,85.449
1690199229.238,-5.859,-25.879,-30.762,79.590,83.496
1690199229.241,-93.750,-26.855,-25.391,-107.910,230.957
1690199229.245,-109.863,-28.320,-25.879,-187.988,159.180
1690199229.249,-25.391,-30.273,-29.785,-63.965,-138.672
1690199229.253,44.922,-35.156,-29.785,115.234,-10.254
1690199229.257,27.832,-30.273,-26.367,121.094,20.020
1690199229.263,-65.918,-26.855,-24.902,-74.707,-149.902
1690199229.267,-110.840,-26.855,-30.273,-199.707,-272.949
1690199229.271,-20.508,-27.832,-29.785,-62.012,-67.871
1690199229.275,65.918,-30.762,-27.344,127.441,129.395
1690199229.279,42.480,-29.297,-32.715,118.164,-33.691
1690199229.283,-43.945,-25.879,-29.297,-49.316,-136.230
1690199229.287,-87.402,-25.391,-24.414,-160.645,48.340
1690199229.290,-23.438,-26.855,-24.414,-64.453,183.105
1690199229.294,69.336,-28.320,-21.973,123.535,8.301
1690199229.298,60.059,-28.809,-20.508,160.156,-39.062
1690199229.302,-32.227,-27.832,-27.344,-12.695,-88.379
1690199229.306,-75.684,-21.484,-32.715,-161.621,-212.402
1690199229.305,-17.578,-16.113,-29.297,-76.172,-251.953
1690199229.309,66.895,-19.531,-27.832,119.629,-100.098
1690199229.313,66.895,-20.996,-28.320,164.062,56.641
1690199229.317,-31.250,-19.531,-22.949,11.230,-39.551
1690199229.321,-98.145,-18.555,-19.531,-153.809,-167.969
1690199229.325,-47.852,-15.625,-19.043,-109.375,-86.914
1690199229.329,48.828,-14.648,-18.555,86.426,395.020
1690199229.332,54.199,-21.973,-22.461,151.367,527.344
1690199229.336,-37.598,-23.438,-26.367,7.812,32.227
1690199229.340,-106.934,-18.066,-23.438,-159.180,-143.066
1690199229.344,-70.312,-17.578,-22.461,-136.719,-67.383
1690199229.348,26.367,-23.438,-27.832,41.504,-111.328
1690199229.364,54.199,-28.320,-31.250,142.578,-43.945
1690199229.368,-17.578,-21.484,-27.832,37.598,18.555
1690199229.372,-95.703,-17.090,-24.414,-142.090,-145.508
1690199229.376,-79.102,-17.090,-27.344,-158.691,-267.090
1690199229.380,19.043,-19.043,-27.832,19.531,-121.582
1690199229.384,68.848,-21.484,-24.414,151.855,235.840
1690199229.388,-1.953,-22.461,-30.273,42.969,202.637
1690199229.391,-99.121,-28.809,-33.691,-157.227,-128.418
1690199229.395,-88.867,-26.367,-27.832,-179.199,-263.184
1690199229.399,4.883,-21.973,-27.832,-11.719,-133.789
1690199229.403,56.152,-22.461,-32.227,135.254,54.199
1690199229.407,-1.953,-24.414,-29.785,69.824,-21.484
1690199229.410,-99.609,-26.367,-26.367,-125.000,-234.863
1690199229.414,-104.980,-30.762,-28.320,-181.152,-55.176
1690199229.418,-7.812,-35.645,-31.250,-35.645,127.441
1690199229.422,51.758,-30.762,-28.809,121.094,-41.992
1690199229.426,2.930,-22.949,-20.020,85.449,12.207
1690199229.430,-89.844,-26.367,-24.414,-106.934,123.047
1690199229.434,-108.887,-29.785,-30.273,-200.195,-40.527
1690199229.437,-32.715,-28.809,-29.785,-71.289,-216.309
1690199229.441,45.410,-24.902,-27.344,111.328,-54.199
1690199229.445,15.625,-25.879,-27.832,103.027,312.988
1690199229.449,-90.332,-30.273,-29.785,-85.449,129.395
1690199229.453,-122.559,-32.715,-29.785,-199.219,-319.336
1690199229.470,-44.922,-35.156,-31.250,-83.984,-180.664
1690199229.474,32.715,-36.621,-28.809,99.609,29.785
1690199229.478,11.719,-33.203,-25.391,109.375,-83.008
1690199229.482,-72.754,-26.855,-23.438,-59.570,-198.242
1690199229.486,-107.910,-22.949,-23.438,-185.547,-238.281
1690199229.490,-45.898,-23.438,-26.855,-97.656,-166.992
1690199229.494,49.805,-23.438,-26.855,92.773,38.086
1690199229.497,48.340,-28.320,-26.367,130.859,-28.809
1690199229.501,-38.574,-33.691,-25.391,-17.578,38.574
1690199229.505,-94.238,-27.344,-26.367,-175.293,65.430
1690199229.509,-57.617,-21.973,-32.715,-142.578,-240.234
1690199229.513,28.320,-28.320,-36.621,46.875,-113.281
1690199229.499,41.016,-22.461,-40.527,118.164,151.855
1690199229.503,-43.457,-13.184,-41.504,-29.297,54.199
1690199229.507,-107.910,-10.254,-40.039,-195.801,-237.305
1690199229.511,-70.801,-5.371,-37.109,-158.691,-224.121
1690199229.515,15.137,-4.395,-34.180,25.879,-5.371
1690199229.519,34.180,-9.766,-35.156,114.258,89.355
1690199229.523,-53.711,-15.625,-37.109,-14.160,33.203
1690199229.526,-132.324,-15.137,-37.598,-193.848,-73.730
1690199229.530,-95.703,-17.090,-37.598,-186.523,-79.102
1690199229.534,-5.859,-17.578,-36.621,-2.930,-82.031
1690199229.538,33.203,-15.137,-34.668,113.770,-12.207
1690199229.542,-28.320,-15.137,-33.203,10.742,60.059
1690199229.546,-111.328,-13.672,-35.645,-166.992,147.949
1690199229.550,-99.609,-12.207,-41.016,-195.801,-83.984
1690199229.554,-7.812,-13.184,-34.180,-22.949,-172.363
1690199229.558,42.969,-19.043,-27.832,120.605,146.484
1690199229.562,-19.043,-23.926,-28.320,34.180,66.406
1690199229.566,-104.004,-24.414,-23.438,-151.367,-187.988
1690199229.570,-99.609,-22.461,-20.508,-186.523,-191.895
1690199229.573,-7.812,-22.461,-24.414,-20.508,72.266
1690199229.577,50.293,-23.926,-28.320,135.742,291.016
1690199229.581,-0.488,-23.926,-29.297,70.801,-5.371
1690199229.585,-88.379,-24.902,-30.762,-120.605,-240.234
1690199229.589,-104.492,-27.344,-33.691,-186.035,-251.953
1690199229.590,-15.625,-26.367,-33.203,-41.992,-142.090
1690199229.594,57.129,-27.344,-28.809,122.559,-29.785
1690199229.598,9.277,-30.762,-30.762,85.938,-2.441
1690199229.602,-88.867,-30.762,-30.762,-100.098,-67.383
1690199229.606,-107.910,-28.809,-32.715,-191.895,-124.512
1690199229.610,-25.391,-24.902,-38.574,-67.383,0.000
1690199229.614,57.617,-24.902,-36.621,104.004,97.168
1690199229.617,22.949,-24.414,-31.250,104.004,442.383
1690199229.621,-72.266,-19.531,-31.250,-75.195,506.836
1690199229.625,-85.449,-15.137,-31.250,-187.500,-169.922
1690199229.629,-14.160,-21.484,-22.949,-75.684,-309.082
1690199229.633,47.363,-24.902,-20.020,87.402,-100.098
1690199229.636,23.926,-28.809,-18.555,93.750,-97.168
1690199229.640,-72.754,-33.691,-13.184,-68.848,-173.340
1690199229.644,-125.000,-37.598,-12.695,-206.543,-280.762
1690199229.648,-64.941,-44.434,-17.578,-134.277,-240.723
1690199229.652,10.742,-48.340,-15.625,50.781,-80.078
1690199229.656,4.883,-45.410,-7.812,99.609,71.289
1690199229.660,-83.496,-40.527,-9.277,-52.246,281.250
1690199229.663,-143.555,-43.457,-16.113,-212.402,236.816
1690199229.667,-88.867,-50.781,-22.461,-167.969,-126.465
1690199229.671,13.184,-51.270,-23.438,32.227,-171.875
1690199229.675,33.691,-54.688,-22.949,122.559,33.203
1690199229.679,-45.410,-56.152,-23.438,-11.719,-2.930
1690199229.680,-106.934,-42.480,-20.996,-173.340,-287.109
1690199229.684,-71.289,-35.645,-21.484,-142.578,-338.867
1690199229.688,25.391,-34.668,-22.949,40.527,-132.324
1690199229.692,54.688,-36.621,-27.344,141.602,-9.766
1690199229.696,-23.438,-42.480,-28.809,21.973,47.363
1690199229.700,-104.980,-40.039,-27.344,-155.273,-37.598
1690199229.704,-86.426,-39.062,-30.762,-145.508,181.641
1690199229.707,11.230,-42.480,-34.180,29.297,337.402
1690199229.711,54.688,-42.480,-34.668,144.531,-26.855
1690199229.715,-14.160,-42.480,-35.645,49.805,24.414
1690199229.719,-106.445,-42.480,-37.109,-137.695,106.445
1690199229.723,-93.750,-40.039,-33.691,-161.621,-144.043
1690199229.754,5.859,-35.156,-29.785,7.324,-212.402
1690199229.758,66.895,-36.621,-29.785,151.367,73.730
1690199229.762,12.207,-40.527,-24.902,90.332,122.559
1690199229.766,-81.055,-41.016,-22.461,-103.516,-189.941
1690199229.770,-92.773,-34.668,-31.250,-173.828,-291.504
1690199229.774,-10.742,-28.320,-38.086,-26.367,24.414
1690199229.778,54.688,-25.879,-34.180,140.625,274.902
1690199229.781,16.602,-20.996,-28.809,96.680,67.383
1690199229.785,-68.848,-20.508,-27.344,-88.867,-215.820
1690199229.789,-88.867,-23.438,-28.809,-175.781,-124.512
1690199229.793,-10.742,-28.809,-30.273,-52.734,12.695
1690199229.797,65.918,-27.344,-25.391,128.906,-20.996
1690199229.784,29.785,-28.320,-23.438,112.305,21.973
1690199229.788,-61.035,-28.320,-22.461,-75.684,-17.090
1690199229.792,-85.938,-20.996,-22.949,-178.711,-147.949
1690199229.796,-11.719,-19.043,-27.344,-67.383,-233.398
1690199229.800,80.566,-24.414,-24.414,135.742,15.137
1690199229.804,62.500,-20.508,-26.367,150.879,278.320
1690199229.808,-57.129,-16.602,-32.715,-63.477,63.477
1690199229.811,-110.352,-21.973,-36.621,-208.008,-176.758
1690199229.815,-53.711,-23.438,-37.598,-114.746,-140.137
1690199229.819,14.648,-19.043,-33.203,58.105,26.855
1690199229.823,17.578,-15.625,-35.156,85.938,-12.207
1690199229.827,-63.477,-19.043,-38.086,-71.777,-194.824
1690199229.831,-146.484,-21.484,-41.504,-236.816,-157.715
1690199229.835,-108.887,-27.832,-47.852,-177.734,119.141
1690199229.839,-18.066,-22.949,-50.293,8.789,69.336
1690199229.843,-21.973,-18.555,-52.246,47.363,-4.883
1690199229.847,-104.980,-10.254,-45.898,-91.797,140.137
1690199229.851,-150.391,-1.953,-42.969,-245.605,64.941
1690199229.855,-101.074,-6.836,-45.410,-209.473,-127.930
1690199229.858,-6.348,-10.742,-42.969,-10.254,-150.391
1690199229.862,14.648,-18.555,-40.039,97.656,107.422
1690199229.866,-44.922,-24.414,-38.574,-30.762,198.730
1690199229.870,-109.863,-21.484,-34.180,-207.520,-250.488
1690199229.874,-84.961,-21.973,-33.203,-185.059,-329.102
1690199229.874,32.227,-15.625,-35.645,3.418,-48.828
1690199229.878,80.566,-8.789,-31.738,117.676,57.129
1690199229.882,-3.906,-13.184,-34.668,7.324,-67.871
1690199229.886,-80.078,-12.207,-30.273,-151.367,-185.547
1690199229.890,-67.871,-12.695,-25.391,-167.480,-104.980
1690199229.894,8.301,-17.090,-31.738,-2.930,42.480
1690199229.898,72.754,-16.602,-31.250,145.020,114.258
1690199229.901,19.531,-19.043,-33.203,55.176,122.559
1690199229.905,-74.219,-17.578,-36.621,-127.930,313.477
1690199229.909,-74.707,-16.113,-33.203,-161.133,180.176
1690199229.913,10.254,-23.926,-31.738,-23.926,-180.176
1690199229.917,63.477,-29.297,-30.273,124.512,-34.668
1690199229.921,-1.465,-32.715,-30.762,72.754,14.648
1690199229.925,-81.543,-33.203,-35.156,-123.535,-205.078
1690199229.929,-83.984,-32.227,-36.133,-193.848,-306.641
1690199229.933,3.906,-32.715,-32.227,-38.086,-122.070
1690199229.937,57.129,-30.762,-27.832,126.953,33.203
1690199229.941,4.883,-26.855,-25.879,87.891,24.414
1690199229.945,-73.730,-23.926,-22.461,-101.562,-68.848
1690199229.948,-83.008,-25.391,-20.996,-191.895,-3.906
1690199229.952,-15.137,-28.320,-15.625,-55.176,203.613
1690199229.956,54.688,-26.367,-8.789,125.488,9.277
1690199229.960,43.945,-24.902,-11.719,114.746,-57.129
1690199229.964,-56.152,-21.484,-17.090,-62.012,-18.066
1690199229.964,-108.398,-19.531,-16.602,-169.922,-160.156
1690199229.968,-31.738,-18.066,-17.090,-79.102,-201.660
1690199229.972,48.828,-17.090,-15.625,103.027,-36.621
1690199229.976,39.551,-19.531,-10.254,151.367,39.551
1690199229.980,-47.852,-21.973,-13.184,-28.809,-19.043
1690199229.984,-98.145,-23.438,-14.648,-170.410,-143.066
1690199229.988,-33.203,-26.855,-19.043,-94.727,-125.000
1690199229.991,49.805,-28.809,-25.391,77.148,376.465
1690199229.995,37.598,-26.367,-29.297,125.000,433.594
1690199229.999,-56.152,-26.367,-31.738,-39.551,-164.062
1690199230.003,-111.328,-29.785,-25.879,-196.777,-284.668
1690199230.007,-68.848,-34.180,-24.902,-146.973,-141.113
1690199230.011,27.832,-35.645,-25.391,53.223,-132.812
1690199230.015,32.715,-33.203,-27.344,133.789,-77.148
1690199230.019,-59.570,-28.320,-32.227,-17.090,-58.105
1690199230.023,-102.051,-23.926,-33.203,-185.547,-172.852
1690199230.027,-56.152,-20.996,-28.320,-152.832,-250.977
1690199230.031,28.809,-18.066,-20.020,45.898,-60.059
1690199230.035,54.199,-22.949,-21.973,149.414,327.148
1690199230.038,-22.949,-24.414,-25.879,16.602,315.918
1690199230.042,-116.699,-16.113,-31.250,-169.434,-149.414
1690199230.046,-89.844,-19.531,-32.715,-172.363,-329.102
1690199230.050,9.766,-28.809,-29.785,15.625,10.742
1690199230.054,44.434,-30.273,-28.320,133.789,168.457
1690199230.056,-11.719,-25.391,-29.785,16.113,-83.008
1690199230.060,-106.934,-26.367,-30.273,-166.504,-152.832
1690199230.064,-108.887,-25.391,-27.832,-188.965,-156.738
1690199230.068,-3.906,-18.066,-28.320,-9.766,-117.188
1690199230.072,45.410,-21.484,-28.320,139.648,-48.828
1690199230.076,-30.762,-28.320,-29.785,49.805,-46.387
1690199230.080,-110.840,-23.926,-21.973,-138.184,185.059
1690199230.083,-93.750,-21.973,-18.066,-178.223,220.703
1690199230.087,-7.812,-27.344,-26.855,-33.691,-158.691
1690199230.091,52.734,-29.297,-24.902,130.371,-82.031
1690199230.095,-8.301,-29.785,-26.855,74.219,8.301
1690199230.099,-90.332,-28.809,-31.738,-125.977,-196.289
1690199230.129,-90.820,-27.344,-32.227,-202.637,-304.199
1690199230.133,-33.203,-27.832,-28.809,-56.152,-145.996
1690199230.137,34.668,-25.391,-23.926,122.559,7.812
1690199230.141,6.348,-27.344,-21.973,92.773,79.590
1690199230.145,-88.867,-30.762,-26.855,-107.910,-42.969
1690199230.149,-105.957,-25.391,-23.438,-210.449,20.508
1690199230.153,-22.461,-27.344,-17.090,-55.664,330.566
1690199230.156,45.410,-27.344,-25.391,111.816,68.848
1690199230.160,23.438,-21.484,-32.715,101.562,-129.395
1690199230.164,-59.082,-24.414,-29.785,-57.617,-72.266
1690199230.168,-112.793,-32.227,-22.949,-179.688,-184.570
1690199230.172,-66.895,-33.203,-20.508,-99.121,-260.742
1690199230.160,7.324,-36.133,-22.949,77.637,-81.055
1690199230.164,10.742,-37.109,-26.855,106.934,13.672
1690199230.168,-60.547,-38.574,-32.715,-56.641,-66.406
1690199230.172,-111.328,-43.945,-31.738,-191.406,-223.145
1690199230.176,-62.500,-42.969,-27.344,-108.887,-69.824
1690199230.180,12.207,-41.504,-29.785,91.309,332.520
1690199230.184,10.254,-41.016,-32.715,115.234,283.691
1690199230.187,-65.918,-38.086,-31.250,-33.203,32.227
1690199230.191,-122.070,-35.645,-31.738,-177.734,-60.059
1690199230.195,-61.523,-33.691,-30.273,-136.230,20.996
1690199230.199,27.344,-33.203,-26.367,57.617,33.203
1690199230.203,23.926,-35.156,-25.391,140.137,-30.762
1690199230.206,-56.152,-33.203,-24.414,3.906,-40.039
1690199230.210,-109.375,-31.250,-20.996,-158.691,193.848
1690199230.214,-83.496,-30.273,-25.879,-150.391,23.926
1690199230.218,8.789,-26.367,-34.180,14.160,-237.305
1690199230.222,53.711,-24.414,-32.227,116.699,-36.133
1690199230.226,-32.227,-34.180,-23.926,16.113,46.875
1690199230.230,-112.305,-39.062,-25.879,-167.480,-64.941
1690199230.233,-78.125,-26.855,-32.227,-185.059,-247.070
1690199230.237,7.324,-22.949,-30.273,4.395,44.922
1690199230.241,42.480,-24.902,-31.250,152.832,417.480
1690199230.245,-22.949,-21.484,-30.273,56.641,34.180
1690199230.249,-91.309,-19.531,-20.996,-148.926,-300.293
1690199230.250,-78.613,-22.949,-25.391,-181.152,-291.992
1690199230.254,-0.977,-13.184,-26.855,-13.672,-196.777
1690199230.258,52.734,-8.789,-22.461,135.742,-77.148
1690199230.262,-0.488,-19.531,-27.344,64.941,-84.961
1690199230.266,-96.680,-26.367,-23.926,-121.094,-125.977
1690199230.270,-98.633,-29.297,-22.461,-171.875,-102.539
1690199230.274,-10.742,-25.879,-25.879,-21.973,5.859
1690199230.277,45.410,-20.020,-25.391,125.977,100.586
1690199230.281,10.742,-20.996,-21.484,89.844,362.793
1690199230.285,-64.453,-27.344,-23.438,-91.309,270.020
1690199230.289,-85.449,-18.066,-29.297,-177.246,-223.633
1690199230.293,-20.508,-14.648,-39.062,-63.965,-100.098
1690199230.297,51.758,-22.949,-48.340,90.820,46.387
1690199230.301,36.621,-7.812,-39.551,91.309,-82.520
1690199230.305,-51.758,6.836,-29.297,-85.449,-201.660
1690199230.309,-107.422,-4.883,-35.645,-213.867,-229.004
1690199230.313,-44.434,-7.812,-39.551,-106.934,-194.824
1690199230.317,47.363,-6.348,-35.645,88.379,-50.293
1690199230.321,33.203,-16.113,-32.715,104.980,27.832
1690199230.324,-53.711,-19.531,-29.785,-62.988,62.500
1690199230.328,-109.863,-19.043,-32.227,-193.359,49.805
1690199230.332,-62.012,-20.508,-33.691,-117.188,-217.773
1690199230.336,28.809,-21.973,-32.715,66.406,-159.180
1690199230.340,18.066,-28.320,-38.574,104.004,8.789
1690199230.341,-72.266,-23.926,-36.133,-56.152,-76.172
1690199230.345,-120.605,-23.926,-35.156,-188.965,-188.477
1690199230.349,-73.730,-25.391,-36.133,-125.977,-161.621
1690199230.353,4.883,-16.602,-28.320,58.105,41.016
1690199230.357,4.883,-20.996,-24.414,118.164,195.801
1690199230.361,-72.754,-28.320,-23.438,-25.879,61.523
1690199230.365,-128.906,-22.461,-18.555,-184.082,-95.215
1690199230.368,-99.609,-20.020,-11.719,-137.695,182.129
1690199230.372,-8.301,-25.879,-14.648,46.387,299.805
1690199230.376,18.066,-26.855,-24.414,112.793,-39.551
1690199230.380,-65.918,-25.879,-28.320,-11.230,-99.609
1690199230.384,-121.582,-26.367,-29.785,-176.758,-154.297
1690199230.386,-96.680,-27.344,-32.715,-163.574,-245.605
1690199230.390,-16.113,-29.297,-30.273,27.344,-140.625
1690199230.394,26.367,-30.273,-30.273,137.695,11.719
1690199230.398,-43.945,-30.762,-33.203,25.391,11.719
1690199230.402,-126.953,-31.738,-29.297,-162.109,-143.555
1690199230.406,-106.445,-29.297,-30.273,-175.293,-208.984
1690199230.410,-12.207,-30.273,-32.227,3.418,121.094
1690199230.413,26.855,-33.203,-29.785,145.020,473.633
1690199230.417,-32.715,-31.738,-28.320,58.105,125.488
1690199230.421,-115.234,-29.785,-25.391,-142.090,-273.438
1690199230.425,-99.609,-33.203,-23.438,-181.641,-226.074
1690199230.429,-15.625,-37.598,-26.855,-34.180,-118.164
1690199230.430,33.691,-40.527,-28.809,118.164,-58.105
1690199230.434,-9.277,-34.668,-27.832,82.520,-75.195
1690199230.438,-104.004,-28.809,-28.320,-116.211,-146.484
1690199230.442,-104.004,-34.180,-32.227,-189.453,-190.430
1690199230.446,-15.137,-35.156,-32.715,-51.758,-116.211
1690199230.450,42.480,-26.855,-28.320,109.375,38.574
1690199230.454,-4.395,-34.180,-27.832,92.285,409.668
1690199230.457,-92.285,-38.086,-28.809,-108.887,356.934
1690199230.461,-94.238,-24.902,-31.250,-215.332,-202.148
1690199230.465,-18.555,-27.344,-27.344,-71.289,-221.191
1690199230.469,37.598,-35.156,-27.344,108.887,172.363
1690199230.473,20.020,-27.832,-36.621,92.773,94.727
1690199230.477,-74.219,-36.621,-44.434,-81.055,-242.188
1690199230.481,-99.609,-31.738,-30.762,-186.035,-276.367
1690199230.485,-7.812,-12.207,-19.043,-81.543,-180.176
1690199230.489,65.918,-23.438,-33.203,87.891,-78.125
1690199230.493,40.527,-33.691,-32.227,112.793,-73.730
1690199230.497,-46.387,-25.879,-22.949,-46.875,120.117
1690199230.501,-91.797,-23.438,-20.996,-188.477,96.680
1690199230.504,-52.246,-29.297,-21.484,-105.957,-184.082
1690199230.508,35.645,-25.391,-24.414,91.797,-131.348
1690199230.512,49.805,-15.137,-21.484,147.949,219.238
1690199230.516,-38.086,-13.672,-20.020,-8.301,241.211
1690199230.520,-108.398,-20.996,-27.832,-182.617,-214.844
1690199230.535,-61.523,-32.227,-29.785,-133.789,-241.211
1690199230.539,26.855,-31.738,-29.297,56.152,-67.871
1690199230.543,46.387,-20.996,-29.785,129.395,18.555
1690199230.547,-31.738,-18.066,-29.785,-16.113,-81.543
1690199230.551,-101.562,-19.531,-31.738,-190.430,-169.922
1690199230.555,-66.895,-21.484,-28.320,-155.273,73.242
1690199230.559,24.414,-20.508,-23.926,41.504,142.090
1690199230.562,60.547,-20.020,-21.484,144.043,-56.152
1690199230.566,-21.973,-26.367,-27.832,5.859,-84.961
1690199230.570,-106.934,-28.809,-32.227,-180.176,-41.016
1690199230.574,-67.383,-21.484,-27.832,-179.199,-235.352
1690199230.578,23.926,-25.391,-31.738,2.930,-241.211
1690199230.581,50.781,-32.715,-27.832,135.742,30.762
1690199230.585,0.977,-26.855,-20.996,41.992,102.051
1690199230.589,-80.078,-23.926,-19.043,-145.996,-151.367
1690199230.593,-85.938,-22.461,-16.602,-172.363,-270.020
1690199230.597,12.695,-23.926,-21.484,-8.301,-137.695
1690199230.601,72.754,-26.855,-23.438,140.137,102.051
1690199230.605,8.301,-28.809,-26.367,74.219,135.742
1690199230.608,-79.590,-30.762,-26.855,-119.629,-126.465
1690199230.612,-73.242,-28.320,-24.902,-176.270,-59.082
1690199230.616,21.484,-27.344,-25.879,-21.484,182.617
1690199230.620,80.566,-29.297,-31.738,137.207,23.926
1690199230.624,24.902,-31.738,-34.180,84.473,-49.316
1690199230.626,-65.918,-29.297,-26.367,-104.004,-138.672
1690199230.630,-73.730,-30.762,-29.297,-178.711,-215.332
1690199230.634,-1.465,-35.645,-41.016,-56.641,-149.902
1690199230.638,60.547,-36.621,-42.480,113.770,-112.793
1690199230.642,46.387,-29.785,-41.016,109.375,204.590
1690199230.646,-41.016,-31.250,-33.203,-62.988,186.035
1690199230.650,-84.961,-41.016,-26.367,-168.945,-128.906
1690199230.653,-20.508,-44.434,-24.414,-65.918,-66.406
1690199230.657,60.059,-45.410,-17.578,129.883,308.105
1690199230.661,52.734,-45.898,-25.879,153.809,344.238
1690199230.665,-36.133,-49.805,-31.250,-20.508,-122.559
1690199230.669,-72.266,-53.223,-23.926,-141.113,-240.723
1690199230.671,5.371,-55.664,-18.066,-42.480,-176.758
1690199230.675,87.891,-55.176,-16.602,152.832,-91.309
1690199230.679,77.148,-55.176,-14.160,187.012,-45.898
1690199230.683,0.977,-56.152,-15.625,19.043,-94.727
1690199230.687,-48.340,-50.293,-17.578,-113.281,-132.324
1690199230.691,17.578,-41.504,-13.672,-34.668,-63.965
1690199230.695,120.605,-40.039,-17.578,160.156,42.969
1690199230.698,115.723,-42.480,-15.137,226.074,250.488
1690199230.702,15.625,-41.992,-9.277,75.684,334.961
1690199230.706,-48.828,-37.109,-11.230,-83.496,-74.219
1690199230.710,-3.906,-37.109,-12.695,-29.785,-307.617
1690199230.714,86.426,-35.645,-15.137,154.297,-100.098
1690199230.715,114.746,-35.156,-18.555,219.238,1.465
1690199230.719,23.438,-35.645,-23.438,67.383,-122.070
1690199230.723,-49.316,-31.250,-27.832,-108.887,-204.102
1690199230.727,-28.320,-33.691,-23.926,-92.773,-198.730
1690199230.731,60.547,-34.180,-18.555,94.238,-37.109
1690199230.735,92.285,-28.320,-20.508,199.219,142.090
1690199230.739,8.789,-24.902,-21.973,65.918,134.277
1690199230.742,-76.172,-23.926,-22.949,-114.258,360.840
1690199230.746,-64.453,-28.809,-24.902,-124.512,424.805
1690199230.750,30.273,-31.250,-28.320,34.668,22.461
1690199230.754,78.613,-24.902,-24.902,171.387,-61.523
1690199230.758,15.625,-22.949,-18.555,88.867,-49.805
1690199230.761,-60.547,-18.066,-15.137,-94.727,-265.137
1690199230.765,-52.246,-17.090,-13.184,-138.672,-379.883
1690199230.769,18.066,-20.996,-15.625,5.859,-227.051
1690199230.773,77.637,-17.090,-16.113,159.668,-23.926
1690199230.777,31.250,-14.648,-16.113,89.844,-13.672
1690199230.781,-61.035,-15.625,-15.137,-104.492,-206.543
1690199230.785,-75.684,-19.043,-15.625,-161.621,-19.043
1690199230.788,8.789,-20.996,-21.973,-7.812,230.957
1690199230.792,80.566,-22.461,-20.996,167.480,1.465
1690199230.796,35.645,-21.973,-22.461,115.234,-31.250
1690199230.800,-54.688,-25.879,-33.691,-98.145,-102.051
1690199230.804,-71.289,-23.926,-38.086,-181.152,-270.020
1690199230.805,-2.441,-18.066,-46.387,-56.641,-253.418
1690199230.809,59.082,-21.484,-41.016,110.352,-72.266
1690199230.813,29.297,-24.902,-32.227,102.539,101.074
1690199230.817,-63.477,-27.344,-32.227,-85.938,-50.781
1690199230.821,-104.004,-33.691,-36.133,-212.891,-224.609
1690199230.825,-24.414,-29.785,-38.086,-98.633,-124.512
1690199230.829,60.059,-24.414,-29.785,114.258,341.309
1690199230.832,34.668,-31.250,-22.461,132.324,488.281
1690199230.836,-56.641,-33.691,-21.973,-56.152,-90.820
1690199230.840,-106.445,-32.227,-20.508,-189.453,-228.027
1690199230.844,-60.059,-36.621,-21.484,-102.051,-125.000
1690199230.848,31.250,-38.574,-22.461,88.379,-100.586
1690199230.853,36.133,-37.109,-20.508,132.812,-18.066
1690199230.857,-62.012,-37.598,-20.020,-23.438,22.461
1690199230.861,-128.418,-43.945,-21.973,-169.434,-44.922
1690199230.865,-83.008,-47.363,-27.832,-123.535,-220.703
1690199230.869,25.391,-38.086,-22.949,73.730,-166.016
1690199230.873,44.434,-29.297,-15.137,149.414,175.781
1690199230.877,-42.969,-33.203,-15.625,-15.137,204.102
1690199230.880,-113.770,-34.668,-20.996,-187.988,-179.199
1690199230.884,-65.918,-26.855,-9.766,-134.277,-245.117
1690199230.888,30.762,-22.461,-8.789,55.176,17.578
1690199230.892,42.480,-23.926,-18.066,136.230,83.008
1690199230.896,-38.574,-24.902,-17.578,13.672,-77.148
1690199230.910,-102.539,-28.809,-22.949,-154.297,-227.051
1690199230.914,-67.871,-28.809,-20.508,-134.766,-28.809
1690199230.918,7.324,-25.391,-24.414,34.668,187.012
1690199230.922,16.602,-23.926,-36.133,113.770,-2.930
1690199230.926,-67.871,-24.902,-30.273,-5.371,-40.527
1690199230.930,-150.391,-25.391,-22.461,-188.965,181.641
1690199230.934,-153.320,-29.297,-25.879,-222.656,242.676
1690199230.937,-82.520,-38.574,-30.273,-72.754,-76.172
1690199230.941,-38.086,-41.016,-26.367,58.105,-59.082
1690199230.945,-111.328,-31.250,-29.297,-25.879,111.816
1690199230.949,-211.914,-27.344,-35.156,-236.328,-135.742
1690199230.953,-213.379,-30.273,-34.180,-301.758,-361.328
1690199230.956,-125.000,-25.391,-35.645,-138.672,-172.852
1690199230.960,-72.266,-17.090,-36.133,12.695,40.039
1690199230.964,-117.676,-16.113,-33.203,-44.922,-37.109
1690199230.968,-201.660,-25.879,-32.715,-217.285,-232.422
1690199230.972,-193.359,-33.691,-32.715,-281.738,-210.449
1690199230.976,-99.609,-44.922,-33.691,-133.789,-34.180
1690199230.980,-37.598,-53.223,-28.809,47.852,35.156
1690199230.983,-61.035,-40.039,-23.438,29.785,-37.109
1690199230.987,-162.598,-27.344,-25.879,-151.367,20.508
1690199230.991,-206.543,-24.414,-30.273,-252.930,118.652
1690199230.995,-137.207,-15.625,-38.086,-128.418,-145.020
1690199230.999,-61.035,-24.902,-41.992,55.664,-107.422
1690199231.000,-62.988,-38.086,-30.273,63.477,47.852
1690199231.004,-148.438,-24.414,-20.508,-98.633,-94.238
1690199231.008,-189.941,-19.043,-28.809,-227.051,-307.617
1690199231.012,-96.191,-21.484,-30.273,-131.348,-264.648
1690199231.016,-1.953,-23.438,-25.391,76.660,39.062
1690199231.020,-12.207,-29.297,-26.855,110.840,99.609
1690199231.024,-113.770,-34.668,-32.227,-66.406,-47.852
1690199231.027,-164.551,-35.645,-36.133,-202.148,-115.234
1690199231.031,-93.750,-31.738,-36.621,-111.328,225.098
1690199231.035,-11.719,-28.809,-38.086,72.266,466.309
1690199231.039,-5.859,-31.738,-36.133,117.676,83.984
1690199231.043,-79.590,-34.668,-33.203,-23.926,-122.070
1690199231.046,-139.160,-32.715,-34.668,-180.664,-204.590
1690199231.050,-87.891,-30.762,-37.598,-135.254,-275.391
1690199231.054,9.277,-32.715,-36.621,68.848,-120.117
1690199231.058,20.996,-33.691,-34.668,155.762,55.176
1690199231.062,-56.641,-30.762,-32.227,1.953,18.555
1690199231.066,-114.258,-29.785,-30.273,-175.781,-91.797
1690199231.070,-71.777,-31.738,-32.715,-145.996,-133.789
1690199231.073,25.391,-30.762,-32.227,45.410,130.371
1690199231.077,53.223,-29.297,-28.320,143.555,356.934
1690199231.081,-18.555,-25.391,-28.809,20.996,55.176
1690199231.085,-88.379,-25.879,-24.902,-147.461,-159.668
1690199231.089,-53.711,-23.438,-23.926,-149.902,-157.715
1690199231.090,37.598,-14.648,-31.250,14.648,-114.258
1690199231.094,63.965,-19.531,-32.715,137.695,-81.543
1690199231.098,-3.418,-22.949,-31.250,46.387,-74.707
1690199231.102,-85.938,-24.902,-32.715,-140.625,-196.289
1690199231.106,-74.219,-26.367,-37.598,-174.805,-204.102
1690199231.110,19.531,-20.996,-40.039,-13.672,-86.914
1690199231.114,77.148,-19.531,-38.574,128.418,37.598
1690199231.117,23.438,-20.020,-31.250,67.871,346.191
1690199231.121,-55.664,-14.160,-30.762,-115.234,278.809
1690199231.125,-43.457,-17.578,-29.785,-160.156,-206.543
1690199231.129,25.879,-27.832,-20.996,-5.371,-197.754
1690199231.133,69.336,-27.344,-20.020,145.020,-31.250
1690199231.138,30.762,-30.273,-16.113,94.238,30.762
1690199231.142,-66.406,-38.086,-11.230,-104.004,-144.531
1690199231.146,-91.797,-43.945,-10.742,-183.594,-187.500
1690199231.150,-23.438,-50.293,-12.207,-58.594,-33.691
1690199231.154,44.922,-50.781,-7.812,113.770,-3.418
1690199231.158,12.695,-50.781,-0.488,105.957,104.980
1690199231.162,-88.867,-58.594,1.465,-73.730,179.199
1690199231.165,-119.629,-57.617,7.812,-192.871,117.188
1690199231.169,-54.199,-63.965,6.836,-100.098,-171.387
1690199231.173,19.531,-78.125,7.324,95.215,-143.555
1690199231.177,-4.883,-78.125,9.766,114.746,-9.277
1690199231.181,-83.496,-70.312,4.395,-58.594,-130.371
1690199231.194,-112.793,-62.988,2.930,-187.012,-283.203
1690199231.198,-57.617,-55.176,1.465,-91.309,-216.309
1690199231.202,29.785,-51.270,-3.906,105.957,64.453
1690199231.206,27.832,-48.340,-8.301,139.160,78.613
1690199231.210,-61.523,-46.875,-8.789,-29.297,-100.586
1690199231.214,-120.605,-49.805,-8.789,-173.828,-150.879
1690199231.218,-62.012,-48.340,-12.207,-103.516,245.117
1690199231.221,25.391,-43.457,-17.578,87.402,518.066
1690199231.225,22.949,-47.363,-20.020,141.602,93.750
1690199231.229,-62.012,-46.387,-19.043,-6.348,-137.207
1690199231.233,-112.793,-40.039,-19.531,-165.039,-156.738
1690199231.237,-55.176,-39.062,-22.949,-133.301,-268.066
1690199231.241,29.297,-41.016,-28.809,55.176,-200.684
1690199231.245,44.434,-36.133,-21.484,149.414,-21.973
1690199231.249,-30.762,-31.250,-20.508,14.160,-53.711
1690199231.253,-103.516,-34.180,-24.902,-166.016,-194.336
1690199231.257,-70.801,-31.250,-21.484,-157.227,-234.375
1690199231.261,22.949,-32.715,-23.926,32.227,103.516
1690199231.265,60.059,-29.785,-26.367,148.926,324.707
1690199231.268,-13.672,-23.438,-20.020,46.387,59.570
1690199231.272,-104.004,-26.367,-16.602,-137.207,-234.863
1690199231.276,-88.379,-29.297,-18.555,-147.461,-71.777
1690199231.280,2.441,-29.297,-22.949,30.762,215.820
1690199231.284,55.176,-25.391,-28.320,148.926,-26.367
1690199231.285,-3.906,-22.461,-27.832,58.594,-119.629
1690199231.289,-98.633,-24.414,-27.832,-131.836,-166.992
1690199231.293,-95.703,-25.879,-30.762,-177.246,-236.816
1690199231.297,-11.230,-24.902,-30.273,-19.043,-222.656
1690199231.301,57.617,-24.414,-29.297,134.277,-83.496
1690199231.305,-1.465,-29.785,-27.344,76.660,142.090
1690199231.309,-110.840,-35.645,-30.273,-121.582,9.766
1690199231.312,-114.258,-29.785,-31.738,-188.965,-208.496
1690199231.316,-22.461,-26.367,-24.902,-46.387,-123.047
1690199231.320,52.246,-27.832,-24.902,113.770,323.730
1690199231.324,12.695,-24.414,-28.320,81.055,456.543
1690199231.328,-82.520,-25.879,-30.273,-113.770,-64.453
1690199231.331,-103.027,-30.762,-33.203,-208.496,-288.574
1690199231.335,-21.973,-28.809,-30.273,-80.078,-167.969
1690199231.339,57.129,-20.508,-28.809,105.957,-89.355
1690199231.343,20.508,-25.879,-30.762,110.840,-54.199
1690199231.347,-77.148,-29.785,-30.273,-73.242,-96.191
1690199231.351,-113.770,-26.367,-28.320,-193.359,-130.371
1690199231.355,-43.457,-27.832,-27.832,-89.844,-74.219
1690199231.358,41.992,-26.855,-30.273,89.355,-31.250
1690199231.362,32.227,-25.391,-26.367,113.281,170.410
1690199231.366,-61.523,-27.832,-26.367,-55.176,216.797
1690199231.370,-114.746,-27.832,-30.273,-204.590,-164.551
1690199231.374,-48.828,-22.461,-26.855,-128.418,-246.582
1690199231.374,37.109,-20.020,-27.832,71.777,-12.207
1690199231.378,35.645,-21.973,-29.785,118.164,73.730
1690199231.382,-39.551,-27.344,-29.297,-36.621,-134.766
1690199231.386,-98.145,-32.227,-32.227,-184.082,-212.402
1690199231.390,-41.504,-25.391,-29.785,-129.395,-62.988
1690199231.394,66.406,-20.508,-24.902,62.012,61.035
1690199231.398,75.195,-23.926,-29.297,141.113,83.496
1690199231.401,-12.695,-23.438,-27.832,-1.953,-84.961
1690199231.405,-84.961,-23.926,-24.414,-167.969,15.625
1690199231.409,-54.688,-24.414,-30.762,-140.137,95.703
1690199231.413,35.156,-30.273,-31.738,39.062,-130.371
1690199231.417,56.152,-33.203,-24.414,142.578,-51.758
1690199231.422,-28.809,-28.809,-22.461,20.020,-13.184
1690199231.426,-110.840,-25.879,-21.484,-161.621,-173.828
1690199231.430,-88.379,-24.414,-18.555,-161.133,-331.055
1690199231.434,8.789,-21.973,-19.043,17.578,-76.172
1690199231.438,48.828,-26.367,-20.020,138.672,153.809
1690199231.442,-15.137,-25.391,-20.020,42.969,33.203
1690199231.446,-96.680,-23.438,-22.461,-139.648,-129.395
1690199231.449,-78.125,-30.273,-21.973,-164.551,-31.738
1690199231.453,29.785,-29.785,-19.043,15.625,261.719
1690199231.457,76.172,-19.043,-25.391,148.438,125.000
1690199231.461,14.160,-13.184,-26.855,49.805,-50.781
1690199231.465,-69.336,-16.602,-34.180,-132.812,-132.812
1690199231.465,-64.941,-22.461,-43.457,-174.316,-169.434
1690199231.469,34.668,-14.648,-47.363,-16.113,-170.410
1690199231.473,97.656,-11.230,-47.852,156.738,-49.316
1690199231.477,52.246,-15.625,-48.340,118.652,124.023
1690199231.481,-33.203,-11.719,-50.293,-67.383,-49.805
1690199231.485,-45.898,-14.648,-51.270,-150.879,-242.188
1690199231.489,43.945,-12.207,-52.734,-16.602,-149.414
1690199231.492,125.488,-10.254,-49.805,165.527,308.105
1690199231.496,93.750,-12.695,-49.316,152.344,456.055
1690199231.500,7.812,-10.742,-49.316,-37.109,-34.668
1690199231.504,-13.184,-9.277,-45.410,-134.766,-235.352
1690199231.508,59.570,-5.859,-41.992,-8.301,-156.738
1690199231.525,139.160,-1.465,-39.062,173.828,-76.172
1690199231.529,118.164,0.000,-36.621,182.129,-67.871
1690199231.533,16.113,-1.465,-34.668,-6.836,-113.770
1690199231.537,-39.551,-5.859,-35.156,-138.672,-183.594
1690199231.541,25.391,-2.930,-32.715,-24.414,-187.500
1690199231.545,103.516,-2.441,-29.297,157.227,-20.020
1690199231.549,80.078,-4.395,-28.809,170.410,333.984
1690199231.552,-15.625,-5.371,-26.855,-6.836,455.566
1690199231.556,-66.406,-11.230,-30.273,-159.668,-117.676
1690199231.560,0.000,-13.184,-34.180,-75.195,-363.281
1690199231.564,81.543,-11.719,-34.668,117.676,-16.602
1690199231.568,79.590,-12.207,-31.738,161.621,123.535
1690199231.555,-8.789,-14.160,-33.203,3.906,-102.539
1690199231.559,-70.312,-10.742,-33.691,-150.879,-217.773
1690199231.563,-25.391,-11.230,-34.180,-108.887,-210.449
1690199231.567,62.500,-16.113,-36.621,88.379,-109.375
1690199231.571,86.426,-20.020,-31.250,181.641,28.320
1690199231.575,-0.977,-24.902,-29.297,32.227,66.895
1690199231.579,-76.172,-23.926,-26.367,-145.996,258.301
1690199231.582,-41.016,-24.414,-23.926,-119.141,133.301
1690199231.586,38.574,-28.320,-26.367,61.035,-118.652
1690199231.590,60.059,-30.273,-25.879,148.926,-77.637
1690199231.594,-13.184,-29.785,-25.391,39.062,207.520
1690199231.598,-92.285,-27.832,-24.414,-141.602,125.977
1690199231.614,-83.008,-28.320,-27.832,-167.969,-310.547
1690199231.618,8.789,-25.391,-30.273,19.043,-180.176
1690199231.622,47.363,-22.461,-26.367,149.902,-12.695
1690199231.626,-17.090,-20.020,-27.344,50.781,-100.586
1690199231.630,-97.168,-18.555,-26.855,-125.000,-255.859
1690199231.634,-88.379,-20.508,-23.926,-154.297,-193.848
1690199231.638,1.953,-17.578,-31.250,-6.348,28.320
1690199231.641,49.316,-16.602,-32.715,132.324,62.500
1690199231.645,-4.395,-20.020,-29.297,67.871,-59.082
1690199231.649,-100.586,-21.973,-31.738,-125.488,12.207
1690199231.653,-114.746,-26.367,-34.180,-183.594,126.465
1690199231.657,-21.484,-25.391,-32.227,-42.480,16.602
1690199231.659,53.711,-26.855,-30.273,124.512,-28.809
1690199231.663,4.883,-32.227,-35.645,89.844,50.293
1690199231.667,-91.797,-31.738,-35.156,-113.281,-66.895
1690199231.671,-101.074,-25.879,-30.273,-196.289,-256.836
1690199231.675,-16.602,-20.996,-33.203,-62.988,-119.629
1690199231.679,60.547,-20.020,-28.809,112.305,271.484
1690199231.683,27.344,-19.531,-26.367,102.539,234.375
1690199231.686,-78.613,-19.043,-34.180,-87.402,-119.629
1690199231.690,-104.004,-16.113,-33.691,-191.406,-232.910
1690199231.694,-18.555,-17.578,-28.320,-76.172,82.031
1690199231.698,54.688,-20.996,-25.391,99.121,135.254
1690199231.702,35.156,-24.414,-22.461,131.348,-81.055
1690199231.719,-47.363,-16.113,-24.902,-28.320,-75.195
1690199231.723,-98.633,-6.836,-32.227,-192.383,-142.578
1690199231.727,-47.363,-8.301,-37.598,-125.977,-208.496
1690199231.731,31.738,-7.812,-40.527,66.406,-176.758
1690199231.735,17.090,-2.441,-42.480,93.750,76.172
1690199231.739,-75.684,-3.906,-43.457,-74.219,118.652
1690199231.743,-121.094,-12.695,-42.969,-215.332,-197.266
1690199231.746,-61.035,-15.137,-39.551,-150.391,-266.602
1690199231.750,28.809,-9.766,-38.574,51.270,74.707
1690199231.754,29.297,-10.742,-36.621,109.375,323.730
1690199231.758,-57.617,-14.160,-37.109,-40.527,-30.762
1690199231.762,-119.629,-16.602,-36.621,-185.547,-279.785
1690199231.749,-75.195,-14.160,-37.109,-163.086,-199.707
1690199231.753,18.066,-13.672,-39.062,17.090,-63.965
1690199231.757,35.645,-17.090,-40.039,108.887,-76.660
1690199231.761,-47.363,-14.160,-41.504,-18.066,-53.223
1690199231.765,-125.488,-18.555,-37.598,-184.570,100.586
1690199231.769,-97.656,-18.555,-37.598,-172.363,-12.695
1690199231.773,1.465,-13.184,-38.574,14.160,-63.965
1690199231.776,41.504,-16.602,-31.738,125.488,65.918
1690199231.780,-38.574,-22.461,-30.762,26.855,270.996
1690199231.784,-127.441,-27.344,-30.762,-149.902,35.645
1690199231.788,-105.469,-22.949,-25.391,-186.035,-346.191
1690199231.792,-5.859,-19.531,-25.391,-16.113,-124.512
1690199231.796,40.039,-18.555,-26.367,133.789,242.188
1690199231.800,-17.090,-20.020,-26.367,52.246,71.289
1690199231.804,-100.098,-21.973,-29.785,-135.254,-288.574
1690199231.808,-102.051,-20.508,-29.297,-178.711,-250.000
1690199231.812,-6.348,-21.484,-25.879,-27.832,-119.141
1690199231.816,58.105,-20.508,-25.879,121.094,0.488
1690199231.820,7.324,-18.066,-29.297,62.500,-13.184
1690199231.823,-94.727,-24.902,-28.320,-120.117,71.777
1690199231.827,-115.723,-33.691,-25.391,-190.430,177.734
1690199231.831,-26.367,-35.156,-31.250,-59.570,-79.102
1690199231.835,55.176,-36.621,-34.180,107.910,-149.902
1690199231.839,17.090,-34.180,-32.227,85.449,-29.785
1690199231.840,-74.707,-30.273,-29.785,-98.145,-149.902
1690199231.844,-96.191,-30.273,-29.785,-200.195,-280.273
1690199231.848,-11.719,-29.785,-32.715,-73.242,-204.590
1690199231.852,66.895,-27.344,-33.203,106.934,-44.922
1690199231.856,39.062,-30.273,-33.691,99.121,66.406
1690199231.860,-51.270,-32.715,-30.273,-83.008,63.965
1690199231.864,-85.449,-32.227,-29.785,-195.801,-91.309
1690199231.867,-12.207,-35.156,-32.227,-81.055,214.844
1690199231.871,65.918,-38.086,-31.738,107.422,528.809
1690199231.875,49.805,-33.691,-37.109,115.723,96.680
1690199231.879,-41.016,-33.203,-37.109,-57.129,-191.406
1690199231.883,-94.238,-41.016,-36.133,-189.453,-218.750
1690199231.888,-31.250,-44.434,-40.039,-112.305,-244.141
1690199231.892,60.547,-40.527,-35.645,71.289,-128.418
1690199231.896,54.688,-38.574,-30.762,120.117,-29.297
1690199231.900,-28.320,-40.527,-35.156,-33.691,-124.512
1690199231.904,-87.891,-41.992,-38.086,-195.801,-298.340
1690199231.908,-40.527,-39.551,-38.086,-139.648,-268.555
1690199231.912,60.547,-34.668,-34.668,64.941,160.645
1690199231.915,61.523,-33.203,-32.715,135.742,403.809
1690199231.919,-31.738,-37.598,-36.133,-10.742,-4.883
1690199231.923,-88.867,-44.434,-39.062,-171.387,-254.883
1690199231.927,-41.992,-38.086,-33.203,-139.648,-163.574
1690199231.931,49.805,-32.227,-26.367,46.875,-19.043
1690199231.930,79.102,-33.203,-30.762,142.578,-11.230
1690199231.934,14.160,-30.762,-32.715,36.621,-71.289
1690199231.938,-74.219,-25.879,-32.227,-146.973,-128.418
1690199231.942,-79.102,-31.250,-32.227,-171.875,-184.082
1690199231.946,2.930,-37.109,-29.785,2.930,-46.387
1690199231.950,29.785,-36.133,-33.691,112.305,60.059
1690199231.954,-52.734,-35.156,-36.133,-5.859,267.578
1690199231.957,-151.367,-28.809,-37.598,-221.191,395.508
1690199231.961,-152.832,-26.367,-37.598,-253.418,-120.117
1690199231.965,-56.641,-21.484,-32.715,-91.797,-232.910
1690199231.969,-12.207,-21.484,-35.156,24.414,-15.625
1690199231.973,-86.426,-32.715,-41.504,-56.641,-53.711
1690199231.993,-171.875,-31.738,-38.086,-237.793,-222.168
1690199231.997,-169.434,-11.719,-36.621,-284.180,-140.137
1690199232.001,-86.914,-2.441,-37.109,-136.719,92.773
1690199232.005,-13.672,-15.625,-38.086,33.691,50.293
1690199232.009,-48.340,-25.391,-38.086,-6.836,-55.664
1690199232.013,-133.789,-26.855,-30.762,-189.453,107.422
1690199232.017,-143.066,-26.855,-32.227,-267.090,203.613
1690199232.020,-62.012,-28.320,-40.039,-137.207,-66.406
1690199232.024,15.137,-26.367,-43.457,53.223,-82.031
1690199232.028,-11.719,-23.438,-34.180,47.363,62.988
1690199232.032,-104.492,-21.973,-33.691,-138.184,-14.648
1690199232.036,-130.859,-26.855,-39.062,-253.906,-236.328
1690199232.035,-54.199,-27.344,-39.551,-137.207,-212.402
1690199232.039,41.504,-26.855,-42.480,75.684,-27.832
1690199232.043,20.508,-31.738,-37.598,64.453,20.996
1690199232.047,-77.637,-29.297,-37.598,-135.254,-155.273
1690199232.051,-107.422,-27.344,-37.109,-231.934,-180.176
1690199232.055,-33.203,-29.785,-36.621,-137.207,26.855
1690199232.059,53.223,-25.879,-37.109,49.316,42.969
1690199232.062,36.621,-24.414,-30.762,87.402,-9.766
1690199232.066,-51.270,-19.531,-28.320,-69.336,-124.512
1690199232.070,-96.191,-24.902,-21.484,-202.148,25.391
1690199232.074,-33.203,-30.762,-12.207,-118.652,261.719
1690199232.078,69.824,-19.043,-19.531,92.773,32.227
1690199232.081,63.965,-17.090,-26.367,132.812,-47.363
1690199232.085,-41.016,-15.137,-27.832,-41.016,-87.891
1690199232.089,-105.469,-22.949,-28.320,-201.660,-289.551
1690199232.093,-48.828,-30.762,-22.949,-155.762,-301.270
1690199232.097,38.574,-27.344,-25.879,20.508,-88.867
1690199232.101,43.457,-26.855,-34.180,94.238,102.051
1690199232.105,-31.738,-34.180,-30.273,-9.277,-14.160
1690199232.108,-92.285,-33.203,-33.203,-174.805,-182.129
1690199232.112,-63.965,-27.344,-40.039,-167.969,-19.043
1690199232.116,36.621,-24.414,-37.109,20.508,296.875
1690199232.120,81.055,-25.879,-32.227,138.672,104.004
1690199232.124,-5.371,-34.180,-32.715,38.574,-157.715
1690199232.124,-87.402,-33.691,-31.250,-158.691,-196.777
1690199232.128,-69.824,-24.414,-28.809,-171.387,-243.164
1690199232.132,13.184,-27.832,-28.320,1.465,-176.270
1690199232.136,59.082,-37.109,-29.785,129.883,7.324
1690199232.140,-1.953,-36.621,-31.250,55.664,66.895
1690199232.144,-92.285,-31.250,-34.668,-129.883,-42.480
1690199232.148,-94.727,-28.320,-27.344,-181.152,-88.379
1690199232.151,6.836,-20.996,-25.879,-19.531,-51.758
1690199232.155,67.871,-18.066,-25.391,139.160,335.938
1690199232.159,0.977,-23.926,-23.926,65.918,508.789
1690199232.163,-76.660,-29.297,-35.156,-108.887,-58.105
1690199232.167,-75.684,-29.297,-30.273,-161.621,-287.598
1690199232.171,-19.531,-32.715,-17.578,-47.363,-163.086
1690199232.175,37.598,-40.527,-25.391,106.445,-91.797
1690199232.179,-16.113,-37.598,-29.297,54.199,-92.285
1690199232.183,-137.695,-39.062,-25.391,-153.320,-157.227
1690199232.187,-158.203,-48.340,-21.973,-240.234,-190.430
1690199232.191,-71.289,-44.434,-26.367,-98.633,-105.469
1690199232.195,6.836,-42.969,-32.227,66.406,-7.324
1690199232.198,-16.113,-45.898,-24.414,54.199,189.453
1690199232.202,-106.445,-42.480,-15.625,-102.051,195.801
1690199232.206,-133.789,-38.086,-17.090,-205.566,-225.586
1690199232.210,-58.105,-38.086,-19.043,-97.656,-318.848
1690199232.214,32.227,-39.062,-20.996,80.566,7.324
1690199232.214,10.254,-43.945,-19.531,87.891,102.539
1690199232.218,-77.148,-49.316,-20.508,-81.543,-132.812
1690199232.222,-116.211,-41.992,-25.391,-210.449,-262.207
1690199232.226,-62.500,-39.062,-27.344,-125.488,-152.344
1690199232.230,29.785,-47.852,-27.344,77.148,57.617
1690199232.234,28.320,-39.062,-27.344,126.953,116.211
1690199232.238,-63.965,-32.227,-23.438,-30.762,-19.531
1690199232.241,-107.422,-32.715,-22.949,-178.711,99.121
1690199232.245,-58.105,-32.715,-24.414,-123.047,170.410
1690199232.249,35.156,-33.691,-26.855,68.848,-51.270
1690199232.253,61.523,-31.738,-30.762,122.559,29.297
1690199232.257,-23.438,-30.273,-29.297,-16.602,-18.066
1690199232.263,-111.816,-30.273,-19.531,-159.180,-291.992
1690199232.267,-64.941,-27.832,-18.555,-124.512,-277.832
1690199232.271,35.645,-27.344,-18.555,51.758,98.145
1690199232.275,46.387,-25.879,-16.602,138.184,206.543
1690199232.279,-19.043,-21.484,-23.438,23.926,-25.879
1690199232.283,-87.891,-16.602,-21.973,-156.738,-215.332
1690199232.287,-63.965,-24.414,-19.531,-144.531,-14.160
1690199232.290,22.461,-24.902,-19.531,35.645,328.613
1690199232.294,50.293,-20.508,-18.066,149.414,77.637
1690199232.298,-15.625,-25.879,-16.113,44.922,-125.977
1690199232.302,-95.215,-33.691,-18.555,-154.785,-203.125
1690199232.306,-79.102,-30.762,-22.949,-175.293,-292.480
1690199232.304,12.695,-22.461,-25.879,7.812,-178.223
1690199232.308,52.734,-22.949,-20.996,152.832,25.879
1690199232.312,-14.160,-19.043,-21.973,47.363,54.688
1690199232.316,-94.727,-19.043,-23.438,-133.301,-136.719
1690199232.320,-83.008,-28.320,-18.555,-159.668,-123.535
1690199232.324,8.789,-23.926,-20.996,-16.113,-36.133
1690199232.328,67.871,-20.020,-21.973,139.160,357.910
1690199232.331,14.160,-23.438,-20.508,99.121,630.371
1690199232.335,-66.895,-23.926,-18.555,-94.238,-12.695
1690199232.339,-88.379,-13.672,-21.484,-180.664,-316.895
1690199232.343,-22.461,-8.789,-28.809,-58.594,-56.641
1690199232.347,39.551,-19.043,-29.297,105.957,-38.086
1690199232.364,-19.043,-14.648,-31.250,70.312,-91.797
1690199232.368,-121.582,-8.789,-34.668,-127.441,-118.164
1690199232.372,-140.137,-19.531,-34.180,-217.285,-196.289
1690199232.376,-59.570,-22.949,-36.133,-101.562,-189.453
1690199232.380,8.301,-11.230,-41.504,57.617,-107.910
1690199232.384,-40.039,-9.766,-45.898,44.434,159.180
1690199232.388,-131.348,-17.090,-44.922,-121.582,178.711
1690199232.391,-157.227,-6.348,-52.246,-234.863,-115.723
1690199232.395,-96.680,-7.324,-59.570,-160.156,-222.656
1690199232.399,-16.602,-6.836,-58.105,13.672,87.402
1690199232.403,-20.508,1.465,-60.059,41.016,294.922
1690199232.407,-91.797,-10.742,-65.430,-113.770,-133.301
1690199232.410,-128.906,-9.277,-57.617,-236.328,-336.914
1690199232.414,-72.754,6.348,-55.664,-152.344,-219.238
1690199232.418,14.648,1.465,-50.781,39.062,-64.453
1690199232.422,29.785,-14.648,-35.645,98.633,-3.906
1690199232.426,-63.477,-16.113,-38.086,-54.199,-16.113
1690199232.430,-119.141,-15.137,-38.574,-213.379,38.574
1690199232.434,-80.566,-19.531,-38.086,-166.992,-15.137
1690199232.437,9.766,-24.414,-37.598,28.320,-47.363
1690199232.441,40.039,-14.160,-31.250,103.516,-14.160
1690199232.445,-42.969,-13.184,-29.785,-22.461,232.910
1690199232.449,-113.770,-20.020,-33.691,-167.480,135.742
1690199232.453,-85.449,-20.996,-35.645,-163.086,-273.438
1690199232.470,15.625,-24.414,-34.180,13.672,-131.348
1690199232.474,62.012,-23.926,-32.715,134.766,1.953
1690199232.478,-24.902,-12.207,-32.227,17.578,-86.914
1690199232.482,-120.605,-16.113,-32.715,-168.945,-233.398
1690199232.486,-101.074,-23.926,-26.855,-169.922,-221.680
1690199232.490,0.977,-5.859,-26.855,7.812,-1.953
1690199232.494,65.918,-9.277,-25.879,134.277,136.719
1690199232.497,2.930,-30.273,-20.996,50.781,-5.371
1690199232.501,-106.445,-33.203,-22.949,-129.395,19.531
1690199232.505,-101.074,-28.809,-25.391,-167.480,37.598
1690199232.509,0.488,-30.273,-26.855,-6.836,-103.516
1690199232.513,47.363,-27.344,-27.344,129.395,41.992
1690199232.530,-6.836,-24.414,-31.738,57.129,250.000
1690199232.534,-82.031,-33.691,-29.785,-121.094,59.082
1690199232.538,-90.820,-38.574,-28.809,-193.848,-326.172
1690199232.542,-12.695,-34.668,-29.297,-54.688,-200.195
1690199232.546,46.875,-29.297,-25.879,128.418,21.973
1690199232.550,-0.977,-29.297,-24.414,87.402,64.941
1690199232.554,-100.586,-31.250,-25.879,-128.906,-22.949
1690199232.557,-125.488,-31.250,-26.367,-218.262,-154.785
1690199232.561,-49.316,-36.621,-31.738,-79.590,93.262
1690199232.565,31.738,-35.645,-32.227,105.469,203.613
1690199232.569,-8.789,-34.180,-24.902,89.844,9.766
1690199232.573,-97.168,-27.344,-27.344,-114.746,-77.637
1690199232.548,-66.406,-25.879,-31.250,-193.359,22.949
1690199232.552,-26.855,-32.715,-23.926,-58.594,-27.832
1690199232.556,42.480,-31.738,-20.508,115.723,-33.203
1690199232.560,61.035,-27.832,-27.344,127.930,131.836
1690199232.564,-41.016,-21.973,-29.297,-53.223,42.480
1690199232.568,-91.309,-22.461,-23.926,-171.387,-164.551
1690199232.572,-12.207,-33.691,-24.902,-64.453,-155.273
1690199232.575,77.148,-30.273,-27.344,113.281,24.902
1690199232.579,63.477,-20.996,-26.367,138.184,60.547
1690199232.583,-36.621,-24.414,-28.320,-29.785,-124.023
1690199232.587,-100.098,-20.020,-37.109,-186.035,-290.039
1690199232.591,-50.293,-17.578,-31.250,-131.348,-236.328
1690199232.590,44.434,-23.926,-25.391,58.105,-75.195
1690199232.594,62.500,-24.902,-28.320,117.676,0.000
1690199232.598,-39.551,-24.414,-26.367,-16.602,-100.586
1690199232.602,-95.215,-22.949,-27.344,-151.367,5.859
1690199232.606,-44.434,-24.414,-25.391,-114.258,179.199
1690199232.610,23.438,-25.879,-26.855,45.410,55.664
1690199232.614,42.969,-26.367,-30.273,120.605,36.621
1690199232.617,-24.414,-27.832,-27.832,4.395,261.719
1690199232.621,-101.074,-28.809,-22.949,-153.809,315.430
1690199232.625,-85.449,-27.344,-26.367,-149.902,-179.199
1690199232.629,5.859,-25.879,-28.809,19.043,-240.723
1690199232.633,44.434,-20.020,-25.391,132.324,-17.090
1690199232.636,-23.438,-17.578,-23.926,34.668,-118.652
1690199232.640,-95.703,-19.531,-24.414,-144.043,-270.020
1690199232.644,-78.125,-24.414,-20.996,-151.855,-239.746
1690199232.648,12.695,-24.902,-17.090,21.973,-129.395
1690199232.652,44.922,-23.926,-18.066,112.793,-42.969
1690199232.656,-20.020,-22.949,-21.484,36.133,-25.879
1690199232.660,-102.051,-21.973,-26.367,-125.000,133.301
1690199232.663,-109.375,-27.344,-29.297,-182.129,314.453
1690199232.667,-1.465,-25.391,-34.668,-24.902,-14.648
1690199232.671,53.711,-22.461,-37.109,117.676,-129.883
1690199232.675,-20.508,-26.367,-30.762,67.871,-16.113
1690199232.679,-106.445,-29.785,-29.785,-127.441,-131.836
1690199232.680,-106.934,-26.367,-34.180,-216.309,-245.117
1690199232.684,-29.297,-23.438,-30.273,-49.805,-206.055
1690199232.688,54.199,-20.020,-20.020,142.578,-22.949
1690199232.692,17.090,-18.066,-18.066,66.895,16.113
1690199232.696,-101.074,-19.043,-20.020,-139.648,-112.305
1690199232.700,-106.934,-20.020,-27.344,-175.293,-96.680
1690199232.704,-24.902,-23.438,-25.391,-35.645,308.105
1690199232.707,54.688,-27.344,-26.367,115.723,526.367
1690199232.711,41.504,-26.855,-30.273,92.285,41.992
1690199232.715,-53.223,-22.949,-26.367,-63.477,-156.738
1690199232.719,-92.285,-20.996,-25.879,-185.547,6.348
1690199232.723,-27.832,-19.043,-26.855,-91.309,-114.258
1690199232.741,57.617,-25.391,-24.902,104.492,-186.035
1690199232.745,28.320,-29.297,-22.461,111.328,-72.266
1690199232.749,-71.289,-26.855,-21.484,-68.848,-119.141
1690199232.753,-106.934,-24.902,-20.020,-200.195,-262.207
1690199232.757,-53.223,-26.855,-23.926,-122.070,-257.812
1690199232.761,36.133,-28.809,-19.043,78.613,160.645
1690199232.765,48.828,-25.391,-19.531,127.930,396.484
1690199232.768,-48.828,-22.461,-24.902,-48.828,-50.293
1690199232.772,-123.047,-23.438,-20.020,-198.730,-321.777
1690199232.776,-70.312,-27.344,-20.996,-126.953,-217.773
1690199232.780,27.832,-31.250,-21.484,61.035,-42.480
1690199232.784,52.734,-19.043,-26.367,135.742,17.090
1690199232.784,-36.621,-12.207,-28.320,-10.742,-22.949
1690199232.788,-116.211,-17.090,-25.391,-187.012,69.824
1690199232.792,-72.266,-13.672,-23.926,-158.203,32.227
1690199232.796,31.250,-12.207,-29.297,31.738,-97.168
1690199232.800,56.152,-14.648,-32.715,137.695,55.176
1690199232.804,-23.926,-13.184,-29.297,19.043,33.691
1690199232.808,-102.051,-12.207,-28.809,-167.480,-121.094
1690199232.811,-78.125,-18.555,-29.297,-185.059,-199.219
1690199232.815,27.832,-18.555,-30.273,-1.953,-180.176
1690199232.819,60.059,-15.625,-31.250,132.812,266.602
1690199232.823,-19.531,-19.043,-28.320,39.551,342.773
1690199232.827,-101.074,-17.578,-27.832,-146.484,-228.516
1690199232.831,-83.496,-21.973,-33.203,-189.453,-296.387
1690199232.835,9.277,-25.391,-33.203,-24.414,-116.211
1690199232.839,62.500,-20.508,-26.367,143.066,-45.410
1690199232.843,-4.883,-20.508,-22.949,71.777,-91.309
1690199232.847,-113.281,-26.855,-22.949,-125.488,-98.633
1690199232.851,-104.980,-30.273,-25.879,-167.969,-23.926
1690199232.855,-1.465,-27.832,-29.785,-34.668,-65.430
1690199232.858,44.434,-29.785,-29.297,108.398,-87.402
1690199232.862,-6.348,-31.738,-24.902,86.426,114.258
1690199232.866,-71.289,-25.391,-24.414,-101.562,164.062
1690199232.870,-88.867,-31.738,-29.785,-186.523,-201.660
1690199232.874,-9.277,-33.203,-30.273,-37.109,-233.887
1690199232.874,64.453,-28.320,-29.297,118.164,-38.574
1690199232.878,29.785,-26.367,-26.855,86.914,-21.973
1690199232.882,-62.500,-23.926,-23.926,-85.938,-189.941
1690199232.886,-85.449,-24.414,-24.902,-181.152,-217.773
1690199232.890,-14.648,-24.414,-19.531,-47.363,40.527
1690199232.894,52.246,-30.762,-17.578,128.418,138.184
1690199232.898,35.156,-37.109,-18.555,110.840,50.781
1690199232.901,-42.969,-33.691,-16.602,-58.594,36.133
1690199232.905,-86.426,-28.320,-17.578,-162.109,170.898
1690199232.909,-40.527,-33.203,-17.578,-70.312,38.086
1690199232.913,43.457,-32.715,-17.578,104.492,-194.824
1690199232.917,47.363,-31.250,-15.137,130.371,-5.371
1690199232.921,-46.387,-28.809,-12.207,-38.574,228.027
1690199232.925,-115.723,-29.297,-16.113,-181.152,-36.621
1690199232.929,-55.176,-36.133,-26.367,-114.258,-301.758
1690199232.933,55.664,-30.762,-33.691,80.566,-91.797
1690199232.937,55.664,-23.438,-30.762,135.742,43.945
1690199232.941,-46.387,-28.320,-29.785,-24.902,1.465
1690199232.945,-113.281,-29.297,-28.320,-182.617,-114.258
1690199232.948,-70.801,-26.367,-26.855,-129.395,62.012
1690199232.952,26.855,-29.297,-28.320,56.152,447.266
1690199232.956,54.688,-30.273,-26.855,125.488,202.148
1690199232.960,-24.902,-31.738,-26.855,-8.301,-167.480
1690199232.964,-107.422,-32.715,-26.367,-165.039,-260.254
1690199232.965,-75.684,-31.250,-23.438,-141.602,-249.023
1690199232.969,15.137,-31.738,-26.855,32.227,-196.777
1690199232.973,53.223,-31.250,-26.855,133.301,-67.383
1690199232.977,-6.348,-27.832,-25.391,23.926,-42.480
1690199232.981,-101.562,-28.809,-26.855,-153.809,-88.379
1690199232.985,-90.820,-28.809,-27.344,-161.133,-105.957
1690199232.989,9.277,-28.320,-29.297,13.672,-63.477
1690199232.992,55.664,-30.273,-28.809,145.508,428.711
1690199232.996,-9.277,-24.902,-28.320,49.805,455.078
1690199233.000,-104.004,-26.855,-31.250,-145.508,-218.262
1690199233.004,-95.703,-29.785,-26.855,-166.992,-255.371
1690199233.008,-1.953,-21.484,-20.020,5.859,10.254
1690199233.011,54.688,-23.438,-29.297,134.766,-34.180
1690199233.015,1.465,-34.180,-33.691,66.406,-105.957
1690199233.019,-98.633,-34.180,-27.344,-104.004,-166.992
1690199233.023,-101.074,-25.391,-29.297,-173.340,-242.188
1690199233.027,-1.465,-20.508,-27.344,-48.340,-220.703
1690199233.031,55.664,-24.902,-23.926,106.934,-74.707
1690199233.035,-2.930,-29.785,-22.949,82.520,208.984
1690199233.038,-98.145,-29.297,-21.484,-99.609,221.680
1690199233.042,-106.445,-26.855,-27.344,-191.406,-229.492
1690199233.046,-23.438,-24.414,-30.762,-62.012,-312.012
1690199233.050,37.598,-25.391,-30.273,104.980,-16.113
1690199233.054,10.254,-20.020,-32.227,93.750,50.781
1690199233.056,-55.664,-17.578,-30.273,-75.684,-136.230
1690199233.060,-91.309,-23.438,-18.066,-180.176,-223.633
1690199233.064,-42.969,-20.996,-11.719,-83.496,-95.703
1690199233.068,23.926,-27.344,-19.043,86.426,35.645
1690199233.072,3.906,-35.645,-24.902,104.004,59.082
1690199233.076,-85.938,-28.320,-18.555,-70.801,-93.750
1690199233.080,-130.859,-24.902,-17.090,-206.055,147.461
1690199233.083,-62.500,-30.762,-15.625,-117.676,353.027
1690199233.087,30.762,-27.344,-14.648,72.266,-50.781
1690199233.091,24.902,-23.438,-16.113,120.605,-75.684
1690199233.095,-62.500,-24.902,-20.020,-42.480,-88.379
1690199233.099,-122.070,-18.555,-23.926,-196.777,-251.465
1690199233.114,-76.660,-20.508,-24.414,-137.207,-239.258
1690199233.118,19.043,-31.250,-25.879,59.082,-112.793
1690199233.122,41.016,-31.250,-22.461,133.789,34.180
1690199233.126,-50.293,-30.762,-20.020,-24.902,-3.418
1690199233.130,-125.000,-36.133,-25.879,-195.801,-212.891
1690199233.134,-83.496,-34.180,-23.926,-144.531,-18.555
1690199233.138,7.324,-27.832,-17.090,53.711,441.895
1690199233.141,27.344,-29.785,-22.461,131.836,280.273
1690199233.145,-51.758,-34.180,-29.785,-1.953,-128.418
1690199233.149,-120.117,-36.133,-26.855,-171.875,-213.379
1690199233.153,-86.426,-34.180,-22.461,-164.551,-208.008
1690199233.157,13.184,-31.250,-21.973,17.578,-199.707
1690199233.160,46.387,-29.297,-23.926,134.277,-88.379
1690199233.164,-26.367,-29.297,-20.020,33.203,-22.949
1690199233.168,-110.352,-31.250,-22.949,-151.855,-119.629
1690199233.172,-98.633,-34.180,-30.273,-174.316,-264.648
1690199233.176,-7.324,-35.156,-26.855,-0.977,-91.797
1690199233.180,44.922,-33.203,-29.297,135.254,310.059
1690199233.184,-17.578,-32.227,-32.715,48.828,252.930
1690199233.187,-105.469,-32.227,-30.273,-147.949,-45.410
1690199233.191,-101.562,-34.668,-28.320,-200.684,-192.871
1690199233.195,-19.531,-30.762,-24.902,-27.344,116.211
1690199233.199,42.969,-24.414,-21.973,137.207,309.570
1690199233.203,-2.930,-27.832,-25.879,62.500,-50.293
1690199233.206,-94.727,-30.273,-28.809,-138.672,-165.039
1690199233.210,-100.098,-28.320,-27.832,-201.660,-229.492
1690199233.214,-19.531,-25.879,-25.879,-54.688,-255.859
1690199233.218,43.457,-29.785,-22.949,106.934,-87.402
1690199233.222,5.859,-31.250,-23.926,82.031,48.828
1690199233.226,-90.332,-29.785,-24.414,-104.492,-16.113
1690199233.230,-121.094,-33.203,-25.391,-197.754,-81.543
1690199233.233,-42.480,-36.133,-29.297,-68.359,-96.191
1690199233.237,37.109,-31.738,-30.762,100.098,195.312
1690199233.241,8.789,-29.297,-30.762,97.168,501.953
1690199233.245,-88.867,-33.691,-29.297,-96.191,46.875
1690199233.249,-116.699,-34.668,-23.926,-202.637,-324.707
1690199233.280,-38.086,-30.762,-22.949,-85.449,-245.605
1690199233.284,40.039,-24.414,-36.133,80.566,-83.496
1690199233.288,13.672,-23.926,-43.457,83.008,-32.715
1690199233.292,-89.355,-26.855,-45.410,-90.820,-146.484
1690199233.296,-128.906,-22.461,-40.039,-218.262,-145.996
1690199233.300,-66.895,-13.184,-36.133,-135.254,-33.691
1690199233.304,20.996,-9.277,-37.598,52.246,133.301
1690199233.307,21.973,-6.348,-32.715,107.422,162.598
1690199233.311,-54.199,-7.812,-34.668,-28.809,253.906
1690199233.315,-118.164,-14.648,-35.156,-190.430,247.559
1690199233.319,-73.242,-20.020,-32.227,-152.832,-88.867
1690199233.323,30.273,-18.555,-30.273,51.270,-46.875
1690199233.297,44.922,-19.531,-26.367,136.230,55.664
1690199233.301,-34.668,-20.508,-32.227,-5.371,-166.992
1690199233.305,-108.398,-20.508,-30.762,-183.594,-338.379
1690199233.309,-67.383,-22.461,-26.367,-157.227,-250.000
1690199233.313,35.645,-20.996,-26.855,40.527,-61.523
1690199233.317,60.547,-20.996,-20.508,137.207,64.941
1690199233.321,-17.090,-22.461,-18.066,20.020,-40.527
1690199233.324,-100.098,-26.367,-21.484,-149.414,-161.133
1690199233.328,-74.707,-21.973,-19.043,-158.203,-211.914
1690199233.332,25.879,-11.230,-17.090,22.949,-186.523
1690199233.336,69.336,-10.254,-23.438,154.785,17.578
1690199233.340,-3.906,-15.625,-23.926,41.016,89.844
1690199233.341,-93.262,-16.602,-26.367,-152.832,-66.406
1690199233.345,-88.379,-19.043,-28.809,-174.805,-119.629
1690199233.349,-3.418,-24.902,-32.715,-14.648,-128.906
1690199233.353,58.105,-25.391,-28.320,136.719,224.609
1690199233.357,0.488,-22.461,-19.531,71.777,461.914
1690199233.361,-99.121,-21.484,-21.484,-122.070,6.836
1690199233.365,-95.703,-23.926,-23.438,-184.082,-237.305
1690199233.368,1.465,-19.043,-25.391,-20.508,111.328
1690199233.372,64.941,-19.043,-28.809,148.926,370.117
1690199233.376,12.207,-29.785,-29.297,86.426,18.066
1690199233.380,-80.566,-33.203,-25.879,-111.816,-239.258
1690199233.384,-92.773,-34.668,-24.902,-192.383,-292.969
1690199233.386,-11.230,-33.691,-26.855,-62.988,-260.742
1690199233.390,61.035,-33.691,-29.297,107.422,-135.742
1690199233.394,29.297,-29.785,-26.855,96.191,-23.438
1690199233.398,-62.012,-30.273,-26.855,-86.914,-22.461
1690199233.402,-97.168,-32.715,-32.227,-191.895,-177.246
1690199233.406,-28.320,-29.785,-35.645,-80.078,-222.656
1690199233.410,51.758,-29.297,-35.156,98.145,114.746
1690199233.413,32.227,-29.785,-35.645,111.328,457.520
1690199233.417,-61.035,-31.738,-32.715,-76.660,104.980
1690199233.421,-104.004,-34.180,-26.855,-201.172,-281.250
1690199233.425,-36.133,-25.879,-20.996,-101.074,-197.754
1690199233.429,51.758,-23.926,-21.973,85.449,-88.379
1690199233.429,40.039,-25.879,-27.344,118.164,-91.797
1690199233.433,-52.734,-18.066,-24.414,-44.434,-172.363
1690199233.437,-113.281,-20.020,-19.043,-194.824,-220.703
1690199233.441,-61.523,-26.367,-21.484,-131.836,-192.871
1690199233.445,39.551,-26.855,-24.902,68.359,-60.059
1690199233.449,46.875,-32.715,-24.902,121.582,44.434
1690199233.453,-40.527,-32.227,-22.949,-23.438,304.199
1690199233.456,-112.305,-27.344,-21.484,-186.523,260.254
1690199233.460,-73.242,-28.320,-24.902,-152.344,-137.695
1690199233.464,23.926,-28.809,-21.484,33.691,-82.520
1690199233.468,43.457,-28.809,-19.043,124.023,245.117
1690199233.472,-32.227,-26.855,-20.020,1.953,108.398
1690199233.476,-103.516,-22.461,-18.066,-183.105,-297.852
1690199233.480,-80.078,-18.555,-15.137,-162.598,-221.680
1690199233.484,21.973,-12.207,-10.742,36.621,-11.719
1690199233.488,65.918,-13.184,-11.719,142.578,-16.602
1690199233.492,-6.348,-13.184,-11.719,34.180,-142.090
1690199233.496,-93.750,-14.648,-12.695,-143.555,-21.973
1690199233.500,-78.125,-18.555,-18.555,-159.180,108.398
1690199233.503,18.555,-20.996,-21.484,12.695,-129.883
1690199233.507,59.082,-20.996,-23.926,145.020,-69.336
1690199233.511,-17.090,-15.137,-25.391,50.781,148.438
1690199233.515,-107.910,-17.090,-23.926,-145.508,77.637
1690199233.519,-96.680,-19.531,-28.809,-186.523,-269.043
1690199233.535,-7.812,-27.832,-33.691,-32.715,-189.453
1690199233.539,45.410,-32.227,-32.715,116.699,41.992
1690199233.543,-7.324,-29.297,-27.344,62.012,16.602
1690199233.547,-96.680,-26.855,-26.367,-124.512,-196.289
1690199233.551,-95.703,-27.832,-29.785,-189.453,-233.887
1690199233.555,-8.301,-29.297,-26.367,-51.270,240.234
1690199233.559,60.547,-24.414,-23.926,117.188,394.531
1690199233.562,19.531,-24.414,-24.414,80.566,50.781
1690199233.566,-83.984,-30.273,-27.832,-107.422,-93.262
1690199233.570,-104.980,-31.738,-28.320,-197.754,-117.676
1690199233.574,-27.344,-26.367,-30.273,-77.637,-114.746
1690199233.578,41.992,-28.809,-29.297,91.309,-45.410
1690199233.580,9.277,-30.762,-27.344,89.355,54.688
1690199233.584,-78.125,-25.879,-27.344,-83.984,-0.488
1690199233.588,-102.051,-20.996,-31.250,-201.172,-244.141
1690199233.592,-18.066,-20.996,-35.156,-87.891,-269.043
1690199233.596,51.270,-30.762,-30.273,92.773,-21.973
1690199233.600,9.277,-34.180,-21.484,109.375,152.832
1690199233.604,-87.891,-38.574,-16.602,-65.430,67.871
1690199233.607,-139.648,-42.480,-16.113,-208.496,-190.430
1690199233.611,-75.195,-37.598,-14.160,-115.723,-91.797
1690199233.615,21.484,-37.598,-15.137,77.148,234.375
1690199233.619,23.438,-38.086,-17.090,108.887,45.898
1690199233.623,-61.523,-35.645,-20.508,-46.387,-120.117
1690199233.626,-122.559,-40.039,-22.949,-196.289,-189.941
1690199233.630,-65.430,-40.039,-23.438,-128.906,-124.512
1690199233.634,43.457,-33.203,-23.438,70.312,-20.996
1690199233.638,54.688,-32.227,-21.973,137.695,-56.641
1690199233.642,-40.527,-35.645,-19.043,1.953,198.242
1690199233.646,-111.816,-38.086,-20.508,-168.457,154.785
1690199233.650,-66.895,-33.203,-26.367,-146.484,-151.855
1690199233.653,36.133,-23.926,-22.461,43.945,-133.789
1690199233.657,61.523,-18.555,-15.625,147.949,209.473
1690199233.661,-17.090,-21.973,-20.508,24.902,228.027
1690199233.665,-97.168,-23.926,-21.973,-152.344,-263.184
1690199233.669,-74.707,-18.066,-17.090,-147.461,-258.789
1690199233.671,21.484,-11.230,-18.066,29.785,-59.082
1690199233.675,59.082,-8.301,-20.996,144.531,-16.113
1690199233.679,-8.301,-15.137,-23.438,42.969,-83.008
1690199233.683,-90.820,-24.414,-21.973,-132.324,-66.895
1690199233.687,-81.055,-26.855,-23.926,-153.809,-83.496
1690199233.691,13.184,-28.809,-29.297,7.324,-58.594
1690199233.695,65.430,-26.855,-29.785,142.090,93.750
1690199233.698,2.441,-24.902,-27.344,70.312,132.324
1690199233.702,-88.867,-24.902,-25.879,-118.652,250.488
1690199233.706,-86.426,-23.438,-23.926,-179.199,-32.715
1690199233.710,7.812,-22.949,-21.484,-23.438,-236.816
1690199233.714,62.012,-25.391,-21.973,125.977,-55.664
1690199233.715,4.395,-22.949,-23.438,69.824,-43.945
1690199233.719,-87.402,-21.484,-23.926,-110.352,-250.488
1690199233.723,-104.004,-28.320,-22.949,-191.895,-313.477
1690199233.727,-25.879,-27.344,-20.508,-58.594,-196.777
1690199233.731,46.875,-25.879,-17.578,112.793,-26.367
1690199233.735,19.531,-23.926,-24.902,90.820,58.594
1690199233.739,-76.660,-16.113,-27.832,-93.262,-72.266
1690199233.742,-110.840,-20.508,-25.391,-192.383,114.258
1690199233.746,-35.645,-30.273,-31.250,-69.824,392.090
1690199233.750,40.039,-32.715,-29.785,103.027,99.121
1690199233.754,18.555,-32.715,-23.926,104.004,-59.082
1690199233.758,-76.660,-32.715,-24.414,-66.895,-93.750
1690199233.777,-113.281,-31.738,-26.855,-194.824,-316.895
1690199233.781,-37.598,-28.320,-30.762,-104.004,-318.359
1690199233.785,59.082,-22.949,-29.785,90.332,-59.082
1690199233.789,45.410,-25.391,-27.832,122.559,26.855
1690199233.793,-57.129,-26.855,-28.320,-48.828,-129.883
1690199233.797,-113.770,-24.902,-26.855,-204.102,-212.402
1690199233.801,-53.711,-28.809,-25.879,-132.324,68.359
1690199233.804,36.621,-27.832,-32.227,61.523,323.730
1690199233.808,28.809,-27.832,-32.227,107.422,113.770
1690199233.812,-56.152,-33.691,-32.715,-43.457,-109.375
1690199233.816,-111.328,-31.250,-33.203,-197.266,-183.594
1690199233.820,-69.824,-31.250,-29.785,-149.902,-209.961
1690199233.804,25.879,-28.809,-35.156,44.434,-159.668
1690199233.808,53.711,-24.902,-32.715,128.906,2.441
1690199233.812,-26.367,-25.391,-28.320,1.465,-28.809
1690199233.816,-99.609,-22.461,-28.320,-163.086,-201.172
1690199233.820,-65.430,-27.832,-33.203,-152.832,-229.980
1690199233.824,24.414,-27.344,-36.621,35.156,1.953
1690199233.828,55.176,-25.391,-34.668,150.391,305.176
1690199233.831,-10.742,-31.738,-34.668,30.762,158.691
1690199233.835,-104.492,-35.156,-30.273,-158.203,-166.992
1690199233.839,-108.398,-35.645,-24.414,-185.547,-256.348
1690199233.843,-12.207,-39.062,-24.414,-14.648,211.914
1690199233.847,42.480,-41.016,-23.926,124.512,519.531
1690199233.853,-25.391,-37.598,-23.926,33.203,4.883
1690199233.857,-110.840,-37.598,-19.531,-137.207,-189.453
1690199233.861,-97.656,-39.062,-16.113,-163.086,-134.277
1690199233.865,-4.883,-38.086,-22.949,-5.859,-198.730
1690199233.869,53.711,-34.668,-23.926,142.090,-142.090
1690199233.873,0.000,-34.668,-19.043,79.102,162.598
1690199233.877,-97.656,-32.227,-17.090,-113.770,146.973
1690199233.880,-107.422,-32.227,-20.996,-187.988,-287.109
1690199233.884,-17.090,-34.180,-18.066,-41.016,-288.086
1690199233.888,47.363,-30.273,-18.555,127.930,57.129
1690199233.892,-1.953,-26.855,-22.461,77.148,122.559
1690199233.896,-94.727,-26.367,-20.020,-112.305,-143.066
1690199233.909,-107.910,-32.715,-21.973,-184.570,-250.488
1690199233.913,-27.832,-38.086,-24.902,-50.781,-109.375
1690199233.917,42.969,-35.156,-25.391,112.793,39.551
1690199233.921,10.254,-32.715,-22.461,100.098,-4.883
1690199233.925,-83.008,-30.273,-18.555,-78.125,-129.395
1690199233.929,-105.957,-32.227,-18.066,-183.594,84.961
1690199233.933,-31.250,-33.691,-21.973,-75.195,316.406
1690199233.936,39.062,-34.180,-22.949,89.844,80.078
1690199233.940,22.461,-35.156,-19.531,101.562,-31.250
1690199233.944,-70.801,-36.621,-19.531,-69.336,2.930
1690199233.948,-125.488,-42.969,-22.949,-201.172,-187.988
1690199233.952,-69.824,-40.527,-19.531,-115.234,-287.109
1690199233.956,23.926,-39.062,-16.602,73.242,-41.504
1690199233.960,22.461,-43.945,-20.508,118.164,96.191
1690199233.964,-61.523,-37.598,-21.484,-33.203,-79.102
1690199233.968,-113.281,-36.621,-18.555,-180.176,-295.410
1690199233.972,-66.406,-43.457,-23.926,-126.465,-94.238
1690199233.976,25.879,-41.504,-27.832,66.895,193.359
1690199233.980,39.062,-33.691,-27.344,138.672,120.605
1690199233.983,-48.340,-30.273,-23.438,-6.836,-88.379
1690199233.987,-120.605,-32.715,-20.996,-171.387,-93.750
1690199233.991,-77.148,-32.227,-19.531,-130.371,70.801
1690199233.995,17.090,-24.902,-17.090,59.570,-52.246
1690199233.999,37.598,-24.902,-18.555,139.160,-15.137
1690199234.000,-39.062,-26.855,-20.508,4.883,1.465
1690199234.004,-119.629,-29.785,-25.391,-169.922,-199.219
1690199234.008,-95.703,-30.762,-28.320,-165.527,-259.277
1690199234.012,4.883,-27.832,-24.902,20.020,-143.066
1690199234.016,45.898,-26.855,-22.949,136.719,90.332
1690199234.020,-25.391,-26.855,-24.414,30.762,157.715
1690199234.024,-104.492,-26.367,-20.996,-150.391,-23.926
1690199234.027,-89.355,-25.879,-21.973,-178.711,-86.426
1690199234.031,4.395,-31.738,-23.926,-4.883,272.949
1690199234.035,58.594,-30.273,-21.973,137.695,534.180
1690199234.039,-10.742,-30.762,-26.367,48.828,64.941
1690199234.043,-101.562,-31.738,-29.297,-144.043,-226.562
1690199234.046,-97.168,-32.227,-25.879,-192.383,-229.004
1690199234.050,-14.648,-36.621,-23.926,-40.039,-243.652
1690199234.054,43.457,-32.227,-20.020,119.141,-107.422
1690199234.058,-6.348,-24.902,-18.066,64.941,-55.176
1690199234.062,-102.539,-24.414,-22.461,-132.324,-105.957
1690199234.066,-115.234,-25.879,-25.391,-200.684,-93.750
1690199234.070,-30.762,-22.461,-28.320,-48.340,-70.312
1690199234.073,43.457,-19.531,-24.902,125.000,129.395
1690199234.077,10.742,-25.391,-19.531,104.004,303.711
1690199234.081,-84.473,-26.367,-23.926,-86.426,-36.621
1690199234.085,-107.422,-25.879,-23.926,-187.988,-287.598
1690199234.089,-23.438,-28.320,-18.555,-58.594,-133.301
1690199234.089,57.129,-29.297,-18.555,119.141,43.457
1690199234.093,28.809,-29.785,-19.531,116.211,-37.598
1690199234.097,-77.637,-34.668,-22.461,-67.871,-162.109
1690199234.101,-117.188,-41.504,-27.344,-198.242,-281.250
1690199234.105,-40.039,-32.715,-24.902,-98.633,-186.035
1690199234.109,44.922,-20.996,-17.090,90.820,61.523
1690199234.113,35.645,-21.484,-15.625,118.652,31.738
1690199234.116,-60.059,-29.297,-13.672,-42.969,191.895
1690199234.120,-121.582,-32.227,-13.672,-182.129,220.215
1690199234.124,-57.129,-21.973,-17.090,-106.934,-198.730
1690199234.128,42.969,-20.508,-15.137,89.844,-123.047
1690199234.132,41.504,-20.508,-16.602,148.926,117.188
1690199234.137,-46.875,-18.555,-17.090,-4.883,-14.160
1690199234.141,-111.816,-22.461,-19.531,-177.734,-282.227
1690199234.145,-60.547,-25.391,-20.996,-128.906,-229.004
1690199234.149,45.898,-19.043,-20.996,69.824,35.156
1690199234.153,55.664,-20.020,-23.438,145.020,53.223
1690199234.157,-41.992,-29.297,-27.344,-2.441,-34.668
1690199234.161,-110.840,-30.762,-28.809,-178.711,31.738
1690199234.164,-79.102,-29.297,-29.785,-152.832,153.809
1690199234.168,6.836,-25.391,-32.227,33.691,55.664
1690199234.172,30.273,-28.809,-35.156,130.371,-13.184
1690199234.176,-39.062,-31.738,-33.203,18.066,-27.832
1690199234.180,-99.121,-30.762,-28.320,-150.879,-106.934
1690199234.181,-65.918,-24.902,-29.297,-155.762,-254.395
1690199234.185,27.832,-25.391,-28.320,5.371,-149.902
1690199234.189,60.059,-26.855,-29.785,124.512,97.168
1690199234.193,-4.883,-25.879,-30.273,43.457,41.992
1690199234.197,-79.590,-29.785,-28.809,-126.953,-153.809
1690199234.201,-63.477,-27.832,-33.203,-155.762,-253.906
1690199234.205,32.227,-24.414,-31.250,12.695,196.289
1690199234.208,96.680,-18.066,-32.227,168.457,607.910
1690199234.212,47.363,-12.207,-31.250,91.797,80.566
1690199234.216,-37.598,-10.742,-25.391,-87.891,-275.879
1690199234.220,-41.016,-11.230,-25.879,-133.301,-266.113
1690199234.224,35.156,-18.066,-26.855,4.883,-252.930
1690199234.227,98.633,-19.043,-29.785,165.039,-110.352
1690199234.231,53.223,-14.648,-29.297,125.977,-6.836
1690199234.235,-44.434,-18.555,-28.809,-69.336,-135.742
1690199234.239,-68.359,-18.555,-29.297,-157.227,-286.133
1690199234.243,2.930,-20.996,-27.344,-41.504,-216.797
1690199234.247,75.684,-27.832,-27.832,130.859,166.016
1690199234.251,42.969,-22.461,-26.855,127.441,505.371
1690199234.254,-58.594,-20.020,-24.414,-65.918,106.934
1690199234.258,-97.656,-20.508,-25.879,-184.082,-277.344
1690199234.262,-20.020,-22.949,-31.250,-68.359,-75.684
1690199234.266,67.871,-23.438,-32.715,122.070,100.586
1690199234.270,51.758,-24.414,-30.762,136.230,2.930
1690199234.285,-42.480,-26.367,-25.879,-29.297,-149.902
1690199234.289,-89.355,-22.949,-25.391,-176.270,-242.188
1690199234.293,-24.902,-19.043,-29.297,-102.539,-204.102
1690199234.297,60.547,-18.066,-29.785,95.703,-124.023
1690199234.301,58.105,-18.555,-26.855,138.672,-64.453
1690199234.305,-39.062,-24.414,-26.855,-19.531,181.641
1690199234.309,-108.887,-29.785,-30.762,-182.129,61.523
1690199234.312,-58.105,-28.320,-34.180,-134.277,-199.219
1690199234.316,33.691,-27.832,-30.762,58.594,-18.555
1690199234.320,50.293,-24.902,-27.344,133.301,333.984
1690199234.324,-34.180,-21.484,-26.367,-9.277,244.629
1690199234.328,-115.234,-23.438,-27.832,-175.781,-239.258
1690199234.330,-74.219,-26.367,-29.297,-139.160,-227.051
1690199234.334,29.785,-27.832,-25.879,47.852,-32.227
1690199234.338,48.340,-30.762,-26.855,135.254,42.480
1690199234.342,-41.504,-36.133,-26.367,9.277,-67.383
1690199234.346,-112.793,-38.086,-25.391,-164.062,-190.430
1690199234.350,-73.730,-32.715,-26.367,-159.180,-128.418
1690199234.354,17.090,-24.902,-27.832,17.578,-20.020
1690199234.357,42.480,-20.508,-28.809,131.348,-19.043
1690199234.361,-25.879,-18.555,-24.902,31.250,96.680
1690199234.365,-102.051,-20.020,-24.414,-143.555,128.906
1690199234.369,-85.938,-18.555,-29.785,-166.992,-168.457
1690199234.373,10.742,-19.043,-29.297,3.418,-160.156
1690199234.374,63.965,-20.508,-24.414,138.184,64.453
1690199234.378,0.977,-18.066,-23.926,54.199,44.922
1690199234.382,-90.820,-20.020,-29.785,-128.906,-156.738
1690199234.386,-91.309,-24.414,-30.762,-167.480,-291.992
1690199234.390,0.000,-22.949,-26.855,-8.789,143.555
1690199234.394,62.988,-23.438,-25.391,134.277,458.008
1690199234.398,6.836,-22.461,-23.926,71.289,164.551
1690199234.401,-92.285,-21.973,-22.949,-111.816,-51.270
1690199234.405,-98.145,-22.461,-23.926,-176.270,92.773
1690199234.409,-8.789,-24.902,-25.879,-44.434,163.086
1690199234.413,74.707,-23.438,-28.809,129.883,-141.602
1690199234.417,39.551,-18.555,-21.484,114.258,-70.801
1690199234.423,-78.125,-24.902,-16.602,-94.238,-79.102
1690199234.427,-106.934,-30.273,-21.484,-195.801,-270.996
1690199234.431,-8.789,-30.762,-20.508,-46.387,-243.164
1690199234.435,79.102,-32.227,-17.578,144.043,-17.090
1690199234.439,39.551,-39.062,-17.090,131.348,123.047
1690199234.443,-68.359,-51.270,-19.531,-56.152,-75.684
1690199234.447,-106.445,-55.176,-19.043,-173.828,-207.520
1690199234.450,-28.320,-50.293,-10.742,-68.848,-8.789
1690199234.454,54.688,-47.363,-9.766,125.000,245.117
1690199234.458,35.645,-50.781,-12.207,156.250,42.480
1690199234.462,-47.363,-55.176,-8.789,-2.441,-166.992
1690199234.466,-76.660,-48.828,-6.348,-133.789,-228.027
1690199234.480,-2.441,-48.340,-5.371,-46.387,-223.145
1690199234.484,93.262,-50.781,-11.230,146.973,-117.188
1690199234.488,92.285,-46.387,-13.184,197.266,-14.648
1690199234.492,8.301,-38.086,-5.371,52.246,42.480
1690199234.496,-51.758,-35.645,-7.324,-104.492,-109.375
1690199234.500,-17.578,-42.480,-15.137,-66.895,-149.902
1690199234.504,73.242,-39.551,-17.578,112.793,1.465
1690199234.507,96.191,-36.621,-16.602,186.523,334.961
1690199234.511,6.836,-36.621,-12.207,59.570,506.348
1690199234.515,-76.660,-36.133,-17.090,-114.746,15.625
1690199234.519,-38.574,-35.156,-18.555,-104.004,-301.758
1690199234.523,66.406,-31.250,-14.648,75.684,-162.598
1690199234.511,94.238,-31.738,-13.672,174.316,-39.551
1690199234.515,-1.465,-32.227,-17.090,53.711,-78.613
1690199234.519,-99.121,-31.738,-17.578,-143.555,-129.883
1690199234.523,-85.938,-27.344,-18.555,-159.668,-135.254
1690199234.527,-1.465,-22.949,-24.414,3.906,-118.652
1690199234.531,23.926,-24.414,-22.461,103.027,101.562
1690199234.535,-50.293,-25.391,-19.531,0.977,170.410
1690199234.538,-141.602,-26.367,-23.926,-191.895,-42.480
1690199234.542,-141.602,-30.273,-27.344,-228.027,-236.816
1690199234.546,-43.945,-28.809,-29.785,-51.758,-234.863
1690199234.550,30.273,-25.879,-27.344,107.910,104.980
1690199234.554,-20.996,-23.438,-23.926,41.992,332.520
1690199234.554,-108.398,-17.090,-24.902,-149.414,-89.355
1690199234.558,-103.516,-24.414,-23.926,-193.359,-316.406
1690199234.562,-9.766,-24.902,-26.855,-35.156,-134.766
1690199234.566,56.641,-18.066,-27.344,122.559,14.160
1690199234.570,7.324,-23.926,-27.344,73.242,13.184
1690199234.574,-92.285,-25.879,-31.250,-121.582,-78.125
1690199234.578,-110.352,-28.809,-28.320,-199.707,185.547
1690199234.581,-25.391,-32.715,-30.762,-64.941,345.215
1690199234.585,48.828,-25.391,-32.227,104.004,29.297
1690199234.589,9.277,-25.391,-32.715,83.496,-75.195
1690199234.593,-90.820,-32.227,-32.227,-106.934,142.578
1690199234.597,-115.723,-32.715,-32.227,-215.820,13.672
1690199234.614,-39.551,-28.320,-35.156,-99.609,-320.801
1690199234.618,41.016,-29.785,-34.668,89.844,-151.855
1690199234.622,24.414,-26.367,-31.738,104.492,-11.230
1690199234.626,-70.312,-22.949,-29.785,-69.336,-132.324
1690199234.630,-116.699,-24.902,-31.250,-200.195,-320.312
1690199234.634,-47.852,-26.855,-27.832,-104.004,-103.516
1690199234.638,47.852,-30.273,-26.367,85.938,203.125
1690199234.641,37.109,-27.832,-29.297,114.746,62.500
1690199234.645,-59.570,-29.297,-26.367,-45.410,-184.570
1690199234.649,-101.562,-30.273,-23.438,-179.688,-139.160
1690199234.653,-43.457,-30.273,-25.391,-107.910,-33.691
1690199234.657,42.969,-23.438,-30.762,70.801,-111.816
1690199234.659,59.082,-18.066,-28.809,145.020,-44.434
1690199234.663,-20.996,-18.555,-25.391,12.207,34.180
1690199234.667,-89.844,-17.578,-24.902,-159.180,-85.449
1690199234.671,-42.480,-15.625,-22.949,-117.676,-227.051
1690199234.675,59.082,-12.695,-18.555,78.613,-78.125
1690199234.679,77.148,-12.695,-15.625,170.898,312.012
1690199234.683,-9.277,-17.578,-19.531,32.227,251.465
1690199234.686,-88.867,-21.973,-20.996,-155.762,-153.809
1690199234.690,-63.965,-23.438,-23.926,-149.414,-233.887
1690199234.694,35.645,-21.973,-24.414,40.527,142.578
1690199234.698,61.035,-21.973,-25.391,140.625,263.672
1690199234.702,-30.762,-24.414,-27.832,15.137,-141.113
1690199234.722,-114.746,-26.367,-22.461,-166.504,-164.551
1690199234.726,-91.309,-22.461,-19.531,-185.059,-107.910
1690199234.730,2.930,-20.508,-17.578,-11.230,-191.406
1690199234.734,43.945,-22.949,-19.531,136.719,-84.473
1690199234.738,-31.738,-27.832,-22.461,36.621,-14.648
1690199234.742,-115.723,-29.785,-20.996,-160.645,-56.152
1690199234.746,-108.398,-32.227,-24.902,-186.523,-125.488
1690199234.749,-28.809,-34.668,-29.785,-36.621,-156.250
1690199234.753,36.621,-34.668,-27.832,116.699,96.680
1690199234.757,-11.230,-36.133,-25.879,59.570,298.340
1690199234.761,-103.516,-30.273,-27.832,-135.742,-104.980
1690199234.765,-109.863,-33.691,-31.250,-195.312,-303.223
1690199234.749,-20.996,-34.180,-28.809,-36.621,-143.555
