timestamps,TP9,AF7,AF8,TP10,Right AUX
1690201879.130,-33.203,-18.066,-28.809,-50.293,-58.105
1690201879.134,59.570,-36.621,-22.949,-5.371,-40.039
1690201879.138,73.730,-46.875,-27.344,58.594,-63.965
1690201879.142,-4.395,-23.438,-38.086,19.531,-56.641
1690201879.146,-38.086,-20.508,-36.133,-54.199,112.305
1690201879.150,-7.324,-30.762,-32.227,-32.715,405.273
1690201879.154,40.527,-14.648,-31.738,35.645,148.438
1690201879.157,77.637,0.000,-28.320,58.594,-85.449
1690201879.161,40.039,-4.883,-27.832,26.855,150.391
1690201879.165,-39.062,-3.418,-30.762,-52.246,70.801
1690201879.169,-29.297,-7.324,-36.621,-82.520,-211.426
1690201879.173,47.363,-14.648,-36.621,-10.254,-169.922
1690201879.175,57.129,-20.508,-29.297,50.781,-79.102
1690201879.179,17.578,-28.809,-26.367,27.832,-84.961
1690201879.183,-27.344,-28.320,-28.320,-39.062,-149.414
1690201879.187,-39.551,-31.250,-34.668,-59.082,-207.031
1690201879.191,20.020,-33.203,-39.062,0.488,-125.977
1690201879.195,68.359,-28.809,-49.805,51.270,34.180
1690201879.199,16.113,-29.785,-55.664,21.973,47.363
1690201879.202,-58.105,-40.039,-47.363,-31.738,54.688
1690201879.206,-61.035,-45.410,-35.156,-44.434,274.902
1690201879.210,-8.301,-31.738,-35.156,-18.066,135.742
1690201879.214,52.734,-13.184,-37.109,25.391,-83.984
1690201879.218,32.227,-5.859,-29.297,33.691,-71.289
1690201879.220,-33.691,-15.137,-25.391,-19.043,-68.359
1690201879.224,-49.316,-20.996,-33.691,-56.641,-145.508
1690201879.228,1.953,-24.902,-32.715,-36.621,-187.012
1690201879.232,59.082,-32.715,-35.645,25.391,37.598
1690201879.236,48.828,-29.297,-37.109,31.250,124.512
1690201879.240,-32.227,-15.137,-36.133,-29.785,1.465
1690201879.244,-61.523,-12.695,-44.434,-81.543,-123.047
1690201879.247,-24.414,-25.879,-42.969,-45.898,90.820
1690201879.251,37.598,-25.391,-37.598,19.043,454.590
1690201879.255,49.805,-13.184,-35.645,13.184,79.102
1690201879.259,-31.738,-28.320,-37.109,-56.152,-198.242
1690201879.263,-79.590,-30.762,-35.156,-101.562,-162.109
1690201879.267,-20.020,-20.020,-35.645,-60.059,-228.027
1690201879.271,27.832,-34.668,-41.992,-5.371,-201.172
1690201879.275,25.391,-43.945,-40.039,11.719,-104.004
1690201879.279,-11.230,-45.410,-43.457,-35.645,-66.406
1690201879.283,-52.246,-43.945,-60.547,-87.402,-120.605
1690201879.287,-33.203,-28.320,-54.199,-70.312,-143.555
1690201879.291,37.109,-11.230,-37.109,-9.766,65.430
1690201879.294,61.035,3.418,-31.738,38.086,363.281
1690201879.298,-12.695,-10.254,-29.785,-18.066,110.840
1690201879.302,-67.871,-18.555,-34.180,-91.309,-154.297
1690201879.306,-47.852,-29.297,-45.410,-83.008,-13.184
1690201879.310,14.648,-42.969,-41.992,-16.113,78.613
1690201879.310,63.965,-28.809,-35.645,27.832,-40.039
1690201879.314,12.207,-21.973,-37.109,-11.230,-98.633
1690201879.318,-47.852,-20.508,-33.691,-63.965,11.230
1690201879.322,-26.855,-13.672,-30.762,-55.176,15.137
1690201879.326,34.180,-14.160,-26.367,-5.859,-101.074
1690201879.330,66.895,-24.414,-27.344,31.250,-63.965
1690201879.334,44.434,-55.664,-31.738,16.602,190.918
1690201879.337,-11.230,-73.242,-32.715,-21.973,379.395
1690201879.341,-46.387,-58.105,-39.551,-49.805,-52.246
1690201879.345,4.883,-42.969,-36.621,-21.973,-220.703
1690201879.349,47.363,-24.902,-44.922,27.344,-53.223
1690201879.353,18.066,-11.230,-37.598,0.000,-142.578
1690201879.373,-61.035,-8.301,-20.020,-80.566,-212.891
1690201879.377,-73.730,-3.418,-26.855,-98.633,-145.996
1690201879.381,0.977,-12.695,-33.691,-22.949,15.137
1690201879.385,53.223,-25.391,-39.551,36.133,-21.973
1690201879.389,51.758,-25.879,-27.344,19.531,-154.785
1690201879.393,-30.273,-25.391,-14.648,-35.645,-26.855
1690201879.397,-74.219,-22.461,-17.578,-57.617,218.262
1690201879.400,-3.906,-16.602,-17.090,-27.344,-65.918
1690201879.404,53.223,-20.508,-17.090,20.996,-249.023
1690201879.408,33.691,-24.902,-24.414,23.438,-103.027
1690201879.412,-34.180,-16.113,-26.855,-44.922,-14.648
1690201879.416,-76.660,-15.137,-27.832,-82.031,-146.484
1690201879.415,-23.926,-23.926,-23.926,-42.969,-251.465
1690201879.419,62.500,-13.672,-20.508,27.832,-132.812
1690201879.423,61.035,-13.672,-21.484,49.316,-52.734
1690201879.427,9.277,-25.879,-25.879,-2.930,-76.172
1690201879.431,-11.230,-29.785,-25.879,-53.711,-46.387
1690201879.435,-5.859,-31.738,-24.414,-33.203,169.922
1690201879.439,25.391,-29.785,-29.785,16.602,212.402
1690201879.442,36.621,-28.320,-41.016,18.066,66.895
1690201879.446,-33.203,-22.949,-36.621,-19.043,-81.055
1690201879.450,-66.895,-28.320,-31.738,-54.199,92.285
1690201879.454,-33.691,-35.645,-34.180,-36.621,377.930
1690201879.458,32.227,-30.762,-24.902,21.484,75.195
1690201879.460,68.848,-16.602,-20.508,49.805,-174.316
1690201879.464,-2.441,-28.320,-22.949,4.883,-122.070
1690201879.468,-68.848,-36.133,-29.297,-74.219,-191.895
1690201879.472,-41.992,-23.926,-41.504,-79.590,-214.355
1690201879.476,18.555,-27.344,-39.551,-9.766,-88.379
1690201879.480,45.898,-25.879,-30.762,41.016,69.824
1690201879.484,2.930,-19.531,-31.250,7.324,52.246
1690201879.487,-49.316,-21.973,-30.762,-59.570,-110.352
1690201879.491,-29.785,-29.785,-28.320,-61.523,-145.020
1690201879.495,33.203,-37.598,-25.879,9.277,226.562
1690201879.499,51.758,-34.180,-34.668,50.781,162.109
1690201879.503,-3.906,-24.414,-45.898,-8.789,-170.898
1690201879.505,-63.965,-17.090,-41.504,-80.078,-157.715
1690201879.509,-46.875,-13.184,-37.109,-87.402,-151.367
1690201879.513,22.461,-24.902,-29.297,-22.461,-121.094
1690201879.517,46.387,-40.527,-27.344,35.156,-2.441
1690201879.521,11.719,-40.527,-30.762,20.020,118.652
1690201879.525,-47.852,-31.250,-28.809,-45.898,73.730
1690201879.529,-67.383,-18.555,-29.297,-84.961,-172.852
1690201879.532,11.230,-16.113,-28.320,-34.180,-193.359
1690201879.536,81.543,-22.949,-29.785,33.203,151.367
1690201879.540,42.480,-22.949,-26.855,15.137,82.031
1690201879.544,-58.105,-24.414,-25.879,-64.941,-214.844
1690201879.548,-65.918,-13.672,-28.320,-91.797,-222.656
1690201879.552,14.648,-4.395,-23.438,-25.879,106.934
1690201879.556,53.223,-22.461,-26.367,34.668,157.227
1690201879.560,34.180,-33.203,-34.668,33.203,-108.887
1690201879.564,-31.250,-27.344,-28.320,-26.855,-148.438
1690201879.568,-78.125,-14.160,-29.785,-77.637,-175.293
1690201879.572,-15.137,-12.207,-32.227,-30.762,-135.254
1690201879.576,54.688,-10.254,-36.621,35.156,-78.613
1690201879.579,44.434,-6.836,-33.203,41.992,-34.668
1690201879.583,-8.789,-17.090,-21.973,-6.836,206.055
1690201879.587,-65.430,-20.020,-31.250,-69.824,5.859
1690201879.591,-30.762,-17.578,-33.203,-40.527,-144.531
1690201879.595,52.246,-19.043,-29.297,35.645,-11.719
1690201879.595,58.105,-22.949,-22.949,40.527,-18.555
1690201879.599,-11.719,-20.020,-24.902,-33.691,-96.191
1690201879.603,-62.500,-17.090,-29.297,-77.148,-159.180
1690201879.607,-34.668,-22.461,-26.855,-54.688,-25.879
1690201879.611,26.367,-35.645,-26.367,4.395,63.477
1690201879.615,59.570,-38.574,-29.297,46.387,83.984
1690201879.619,14.160,-33.691,-35.645,-6.348,48.828
1690201879.622,-57.617,-19.043,-30.273,-75.195,112.793
1690201879.626,-49.805,-10.742,-27.832,-53.711,282.227
1690201879.630,11.230,-25.391,-37.109,-4.883,-14.648
1690201879.634,33.691,-26.855,-39.062,31.738,-168.945
1690201879.638,-8.789,-13.184,-34.668,0.488,-92.285
1690201879.643,-64.941,-17.578,-33.203,-74.219,-169.434
1690201879.647,-43.457,-25.879,-27.344,-81.543,-191.895
1690201879.651,41.016,-24.414,-27.832,-18.066,-101.562
1690201879.655,79.102,-28.320,-38.574,41.992,50.293
1690201879.659,14.648,-28.320,-40.039,4.395,-4.395
1690201879.663,-82.031,-24.902,-41.992,-65.430,-71.289
1690201879.667,-83.496,-29.785,-43.457,-72.754,-42.480
1690201879.670,6.836,-33.691,-42.480,-18.066,246.582
1690201879.674,48.828,-20.996,-37.598,14.648,93.750
1690201879.678,-12.207,-14.160,-36.133,0.488,-187.012
1690201879.682,-74.707,-13.184,-39.062,-55.176,-138.184
1690201879.686,-63.477,-23.926,-34.668,-101.562,-124.023
1690201879.685,-15.137,-47.363,-36.133,-54.688,-177.246
1690201879.689,41.992,-48.340,-42.480,16.602,-117.676
1690201879.693,18.066,-47.852,-46.875,22.949,5.859
1690201879.697,-58.594,-46.387,-47.852,-50.781,29.297
1690201879.701,-78.125,-35.645,-39.062,-101.074,14.160
1690201879.705,-24.902,-26.367,-36.133,-51.758,-17.090
1690201879.709,40.527,-18.066,-33.691,26.855,223.145
1690201879.712,39.551,-17.578,-26.367,40.527,444.824
1690201879.716,-34.180,-22.949,-31.738,-32.715,73.242
1690201879.720,-82.520,-39.551,-27.832,-85.938,-258.301
1690201879.724,-26.367,-43.457,-27.832,-53.223,-171.875
1690201879.728,49.316,-38.086,-34.668,17.090,-103.516
1690201879.732,22.949,-33.691,-34.668,18.555,-144.043
1690201879.736,-41.504,-20.020,-40.527,-52.246,-131.836
1690201879.740,-40.527,-6.836,-37.598,-91.797,-35.156
1690201879.744,-13.672,-8.789,-34.180,-66.895,-111.816
1690201879.748,28.809,-13.672,-34.668,-4.883,-161.133
1690201879.752,39.551,-13.184,-33.203,15.625,62.988
1690201879.756,-31.738,-19.043,-31.738,-31.738,200.195
1690201879.759,-81.055,-32.715,-38.086,-85.449,-31.250
1690201879.763,-45.410,-27.832,-47.852,-62.500,-205.566
1690201879.767,19.531,-21.484,-40.527,17.578,-38.086
1690201879.771,49.316,-23.438,-30.762,42.480,223.633
1690201879.775,-0.977,-20.020,-25.391,-29.297,-21.973
1690201879.790,-83.496,-21.484,-17.578,-98.633,-202.148
1690201879.794,-68.848,-34.180,-16.602,-69.336,-129.883
1690201879.798,7.324,-36.133,-15.625,7.324,-46.875
1690201879.802,32.715,-28.809,-31.738,30.762,20.508
1690201879.806,-33.691,-27.832,-41.992,-32.227,-125.000
1690201879.810,-81.055,-30.762,-30.273,-88.867,34.668
1690201879.814,-49.805,-27.344,-26.367,-65.918,422.363
1690201879.817,13.184,-18.555,-30.273,-28.809,55.664
1690201879.821,35.156,-13.672,-30.762,11.230,-185.059
1690201879.825,-5.859,-12.695,-32.227,6.836,90.820
1690201879.829,-60.547,-17.578,-34.180,-57.129,-45.410
1690201879.833,-40.039,-26.367,-34.668,-78.125,-286.621
1690201879.835,26.855,-26.367,-30.762,-12.695,-162.598
1690201879.839,64.453,-32.715,-24.902,41.992,-40.527
1690201879.843,8.301,-42.969,-26.367,1.953,-83.984
1690201879.847,-70.312,-33.203,-33.691,-74.707,-200.195
1690201879.851,-74.707,-22.949,-36.133,-85.938,-213.867
1690201879.855,-8.301,-20.020,-28.320,-27.344,-42.480
1690201879.859,43.457,-18.066,-27.344,32.227,30.762
1690201879.862,17.578,-23.438,-35.156,23.438,5.859
1690201879.866,-54.199,-26.855,-39.062,-41.992,-56.152
1690201879.870,-70.312,-25.879,-34.668,-76.172,215.332
1690201879.874,-13.184,-25.879,-24.902,-49.805,109.375
1690201879.878,45.898,-23.438,-22.949,29.297,-15.625
1690201879.880,36.133,-18.066,-38.086,41.504,84.961
1690201879.884,-47.852,-18.066,-38.574,-38.574,-16.602
1690201879.888,-65.430,-19.043,-30.762,-68.848,-129.395
1690201879.892,-4.395,-24.414,-25.879,-28.809,-109.375
1690201879.896,42.480,-19.531,-15.137,29.297,83.008
1690201879.900,37.109,-6.836,-24.902,42.969,210.449
1690201879.904,-33.691,-11.719,-33.203,-35.645,3.418
1690201879.907,-67.871,-11.719,-32.715,-91.309,-182.129
1690201879.911,-11.230,-12.695,-35.156,-38.086,25.391
1690201879.915,56.152,-17.090,-39.062,38.086,197.754
1690201879.919,43.945,-20.020,-41.016,30.273,-83.008
1690201879.923,-28.809,-29.297,-41.992,-19.531,-156.250
1690201879.927,-71.777,-31.738,-37.109,-52.734,-114.258
1690201879.931,-30.762,-21.973,-33.203,-32.227,-83.984
1690201879.935,41.504,-13.672,-30.273,24.902,-38.086
1690201879.939,57.617,-20.020,-21.973,35.645,-6.348
1690201879.943,11.230,-28.320,-18.066,-3.906,62.012
1690201879.947,-45.898,-28.320,-26.367,-49.805,-81.543
1690201879.951,-40.039,-32.227,-35.156,-42.969,-140.137
1690201879.954,39.551,-29.785,-34.668,12.695,-48.828
1690201879.958,57.617,-20.020,-25.879,36.621,70.312
1690201879.962,-12.207,-11.719,-26.367,-11.719,-87.402
1690201879.966,-55.176,-16.602,-28.809,-78.125,-232.910
1690201879.970,-41.016,-25.879,-26.855,-63.477,-55.664
1690201879.970,19.043,-28.320,-21.973,0.977,114.746
1690201879.974,35.156,-18.066,-25.391,32.715,-67.871
1690201879.978,7.324,-13.672,-31.738,12.695,-163.086
1690201879.982,-39.551,-30.762,-30.762,-37.598,13.672
1690201879.986,-52.246,-37.598,-36.133,-53.223,19.531
1690201879.990,5.859,-24.902,-42.969,-0.977,-62.988
1690201879.994,51.270,-16.113,-41.016,46.875,5.859
1690201879.997,4.395,-14.160,-38.086,21.484,191.895
1690201880.001,-68.848,-20.996,-41.016,-38.086,346.191
1690201880.005,-79.590,-20.996,-32.227,-71.289,-61.035
1690201880.009,-8.789,-17.578,-33.203,-24.414,-222.656
1690201880.013,50.781,-17.578,-35.156,37.109,38.574
1690201880.017,19.043,-17.090,-31.250,24.414,-63.477
1690201880.021,-56.152,-30.762,-34.668,-51.758,-241.699
1690201880.025,-69.336,-42.969,-30.762,-75.195,-171.875
1690201880.029,16.602,-52.734,-26.855,-8.301,8.301
1690201880.033,71.777,-46.387,-30.762,37.598,-33.203
1690201880.037,23.926,-24.902,-30.273,3.906,-68.359
1690201880.041,-51.270,-18.555,-25.879,-57.129,-1.953
1690201880.044,-64.941,-29.297,-29.785,-58.594,310.059
1690201880.048,-19.531,-36.133,-38.574,-21.484,160.645
1690201880.052,18.555,-16.113,-46.875,13.672,-171.387
1690201880.056,12.207,3.906,-40.527,21.973,-88.867
1690201880.060,-45.898,-1.465,-37.109,-28.809,-46.387
1690201880.075,-79.102,-11.719,-44.434,-80.078,-125.488
1690201880.079,-36.621,-24.902,-44.922,-51.270,-111.816
1690201880.083,48.340,-32.227,-35.156,16.602,0.000
1690201880.087,48.340,-45.898,-32.227,23.926,19.043
1690201880.091,-41.992,-48.340,-30.273,-29.785,-81.543
1690201880.095,-78.613,-21.973,-30.762,-81.055,-137.207
1690201880.099,-30.762,-7.812,-35.156,-56.152,129.883
1690201880.102,38.086,-12.207,-31.738,20.020,427.734
1690201880.106,42.480,-11.719,-38.574,26.367,51.758
1690201880.110,-28.809,-10.254,-38.086,-25.391,-128.906
1690201880.114,-68.359,-16.602,-32.227,-62.988,28.320
1690201880.118,-49.805,-23.438,-32.227,-54.688,-85.449
1690201880.107,15.625,-28.320,-33.691,1.953,-163.086
1690201880.111,41.504,-28.320,-40.527,31.250,-122.070
1690201880.115,-22.949,-30.273,-32.227,-18.066,-105.469
1690201880.119,-93.750,-34.180,-35.645,-79.102,-170.410
1690201880.123,-68.848,-32.227,-36.621,-64.941,-209.961
1690201880.127,8.301,-28.320,-35.156,12.207,-38.574
1690201880.131,45.410,-28.809,-33.203,45.898,105.957
1690201880.134,17.090,-26.855,-32.715,3.418,-38.574
1690201880.138,-56.152,-19.043,-27.832,-58.105,-192.871
1690201880.142,-54.688,-22.461,-23.438,-52.246,-82.031
1690201880.146,19.531,-33.691,-34.668,20.020,246.094
1690201880.150,39.551,-34.668,-46.387,45.898,123.535
1690201880.151,-10.742,-28.320,-39.551,-6.348,-148.926
1690201880.155,-60.059,-26.855,-35.645,-66.895,-185.547
1690201880.159,-74.219,-29.785,-39.551,-79.590,-94.238
1690201880.163,-17.090,-27.832,-35.156,-39.551,-21.973
1690201880.167,58.594,-24.902,-35.645,16.113,-103.516
1690201880.171,10.742,-24.902,-33.203,24.902,169.922
1690201880.175,-72.754,-34.180,-30.762,-42.480,551.758
1690201880.178,-75.195,-38.574,-37.598,-92.285,26.855
1690201880.182,-7.324,-28.320,-33.203,-25.391,-261.230
1690201880.186,55.176,-25.879,-22.461,32.715,-68.848
1690201880.190,27.344,-27.344,-19.043,10.742,-83.008
1690201880.194,-64.453,-40.527,-24.902,-56.641,-188.477
1690201880.198,-83.496,-40.039,-30.273,-77.637,-198.242
1690201880.202,-0.488,-22.949,-32.227,-27.832,-104.980
1690201880.206,47.852,-20.020,-34.668,17.578,-44.922
1690201880.210,16.602,-24.902,-37.598,20.508,-128.906
1690201880.214,-55.664,-25.391,-36.133,-41.016,-134.277
1690201880.218,-80.078,-30.762,-32.227,-83.008,244.141
1690201880.222,-32.227,-35.645,-25.879,-45.410,180.176
1690201880.225,30.273,-34.668,-24.902,14.160,-83.008
1690201880.229,38.086,-36.133,-32.227,7.812,-22.461
1690201880.233,-37.598,-37.109,-29.297,-35.156,63.965
1690201880.237,-79.102,-32.227,-20.996,-57.129,-120.117
1690201880.241,-21.973,-33.203,-30.273,-36.621,-175.293
1690201880.255,32.715,-28.809,-40.527,5.859,-43.945
1690201880.259,23.926,-17.090,-42.969,18.066,-9.277
1690201880.263,-45.898,-13.672,-39.062,-30.273,-46.875
1690201880.267,-88.867,-16.113,-35.645,-94.238,-34.668
1690201880.271,-45.410,-24.414,-38.086,-75.195,121.094
1690201880.275,32.227,-29.297,-42.480,2.930,383.301
1690201880.279,41.504,-26.855,-39.062,23.926,159.668
1690201880.282,-14.160,-31.250,-28.809,-23.438,-48.340
1690201880.286,-53.223,-35.645,-25.391,-75.195,56.641
1690201880.290,-50.781,-33.203,-29.297,-78.125,38.086
1690201880.294,14.160,-31.250,-33.203,-20.020,-175.781
1690201880.298,51.758,-28.809,-33.203,26.855,-126.465
1690201880.300,-2.441,-25.879,-31.738,-8.789,-54.688
1690201880.304,-74.707,-21.973,-24.902,-69.336,-210.938
1690201880.308,-74.707,-27.344,-27.344,-77.148,-250.977
1690201880.312,-0.488,-28.320,-36.621,-23.438,-110.352
1690201880.316,27.832,-22.949,-41.504,27.832,-10.254
1690201880.320,-9.277,-23.438,-44.434,2.930,-12.695
1690201880.324,-72.266,-20.508,-45.898,-63.477,-67.383
1690201880.327,-66.895,-20.020,-39.062,-70.312,-98.145
1690201880.331,13.672,-26.855,-33.203,-4.883,204.590
1690201880.335,36.133,-27.344,-37.598,33.203,154.297
1690201880.339,-2.441,-26.367,-43.945,0.000,-163.574
1690201880.343,-37.109,-21.973,-34.668,-55.176,-149.902
1690201880.345,-73.730,-17.090,-39.062,-88.867,-117.188
1690201880.349,-20.508,-18.555,-52.246,-48.340,-130.859
1690201880.353,50.781,-30.273,-51.270,16.113,-88.867
1690201880.357,20.020,-37.598,-44.434,15.137,117.188
1690201880.361,-41.992,-30.273,-40.039,-43.457,94.727
1690201880.365,-53.711,-22.461,-37.598,-72.266,-74.219
1690201880.369,-7.812,-21.484,-36.621,-36.621,-60.059
1690201880.372,19.043,-27.832,-32.715,28.809,120.605
1690201880.376,-5.859,-33.691,-32.715,24.414,172.363
1690201880.380,-54.199,-21.973,-40.527,-58.105,-102.051
1690201880.384,-80.566,-24.414,-38.574,-88.867,-156.738
1690201880.388,-22.461,-30.762,-24.902,-41.992,13.184
1690201880.391,46.387,-14.648,-28.809,23.438,-60.059
1690201880.395,24.902,-16.602,-30.762,28.809,-144.531
1690201880.399,-50.781,-16.602,-33.203,-35.645,-90.820
1690201880.403,-80.078,-9.277,-38.086,-81.543,-97.168
1690201880.407,-41.504,-20.020,-32.227,-50.781,-148.438
1690201880.411,33.691,-34.180,-27.832,8.301,-95.703
1690201880.415,31.738,-37.598,-24.902,13.672,83.496
1690201880.418,-38.086,-34.180,-17.090,-36.621,311.035
1690201880.422,-84.473,-22.949,-29.297,-85.938,22.461
1690201880.426,-28.320,-17.578,-35.156,-71.289,-219.727
1690201880.430,45.410,-18.555,-24.902,1.953,-130.371
1690201880.434,24.414,-28.320,-28.809,24.414,-90.820
1690201880.436,-30.762,-36.133,-25.879,-19.043,-54.199
1690201880.440,-75.195,-28.320,-21.484,-72.266,-157.227
1690201880.444,-65.430,-25.879,-26.855,-63.965,-49.316
1690201880.448,16.113,-20.508,-35.645,3.906,143.555
1690201880.452,58.594,-10.742,-30.762,30.273,0.977
1690201880.456,-8.301,-20.996,-28.320,-4.883,-76.660
1690201880.460,-77.148,-28.320,-33.203,-63.477,97.656
1690201880.463,-55.176,-25.879,-32.715,-63.965,321.777
1690201880.467,-0.977,-26.855,-34.668,-21.484,34.180
1690201880.471,25.391,-25.391,-28.320,17.090,-146.973
1690201880.475,-3.418,-21.484,-25.879,-6.836,-49.316
1690201880.479,-72.754,-18.555,-30.762,-80.566,-150.879
1690201880.483,-74.707,-15.137,-32.715,-83.984,-205.566
1690201880.487,-8.301,-13.672,-28.809,-28.320,-62.988
1690201880.491,33.691,-17.578,-29.297,14.648,41.016
1690201880.495,-2.441,-28.320,-25.391,-6.836,-37.109
1690201880.499,-63.965,-33.691,-29.785,-66.406,-134.277
1690201880.503,-58.105,-30.273,-31.738,-82.031,-8.789
1690201880.507,-3.418,-28.809,-24.414,-19.531,398.926
1690201880.510,27.832,-18.555,-25.879,27.832,255.371
1690201880.514,5.859,-26.367,-36.133,-0.488,-197.754
1690201880.518,-46.875,-35.156,-44.434,-61.035,-201.660
1690201880.522,-76.660,-20.020,-42.480,-92.285,-200.684
1690201880.526,-25.879,-14.160,-35.645,-51.758,-244.141
1690201880.540,34.668,-12.695,-30.273,15.625,-145.996
1690201880.544,15.625,-14.160,-30.273,23.926,-26.367
1690201880.548,-38.574,-23.438,-35.156,-44.922,-47.363
1690201880.552,-73.730,-22.461,-35.156,-96.680,-51.270
1690201880.556,-31.250,-23.926,-32.715,-56.152,-139.160
1690201880.560,51.270,-20.508,-38.086,23.438,84.473
1690201880.564,30.762,-26.367,-36.133,21.484,527.344
1690201880.567,-42.969,-39.062,-32.715,-52.246,150.879
1690201880.571,-80.566,-32.715,-31.738,-83.496,-206.543
1690201880.575,-42.969,-26.367,-32.715,-37.109,40.039
1690201880.579,26.855,-32.227,-34.668,19.043,33.691
1690201880.583,27.832,-44.922,-36.133,6.836,-122.070
1690201880.585,-45.410,-40.039,-35.645,-36.621,-102.539
1690201880.589,-87.402,-21.973,-39.062,-60.547,-110.840
1690201880.593,-33.691,-21.484,-33.203,-36.133,-122.559
1690201880.597,29.297,-29.785,-33.691,20.996,-112.305
1690201880.601,24.414,-32.715,-36.621,41.992,-29.785
1690201880.605,-31.738,-31.250,-36.621,-17.090,53.223
1690201880.609,-68.848,-25.391,-38.086,-85.449,-56.152
1690201880.612,-42.969,-11.230,-40.527,-78.125,-146.484
1690201880.616,25.879,-7.812,-42.969,2.930,-45.410
1690201880.620,51.758,-17.090,-35.645,52.734,321.777
1690201880.624,-9.766,-17.578,-32.227,-6.348,191.406
1690201880.628,-75.195,-11.230,-37.598,-81.055,-218.750
1690201880.630,-58.594,-25.879,-36.621,-80.078,-208.008
1690201880.634,6.836,-38.086,-31.738,3.418,-147.461
1690201880.638,31.250,-27.832,-32.715,41.504,-103.027
1690201880.642,-8.789,-15.137,-34.668,-6.348,-60.547
1690201880.646,-68.359,-23.438,-36.621,-63.965,-24.902
1690201880.650,-73.242,-30.762,-38.086,-70.801,31.738
1690201880.654,-8.789,-17.090,-38.574,-19.043,-30.273
1690201880.657,40.039,-22.949,-35.156,41.992,-76.660
1690201880.661,2.930,-37.109,-33.203,25.391,95.215
1690201880.665,-71.289,-25.879,-39.551,-60.547,175.781
1690201880.669,-91.797,-16.113,-39.062,-91.797,-101.562
1690201880.673,-20.996,-13.184,-36.133,-22.949,-158.691
1690201880.675,30.273,-20.020,-37.598,31.738,80.566
1690201880.679,12.207,-24.902,-31.738,20.996,-13.184
1690201880.683,-44.434,-14.160,-29.297,-25.879,-148.438
1690201880.687,-83.008,-14.160,-31.250,-89.844,-188.477
1690201880.691,-31.250,-19.043,-32.227,-61.035,-138.672
1690201880.695,20.996,-20.020,-34.180,-4.883,-13.672
1690201880.699,-23.438,-20.508,-34.668,-26.367,60.059
1690201880.702,-104.980,-23.438,-41.016,-87.891,81.543
1690201880.706,-112.305,-26.855,-46.387,-137.207,206.543
1690201880.710,-52.246,-18.555,-49.805,-105.469,20.508
1690201880.714,-14.648,-5.371,-41.992,-27.832,-170.898
1690201880.718,-19.531,-8.789,-37.109,-27.344,-97.168
1690201880.720,-91.797,-24.902,-43.945,-101.562,-10.742
1690201880.724,-125.488,-19.043,-46.387,-152.832,-109.375
1690201880.728,-54.199,-4.883,-42.969,-101.074,-145.508
1690201880.732,6.348,-15.625,-43.945,-14.160,194.824
1690201880.736,10.254,-29.297,-43.457,-0.977,287.109
1690201880.740,-40.039,-42.480,-38.086,-62.500,-66.406
1690201880.744,-67.871,-46.875,-31.250,-105.957,-176.758
1690201880.747,-22.949,-33.691,-32.227,-61.035,57.129
1690201880.751,48.340,-20.508,-27.832,15.625,143.066
1690201880.755,60.547,-9.766,-27.832,41.016,-82.031
1690201880.759,-9.766,-1.465,-36.621,-15.137,-131.836
1690201880.763,-49.316,-2.930,-41.504,-66.895,-94.727
1690201880.780,-44.434,-19.043,-48.828,-63.965,-128.418
1690201880.784,16.602,-34.180,-47.852,11.719,-157.227
1690201880.788,50.781,-29.785,-38.086,57.617,-34.180
1690201880.792,-13.672,-32.227,-36.133,-7.812,89.355
1690201880.796,-82.031,-22.949,-43.945,-83.496,-56.641
1690201880.800,-58.105,1.465,-47.852,-64.941,-104.492
1690201880.804,34.668,7.324,-39.551,15.137,7.812
1690201880.807,65.430,7.324,-32.227,52.734,270.996
1690201880.811,-7.812,12.207,-38.086,8.301,119.629
1690201880.815,-80.078,-8.789,-37.598,-59.570,-237.305
1690201880.819,-50.293,-27.832,-30.273,-57.129,-220.215
1690201880.823,22.949,-27.832,-30.762,-4.395,-132.324
1690201880.810,61.523,-35.156,-32.715,34.180,-106.934
1690201880.814,22.461,-37.109,-28.809,25.391,-133.789
1690201880.818,-63.477,-29.785,-20.996,-42.969,-44.434
1690201880.822,-64.941,-22.949,-20.996,-62.012,46.387
1690201880.826,9.766,-20.020,-27.344,1.953,-55.176
1690201880.830,49.316,-23.926,-33.691,47.852,11.719
1690201880.834,8.301,-23.926,-31.250,18.066,294.434
1690201880.837,-47.852,-21.973,-32.227,-47.363,189.453
1690201880.841,-61.523,-21.973,-30.762,-71.777,-126.465
1690201880.845,-5.859,-20.508,-32.227,-20.996,-172.363
1690201880.849,57.129,-15.625,-35.645,45.898,166.992
1690201880.853,35.645,-16.602,-24.414,36.621,382.812
1690201880.857,-31.738,-13.184,-28.809,-41.992,-92.773
1690201880.861,-42.480,-7.812,-36.621,-83.496,-267.090
1690201880.865,14.160,-22.949,-41.016,-43.945,-95.703
1690201880.869,56.641,-41.504,-34.668,28.809,-106.934
1690201880.873,42.969,-30.762,-29.297,46.387,-170.898
1690201880.877,-20.020,-22.461,-20.508,-10.742,-45.898
1690201880.881,-73.730,-33.203,-24.902,-85.449,181.152
1690201880.884,-43.945,-15.625,-38.574,-66.895,56.641
1690201880.888,31.250,-7.324,-32.715,11.230,-115.723
1690201880.892,27.344,-11.230,-36.133,27.832,-60.547
1690201880.896,-30.273,-5.371,-38.574,-26.367,119.629
1690201880.900,-64.453,-4.395,-31.738,-77.148,-119.141
1690201880.901,-27.344,-3.906,-34.180,-53.711,-216.797
1690201880.905,64.453,-8.301,-32.715,9.766,-2.930
1690201880.909,65.430,-10.742,-28.320,31.250,11.230
1690201880.913,-23.438,-18.555,-37.109,-20.508,-37.109
1690201880.917,-72.754,-26.367,-39.551,-73.730,-161.621
1690201880.921,-39.551,-22.949,-36.133,-57.129,18.555
1690201880.925,34.180,-21.973,-36.133,11.230,409.668
1690201880.928,41.992,-16.602,-36.133,35.645,64.941
1690201880.932,-5.859,-15.625,-34.180,-13.184,-208.008
1690201880.936,-51.270,-20.508,-22.949,-64.453,-83.984
1690201880.940,-44.434,-22.949,-23.438,-49.805,-93.750
1690201880.944,16.602,-23.926,-33.203,10.742,-147.949
1690201880.948,49.316,-24.414,-28.320,37.598,-61.035
1690201880.952,3.906,-13.672,-23.438,-11.719,52.246
1690201880.956,-45.898,-21.973,-30.762,-79.102,-62.988
1690201880.960,-43.457,-36.133,-38.086,-93.750,-171.875
1690201880.964,18.555,-26.855,-40.039,-25.391,-54.688
1690201880.968,42.969,-15.137,-36.621,39.551,298.828
1690201880.972,-15.137,-12.207,-39.551,6.836,204.102
1690201880.975,-84.473,-16.602,-44.922,-75.684,-146.973
1690201880.979,-83.984,-26.855,-35.156,-83.008,-160.645
1690201880.983,-5.371,-28.320,-32.227,-10.254,80.078
1690201880.987,34.668,-22.461,-36.133,28.320,-25.879
1690201880.991,-2.441,-31.250,-30.762,2.441,-167.969
1690201881.005,-51.758,-50.781,-37.109,-44.922,-103.516
1690201881.009,-64.453,-46.875,-41.504,-64.941,-110.352
1690201881.013,-0.977,-34.180,-37.109,-24.902,-148.438
1690201881.017,46.387,-29.297,-42.969,14.648,-101.562
1690201881.021,14.160,-28.320,-41.016,-0.488,168.457
1690201881.025,-47.852,-27.832,-39.551,-49.805,423.340
1690201881.029,-86.426,-17.578,-46.875,-84.473,27.344
1690201881.032,-31.738,-20.996,-37.598,-34.668,-233.887
1690201881.036,36.133,-29.785,-26.855,34.180,52.246
1690201881.040,18.555,-18.066,-28.809,31.250,77.637
1690201881.044,-45.898,-20.020,-34.180,-55.176,-170.898
1690201881.048,-80.078,-22.949,-46.387,-95.703,-187.500
1690201881.052,-31.250,-14.160,-41.016,-38.574,-109.863
1690201881.056,38.574,-8.789,-26.855,16.113,-122.559
1690201881.060,45.898,-15.137,-29.297,24.902,-143.066
1690201881.064,-34.668,-25.391,-40.527,-38.086,-12.207
1690201881.068,-87.402,-41.016,-37.598,-90.820,27.832
1690201881.072,-42.969,-40.039,-33.691,-53.711,-49.805
1690201881.076,30.762,-19.043,-39.062,5.371,-49.316
1690201881.079,39.551,-8.789,-29.297,14.648,-32.227
1690201881.083,-16.602,-13.672,-24.902,-24.414,210.938
1690201881.087,-68.359,-20.020,-32.715,-80.566,40.527
1690201881.091,-35.645,-31.738,-30.273,-60.059,-211.914
1690201881.095,45.410,-29.785,-26.855,12.695,-115.234
1690201881.095,42.480,-20.508,-34.180,32.715,-7.324
1690201881.099,-24.902,-19.043,-34.180,-24.414,-108.887
1690201881.103,-78.125,-26.855,-33.691,-77.148,-161.621
1690201881.107,-57.617,-37.109,-36.133,-60.059,1.465
1690201881.111,31.250,-29.297,-38.574,11.719,-40.039
1690201881.115,83.984,-24.414,-31.250,83.984,-8.301
1690201881.119,14.160,-31.250,-20.996,44.434,61.035
1690201881.122,-79.102,-25.879,-20.996,-52.246,147.949
1690201881.126,-62.988,-25.391,-32.715,-49.805,447.754
1690201881.130,15.137,-32.715,-35.156,26.367,168.945
1690201881.134,36.621,-32.227,-23.926,55.176,-148.926
1690201881.138,-5.371,-32.227,-17.090,34.668,-75.195
1690201881.142,-63.965,-35.645,-20.508,-22.461,-165.039
1690201881.146,-51.758,-38.086,-24.902,-39.551,-283.691
1690201881.150,19.043,-41.992,-23.926,27.344,-227.051
1690201881.154,57.617,-34.668,-21.973,68.848,-68.848
1690201881.158,27.832,-26.855,-29.297,41.504,-31.738
1690201881.162,-39.551,-36.621,-30.762,-22.949,-29.785
1690201881.166,-34.180,-40.527,-22.949,-42.969,-16.113
1690201881.169,22.461,-32.715,-24.902,7.324,213.379
1690201881.173,43.457,-30.762,-34.180,49.805,195.801
1690201881.177,15.625,-40.527,-34.668,29.785,-64.941
1690201881.181,-46.387,-46.875,-30.273,-42.480,-118.164
1690201881.185,-65.918,-46.875,-28.809,-76.172,-114.258
1690201881.185,-5.371,-36.621,-29.785,-32.715,-182.129
1690201881.189,67.383,-34.180,-30.762,32.227,-132.812
1690201881.193,31.250,-43.945,-27.344,24.902,-13.672
1690201881.197,-39.551,-32.227,-22.949,-31.738,0.000
1690201881.201,-77.637,-20.996,-33.691,-86.914,-114.258
1690201881.205,-23.438,-18.066,-40.039,-55.176,-107.910
1690201881.209,63.477,-18.066,-38.086,31.250,225.098
1690201881.212,77.637,-22.461,-35.156,53.711,452.637
1690201881.216,-29.297,-25.391,-48.828,-26.367,20.508
1690201881.220,-87.402,-27.344,-50.293,-83.008,-279.297
1690201881.224,-42.969,-29.297,-36.133,-45.898,-81.543
1690201881.228,22.461,-22.461,-39.062,14.648,-42.969
1690201881.232,47.363,-19.531,-35.156,28.809,-152.832
1690201881.236,-20.508,-36.621,-32.227,-27.344,-145.508
1690201881.240,-83.008,-40.039,-41.992,-83.496,-22.461
1690201881.244,-52.734,-32.715,-41.992,-66.895,-107.910
1690201881.248,41.504,-21.484,-40.039,0.977,-181.152
1690201881.252,57.617,-21.973,-36.621,34.180,-21.973
1690201881.256,-22.461,-25.879,-30.273,-5.371,256.348
1690201881.259,-78.613,-29.785,-30.762,-90.332,50.293
1690201881.263,-66.895,-37.598,-35.645,-88.867,-185.547
1690201881.267,-6.836,-32.227,-31.250,-9.277,-81.055
1690201881.271,27.832,-24.414,-35.156,26.367,2.930
1690201881.275,-16.602,-22.949,-36.133,-7.324,-80.078
1690201881.276,-70.312,-16.602,-31.738,-57.129,-146.484
1690201881.280,-61.523,-30.273,-46.387,-67.383,16.602
1690201881.284,6.836,-41.992,-48.828,-8.789,111.328
1690201881.288,53.711,-37.598,-41.504,42.969,66.895
1690201881.292,-0.977,-25.391,-36.621,0.977,-75.195
1690201881.296,-63.477,-19.043,-28.809,-63.965,88.379
1690201881.300,-34.668,-39.062,-26.367,-65.918,380.859
1690201881.303,14.648,-45.410,-34.668,-19.531,18.555
1690201881.307,20.508,-32.715,-37.598,19.531,-183.105
1690201881.311,-10.742,-22.949,-33.691,-4.395,12.207
1690201881.315,-68.359,-20.508,-28.809,-79.590,-111.816
1690201881.319,-65.918,-20.020,-30.762,-93.750,-258.301
1690201881.335,-3.418,-18.555,-31.738,-30.273,-175.293
1690201881.339,40.039,-18.555,-37.109,12.207,-62.988
1690201881.343,26.855,-16.602,-40.039,5.859,-84.961
1690201881.347,-22.949,-32.227,-30.762,-27.344,-155.273
1690201881.351,-60.059,-58.594,-29.785,-69.824,-42.480
1690201881.355,-42.480,-61.523,-32.227,-38.086,321.777
1690201881.359,20.996,-35.645,-41.016,22.949,224.609
1690201881.362,3.906,-23.438,-48.340,7.812,-152.344
1690201881.366,-62.500,-30.273,-45.410,-50.293,-135.742
1690201881.370,-80.566,-34.668,-45.898,-78.125,62.012
1690201881.374,-36.133,-30.762,-43.945,-48.828,-123.047
1690201881.378,39.062,-24.414,-38.574,21.484,-184.570
1690201881.380,20.996,-14.160,-41.992,19.531,-25.879
1690201881.384,-50.781,-17.090,-41.504,-41.016,-41.992
1690201881.388,-66.895,-30.273,-36.621,-76.172,-127.930
1690201881.392,-16.113,-27.832,-40.039,-52.246,-70.801
1690201881.396,39.551,-26.367,-35.645,18.555,118.652
1690201881.400,43.457,-27.344,-34.180,28.320,177.246
1690201881.404,-33.203,-25.391,-45.410,-33.691,-33.691
1690201881.407,-85.449,-33.691,-51.758,-85.938,-131.836
1690201881.411,-32.715,-46.875,-48.828,-62.012,31.250
1690201881.415,38.086,-38.574,-41.016,22.461,298.828
1690201881.419,21.484,-27.344,-38.574,35.645,14.648
1690201881.423,-43.457,-25.391,-38.086,-14.648,-179.199
1690201881.425,-68.359,-20.020,-35.156,-66.895,-118.652
1690201881.429,-62.988,-14.648,-42.969,-71.289,-166.992
1690201881.433,4.883,-11.230,-39.551,4.395,-152.344
1690201881.437,55.664,-24.902,-20.020,44.922,-59.082
1690201881.441,-10.254,-31.738,-28.320,-7.324,-36.621
1690201881.445,-76.172,-18.066,-34.668,-71.289,-68.848
1690201881.449,-51.270,-23.438,-30.762,-72.754,-41.992
1690201881.452,20.996,-35.156,-29.785,6.836,-1.465
1690201881.456,49.805,-26.367,-28.809,62.012,364.258
1690201881.460,1.465,-17.578,-28.320,16.113,218.750
1690201881.464,-60.547,-31.738,-23.438,-65.430,-190.918
1690201881.468,-66.895,-32.227,-28.809,-81.055,-177.246
1690201881.470,8.301,-23.926,-36.133,-11.230,-96.191
1690201881.474,41.992,-22.461,-32.715,31.250,-128.418
1690201881.478,8.301,-22.461,-36.621,2.930,-127.930
1690201881.482,-56.152,-19.043,-32.715,-52.246,91.797
1690201881.486,-85.449,-12.695,-26.367,-84.473,51.270
1690201881.490,-12.207,-12.695,-26.367,-30.273,-63.965
1690201881.494,40.527,-19.043,-24.902,30.273,-14.648
1690201881.497,3.906,-22.461,-19.043,12.695,139.160
1690201881.501,-69.824,-27.832,-28.809,-51.270,155.273
1690201881.505,-87.402,-29.785,-38.574,-93.262,-191.406
1690201881.509,-20.996,-24.414,-33.691,-43.457,-202.148
1690201881.513,47.363,-19.531,-37.109,24.902,25.391
1690201881.516,26.855,-18.555,-33.691,20.508,-66.406
1690201881.520,-47.363,-18.555,-26.855,-51.758,-204.102
1690201881.524,-72.266,-22.949,-29.297,-80.566,-158.691
1690201881.528,-12.207,-21.973,-25.391,-30.762,-74.707
1690201881.532,49.316,-13.672,-22.461,35.645,-39.551
1690201881.536,25.391,-18.555,-28.320,37.598,6.348
1690201881.540,-39.551,-26.367,-34.668,-24.414,63.477
1690201881.543,-73.730,-26.367,-33.691,-64.453,279.785
1690201881.547,-24.414,-25.879,-36.621,-43.945,50.293
1690201881.551,39.062,-28.809,-33.691,1.465,-200.195
1690201881.555,10.254,-23.438,-29.297,15.137,-85.938
1690201881.559,-55.176,-14.648,-36.133,-36.133,-116.211
1690201881.561,-77.148,-16.602,-30.762,-76.660,-163.574
1690201881.565,-25.879,-29.297,-19.531,-50.293,-90.332
1690201881.569,44.434,-39.551,-28.809,16.113,36.133
1690201881.573,45.898,-32.227,-36.133,39.551,190.430
1690201881.577,-24.902,-12.207,-34.668,-10.254,24.414
1690201881.581,-76.660,-14.648,-43.457,-54.199,-102.539
1690201881.585,-52.734,-24.902,-44.922,-37.109,166.992
1690201881.588,21.484,-14.648,-34.668,30.273,393.555
1690201881.592,39.062,-8.789,-39.062,52.734,54.688
1690201881.596,-8.301,-31.738,-38.574,13.672,-184.082
1690201881.600,-58.105,-42.480,-23.926,-52.734,-149.902
1690201881.604,-66.406,-34.668,-24.902,-73.730,-206.543
1690201881.607,-12.207,-23.438,-43.945,-11.719,-186.523
1690201881.611,39.062,-18.555,-46.387,42.480,-38.086
1690201881.615,5.859,-29.297,-41.016,12.207,-15.137
1690201881.619,-70.801,-26.855,-38.086,-54.199,-123.535
1690201881.623,-78.613,-21.484,-38.086,-63.965,-139.648
1690201881.627,-6.836,-32.227,-42.480,-0.977,-6.348
1690201881.631,38.086,-23.438,-40.039,55.176,427.734
1690201881.634,-4.883,-9.766,-33.691,19.043,308.105
1690201881.638,-78.613,-20.020,-33.691,-52.246,-182.129
1690201881.642,-85.938,-28.320,-36.621,-75.684,-195.801
1690201881.646,-0.977,-34.180,-48.340,-17.578,-147.949
1690201881.650,47.363,-35.645,-42.480,59.082,-146.973
1690201881.650,-6.836,-31.250,-27.832,44.922,-90.332
1690201881.654,-81.055,-26.855,-23.438,-15.625,-111.816
1690201881.658,-90.332,-20.996,-34.668,-67.871,-122.070
1690201881.662,-21.484,-15.625,-42.969,-30.762,5.859
1690201881.666,33.691,-24.414,-35.645,32.715,-57.617
1690201881.670,15.137,-26.855,-31.738,30.273,231.445
1690201881.674,-56.152,-23.926,-38.086,-29.297,447.266
1690201881.677,-100.098,-26.367,-35.645,-88.379,-9.766
1690201881.681,-30.273,-24.902,-24.902,-47.363,-231.934
1690201881.685,37.109,-23.438,-18.555,34.668,47.852
1690201881.689,12.695,-15.625,-24.902,31.738,122.559
1690201881.693,-45.410,-14.648,-27.832,-36.621,-141.113
1690201881.710,-76.172,-27.832,-26.855,-86.426,-185.059
1690201881.714,-37.598,-29.785,-24.414,-60.547,-97.656
1690201881.718,22.461,-29.785,-18.555,16.113,-74.707
1690201881.722,28.320,-32.227,-25.879,41.016,-93.262
1690201881.726,-36.621,-32.227,-37.598,-25.879,-71.777
1690201881.730,-89.355,-33.203,-28.320,-73.242,105.957
1690201881.734,-51.758,-26.855,-18.555,-47.363,53.711
1690201881.737,29.785,-25.391,-24.414,16.602,-86.426
1690201881.741,47.363,-21.973,-23.926,44.434,-31.738
1690201881.745,-8.789,-28.320,-24.902,3.418,296.875
1690201881.749,-66.895,-33.691,-36.621,-68.848,44.922
1690201881.753,-40.039,-25.879,-43.945,-68.848,-271.484
1690201881.755,39.551,-39.551,-35.645,4.883,-142.090
1690201881.759,49.316,-44.434,-22.949,46.387,-73.242
1690201881.763,-19.043,-29.297,-31.738,-12.207,-123.047
1690201881.767,-77.637,-22.461,-38.086,-79.102,-126.953
1690201881.771,-43.457,-15.137,-33.691,-77.148,-20.996
1690201881.775,28.320,-10.254,-31.738,1.465,144.531
1690201881.779,56.641,-9.277,-32.227,58.594,85.938
1690201881.782,6.348,-7.324,-39.062,0.000,-69.824
1690201881.786,-59.570,-11.230,-36.621,-64.941,-20.020
1690201881.790,-59.082,-32.715,-40.527,-66.406,-49.316
1690201881.794,19.043,-34.180,-45.410,-7.812,-201.172
1690201881.798,50.781,-23.926,-41.016,49.316,-95.215
1690201881.800,-19.043,-27.344,-34.668,24.902,177.246
1690201881.804,-72.754,-26.367,-40.039,-49.316,82.031
1690201881.808,-76.172,-32.715,-54.199,-78.125,-181.152
1690201881.812,4.883,-39.062,-52.734,-20.508,-106.445
1690201881.816,65.430,-28.320,-42.969,34.180,-5.371
1690201881.820,13.672,-19.531,-34.180,15.625,5.371
1690201881.824,-45.410,-20.020,-26.367,-48.828,-51.758
1690201881.827,-67.383,-22.461,-29.297,-73.730,-73.242
1690201881.831,-10.254,-14.160,-26.855,-11.719,197.266
1690201881.835,49.316,-12.207,-27.832,44.922,62.012
1690201881.839,21.973,-13.672,-33.691,31.250,-161.621
1690201881.843,-41.992,-10.254,-30.762,-38.086,-142.578
1690201881.846,-61.523,-13.672,-35.156,-73.730,-203.613
1690201881.850,1.465,-18.555,-39.062,-23.438,-165.527
1690201881.854,59.570,-19.531,-34.668,44.922,-53.711
1690201881.858,36.133,-26.855,-37.598,48.340,166.016
1690201881.862,-34.668,-23.926,-37.109,-25.391,247.070
1690201881.866,-55.664,-16.602,-35.156,-75.684,-50.293
1690201881.870,-10.742,-31.250,-30.762,-31.250,-154.785
1690201881.873,39.062,-46.387,-26.855,47.852,89.844
1690201881.877,42.480,-40.039,-29.297,59.570,201.172
1690201881.881,-19.531,-29.785,-31.738,-28.320,-120.117
1690201881.885,-58.105,-20.508,-38.086,-88.379,-222.656
1690201881.889,-38.086,-11.719,-38.086,-59.082,-148.438
1690201881.892,10.742,-19.531,-33.203,11.719,-146.973
1690201881.896,20.508,-20.020,-33.203,41.016,-155.762
1690201881.900,-36.621,-7.812,-30.273,-8.301,-84.961
1690201881.904,-81.543,-12.695,-34.180,-66.406,0.488
1690201881.908,-45.410,-20.508,-40.527,-47.363,-27.344
1690201881.912,33.691,-12.695,-38.574,26.367,-22.461
1690201881.916,62.500,-16.602,-31.250,58.594,-0.488
1690201881.919,-9.766,-37.598,-33.691,17.090,248.047
1690201881.923,-78.613,-29.297,-35.156,-46.387,123.047
1690201881.927,-36.621,-13.184,-23.926,-41.992,-208.008
1690201881.931,32.227,-24.414,-22.461,13.184,-189.453
1690201881.935,46.387,-29.785,-28.320,46.875,-106.934
1690201881.935,-9.277,-16.113,-28.809,18.066,-139.648
1690201881.939,-82.031,-22.461,-33.203,-45.410,-195.312
1690201881.943,-59.570,-26.367,-35.156,-50.293,-53.223
1690201881.947,16.113,-18.555,-30.273,13.184,21.973
1690201881.951,45.410,-19.043,-34.668,54.199,-45.410
1690201881.955,8.301,-21.484,-40.527,29.785,-34.668
1690201881.959,-57.617,-22.949,-33.203,-33.691,171.387
1690201881.962,-63.965,-18.066,-29.785,-58.105,502.441
1690201881.966,6.836,-25.391,-33.203,-8.301,239.746
1690201881.970,43.457,-29.785,-31.250,47.363,-79.590
1690201881.974,13.672,-28.809,-36.621,34.180,-84.473
1690201881.978,-57.129,-28.320,-43.457,-33.691,-198.242
1690201881.982,-84.961,-24.902,-39.551,-70.801,-248.535
1690201881.986,-11.719,-26.367,-35.645,-31.738,-178.223
1690201881.990,46.875,-25.391,-39.062,61.523,-47.852
1690201881.994,15.625,-32.227,-33.203,67.383,-28.320
1690201881.998,-53.711,-33.691,-25.391,-17.578,-136.719
1690201882.002,-61.035,-30.273,-17.578,-42.480,10.742
1690201882.006,-17.578,-36.621,-21.484,13.184,354.492
1690201882.009,32.715,-28.320,-26.367,61.035,95.215
1690201882.013,28.809,-25.391,-24.414,65.918,-120.117
1690201882.017,-56.641,-36.621,-27.832,0.000,-87.402
1690201882.021,-66.406,-33.691,-35.645,-40.039,-90.332
1690201882.025,16.113,-31.738,-33.203,26.367,-114.258
1690201882.025,41.016,-34.668,-20.020,73.730,-134.277
1690201882.029,15.625,-34.180,-15.137,68.848,-4.395
1690201882.033,-42.969,-31.250,-21.484,8.789,104.492
1690201882.037,-92.285,-26.855,-22.461,-41.016,-22.461
1690201882.041,-42.969,-37.598,-22.949,-13.184,-208.984
1690201882.045,35.156,-43.457,-11.719,54.688,57.617
1690201882.049,39.062,-47.852,-4.395,70.312,538.574
1690201882.052,-21.973,-37.109,-12.695,10.742,43.457
1690201882.056,-82.031,-32.227,-19.531,-50.293,-294.434
1690201882.060,-54.688,-46.387,-23.926,-38.086,-79.590
1690201882.064,8.789,-44.434,-22.949,32.715,-93.262
1690201882.068,15.625,-34.668,-23.926,54.199,-111.816
1690201882.073,-25.879,-33.203,-20.508,14.648,21.484
1690201882.077,-72.266,-30.762,-20.996,-37.598,29.785
1690201882.081,-57.617,-33.203,-27.832,-43.457,-139.648
1690201882.085,27.344,-44.434,-29.297,16.113,-178.711
1690201882.089,72.266,-48.828,-29.297,61.035,-87.891
1690201882.093,1.465,-44.922,-21.973,38.574,88.379
1690201882.097,-80.566,-37.598,-19.043,-42.480,45.898
1690201882.100,-72.266,-19.531,-29.785,-54.688,-174.316
1690201882.104,16.602,-20.508,-28.320,25.391,-103.516
1690201882.108,51.758,-36.621,-20.508,72.754,260.254
1690201882.112,-1.465,-44.434,-28.809,20.020,21.973
1690201882.116,-59.082,-32.715,-27.832,-50.293,-244.629
1690201882.146,-52.734,-22.461,-25.391,-54.199,-135.742
1690201882.150,17.090,-20.020,-24.414,7.812,-94.727
1690201882.154,65.430,-12.695,-16.602,59.570,-70.312
1690201882.158,30.273,-11.230,-21.484,43.457,-79.590
1690201882.162,-38.086,-15.625,-34.180,-21.484,19.531
1690201882.166,-41.504,-21.973,-29.785,-29.297,435.547
1690201882.170,7.812,-28.809,-29.297,17.578,206.055
1690201882.173,58.594,-33.691,-32.227,55.176,-159.180
1690201882.177,40.039,-33.203,-29.297,54.199,42.969
1690201882.181,-39.551,-33.691,-30.762,-8.301,-12.695
1690201882.185,-63.965,-27.832,-36.621,-40.527,-285.645
1690201882.189,-8.301,-29.785,-40.039,-3.418,-237.793
1690201882.175,40.527,-36.621,-36.621,37.109,-40.039
1690201882.179,38.574,-27.832,-34.180,23.926,-36.621
1690201882.183,-34.180,-21.484,-35.156,-37.598,-194.336
1690201882.187,-81.055,-36.621,-34.668,-75.684,-206.055
1690201882.191,-32.715,-33.691,-34.180,-30.762,-73.730
1690201882.195,45.410,-20.996,-34.180,49.316,11.719
1690201882.199,60.059,-13.672,-29.297,52.246,71.289
1690201882.202,-11.230,-20.996,-32.715,-9.766,86.426
1690201882.206,-81.055,-35.156,-35.645,-68.848,-32.715
1690201882.210,-56.641,-29.785,-37.109,-53.711,-135.254
1690201882.214,35.156,-19.043,-41.504,25.391,-145.996
1690201882.218,45.898,-15.625,-37.109,50.781,-19.043
1690201882.220,-17.090,-18.066,-34.668,-3.906,272.949
1690201882.224,-62.012,-23.926,-39.551,-55.664,57.617
1690201882.228,-28.320,-18.066,-39.551,-35.156,-172.852
1690201882.232,48.828,-20.996,-36.133,28.809,79.102
1690201882.236,49.805,-33.691,-35.156,58.594,146.973
1690201882.240,-17.578,-27.344,-38.086,11.719,-48.340
1690201882.244,-62.500,-22.949,-38.574,-55.176,-123.535
1690201882.247,-40.527,-17.578,-39.551,-39.062,118.164
1690201882.251,-2.930,-19.531,-40.527,38.086,343.750
1690201882.255,19.043,-16.602,-42.969,44.922,-4.883
1690201882.259,-18.066,-12.207,-41.016,0.977,-205.078
1690201882.263,-78.613,-22.461,-33.691,-49.805,-122.559
1690201882.267,-65.430,-23.926,-35.156,-60.547,-164.551
1690201882.271,0.977,-24.414,-38.086,-0.488,-177.734
1690201882.275,31.250,-28.320,-38.574,54.688,-104.004
1690201882.279,-14.648,-24.414,-34.668,20.508,-64.941
1690201882.283,-83.984,-20.020,-31.738,-65.918,-157.227
1690201882.287,-85.938,-20.020,-33.691,-74.707,-150.391
1690201882.291,-13.672,-24.414,-38.086,-5.859,35.645
1690201882.294,40.527,-25.879,-35.645,53.711,288.574
1690201882.298,15.137,-28.320,-32.715,24.414,87.402
1690201882.302,-55.176,-29.297,-35.156,-36.621,-171.387
1690201882.306,-75.195,-27.832,-39.551,-61.523,-89.844
1690201882.310,-1.953,-35.156,-40.039,-14.160,-20.508
1690201882.310,50.293,-36.621,-33.691,37.598,-70.801
1690201882.314,6.836,-33.203,-26.367,17.090,-114.258
1690201882.318,-68.359,-30.762,-30.762,-38.086,-52.734
1690201882.322,-82.031,-29.785,-29.785,-65.918,-36.621
1690201882.326,-21.973,-29.785,-36.133,-37.598,-69.336
1690201882.330,31.250,-31.738,-46.875,30.762,13.184
1690201882.334,23.438,-23.438,-43.945,50.781,158.203
1690201882.337,-37.598,-18.555,-34.180,-21.973,356.445
1690201882.341,-74.219,-26.855,-24.414,-93.262,47.363
1690201882.345,-33.203,-29.785,-34.668,-39.062,-197.266
1690201882.349,29.785,-29.297,-37.109,37.598,-116.211
1690201882.353,24.902,-27.832,-38.574,41.992,-113.281
1690201882.358,-26.367,-27.832,-40.527,-15.625,-109.863
1690201882.362,-61.523,-26.855,-34.180,-69.336,-98.145
1690201882.366,-22.949,-22.949,-33.691,-36.133,32.715
1690201882.370,39.551,-17.090,-32.715,32.227,8.301
1690201882.374,48.340,-13.184,-34.180,49.805,-103.516
1690201882.378,-13.184,-17.090,-30.273,-20.996,53.711
1690201882.382,-59.082,-20.996,-28.809,-70.312,325.684
1690201882.385,-19.531,-20.020,-34.180,-36.621,53.711
1690201882.389,48.340,-23.926,-26.855,30.762,-186.035
1690201882.393,32.227,-31.250,-22.949,42.969,-56.641
1690201882.397,-36.621,-39.551,-22.461,3.906,-49.805
1690201882.401,-78.125,-40.039,-28.809,-59.082,-192.383
1690201882.415,-63.965,-34.180,-36.621,-67.871,-232.910
1690201882.419,26.367,-28.809,-31.738,15.137,-151.367
1690201882.423,56.641,-23.926,-35.156,54.688,-39.062
1690201882.427,-21.973,-22.949,-40.039,-5.371,26.367
1690201882.431,-81.055,-26.367,-35.645,-74.707,-76.660
1690201882.435,-62.500,-25.879,-29.785,-56.641,61.523
1690201882.439,13.184,-26.367,-24.414,27.832,469.727
1690201882.442,50.293,-34.180,-31.250,63.477,279.297
1690201882.446,-5.859,-39.551,-38.086,23.926,-81.055
1690201882.450,-80.078,-33.691,-30.273,-45.410,-91.309
1690201882.454,-68.848,-25.879,-23.926,-71.289,-171.387
1690201882.458,4.883,-29.297,-34.668,-2.930,-200.684
1690201882.460,37.598,-18.555,-37.598,46.387,-122.559
1690201882.464,5.859,-16.602,-30.273,28.320,-69.336
1690201882.468,-62.500,-31.250,-30.273,-35.645,-169.434
1690201882.472,-67.383,-32.715,-33.203,-68.359,-268.555
1690201882.476,-1.953,-30.762,-30.762,-1.465,-187.012
1690201882.480,45.410,-20.996,-28.809,56.152,-17.090
1690201882.484,14.160,-17.090,-33.203,20.508,45.410
1690201882.487,-45.410,-17.578,-27.832,-35.645,12.695
1690201882.491,-41.992,-17.578,-22.949,-57.617,-62.988
1690201882.495,-2.930,-29.297,-28.809,-4.883,254.883
1690201882.499,36.133,-28.320,-32.227,41.992,177.734
1690201882.503,25.879,-20.020,-31.250,35.156,-173.828
1690201882.505,-40.527,-26.855,-33.203,-9.766,-122.070
1690201882.509,-71.777,-24.902,-30.762,-57.129,-135.742
1690201882.513,-1.465,-20.996,-29.297,-7.324,-184.082
1690201882.517,73.730,-21.973,-26.855,46.387,-68.848
1690201882.521,30.762,-26.855,-24.414,31.738,94.727
1690201882.525,-56.152,-31.250,-33.203,-20.508,162.109
1690201882.529,-86.914,-31.250,-33.203,-76.172,20.508
1690201882.532,-36.621,-29.297,-24.414,-47.363,-90.820
1690201882.536,42.969,-21.973,-24.414,29.297,174.805
1690201882.540,48.828,-18.066,-21.973,53.223,395.020
1690201882.544,-3.418,-23.438,-22.949,4.883,6.348
1690201882.548,-49.316,-18.066,-34.668,-48.340,-220.703
1690201882.565,-50.293,-14.160,-36.621,-68.359,-132.812
1690201882.569,19.531,-15.625,-40.039,-11.719,-124.512
1690201882.573,31.738,-12.695,-44.434,22.949,-110.840
1690201882.577,-35.156,-14.160,-43.945,-28.809,-105.469
1690201882.581,-93.750,-14.160,-47.363,-104.004,-91.309
1690201882.585,-83.008,-14.160,-47.852,-110.352,-28.809
1690201882.589,1.953,-8.789,-46.875,-25.391,10.742
1690201882.592,36.621,-17.090,-46.875,19.531,53.711
1690201882.596,-15.625,-20.996,-40.527,-11.719,240.234
1690201882.600,-72.754,-15.625,-37.598,-78.125,12.695
1690201882.604,-49.316,-11.230,-35.645,-80.566,-154.297
1690201882.608,38.086,-14.160,-34.668,-2.441,-70.801
1690201882.595,67.383,-18.555,-30.273,44.434,-10.254
1690201882.599,5.859,-13.672,-34.668,10.742,-75.684
1690201882.603,-50.293,-15.137,-42.969,-44.922,-208.496
1690201882.607,-42.969,-20.020,-35.156,-56.152,-62.988
1690201882.611,13.184,-24.414,-35.645,8.789,44.434
1690201882.615,46.387,-23.438,-41.504,48.828,46.387
1690201882.619,6.348,-31.250,-42.480,15.625,98.633
1690201882.622,-69.824,-36.133,-44.434,-52.246,56.152
1690201882.626,-80.078,-39.062,-40.039,-82.031,-99.609
1690201882.630,-5.859,-32.227,-38.086,-27.344,-183.105
1690201882.634,35.645,-18.555,-33.691,33.691,-113.281
1690201882.638,15.625,-13.672,-29.297,23.438,171.387
1690201882.643,-53.223,-18.066,-29.297,-38.574,198.242
1690201882.647,-72.754,-22.949,-33.203,-82.031,-102.539
1690201882.651,-8.301,-18.066,-33.691,-35.645,-116.211
1690201882.655,52.246,-14.160,-37.109,43.457,72.266
1690201882.659,32.227,-20.020,-38.574,41.016,-5.859
1690201882.663,-43.945,-20.508,-39.062,-38.086,-118.652
1690201882.667,-70.312,-15.137,-40.039,-75.195,-64.453
1690201882.670,-18.555,-17.090,-24.902,-12.207,191.895
1690201882.674,44.922,-16.113,-30.762,44.434,84.961
1690201882.678,42.480,-16.113,-36.133,45.898,-99.121
1690201882.682,-43.945,-30.762,-35.156,-27.344,-87.402
1690201882.686,-91.797,-31.738,-36.621,-83.008,-165.039
1690201882.685,-40.527,-20.508,-38.086,-49.316,-203.125
1690201882.689,27.832,-18.555,-39.551,18.066,-185.547
1690201882.693,41.504,-20.996,-34.180,46.387,-56.641
1690201882.697,-23.926,-17.090,-35.156,-10.254,16.602
1690201882.701,-72.754,-18.066,-35.645,-68.359,-66.406
1690201882.705,-6.348,-27.344,-26.367,-30.762,-56.641
1690201882.709,57.617,-27.344,-21.484,39.551,138.672
1690201882.712,50.293,-13.184,-25.879,72.754,415.039
1690201882.716,-9.277,-6.348,-31.738,17.090,139.648
1690201882.720,-56.152,-8.789,-32.227,-54.688,-243.652
1690201882.724,-22.949,-14.160,-33.203,-37.109,-208.984
1690201882.728,47.852,-18.066,-36.133,22.461,-163.574
1690201882.732,58.105,-17.578,-37.109,52.246,-108.398
1690201882.736,-24.902,-18.555,-39.551,-1.465,-83.496
1690201882.740,-87.402,-29.297,-38.086,-69.824,-91.309
1690201882.744,-58.594,-29.785,-43.457,-57.129,-165.527
1690201882.748,5.371,-27.344,-32.227,14.648,-176.758
1690201882.752,40.527,-27.832,-23.926,50.781,24.414
1690201882.756,-7.324,-31.738,-30.762,14.648,364.258
1690201882.759,-89.355,-29.297,-35.156,-59.082,117.676
1690201882.763,-86.426,-21.484,-32.715,-72.266,-229.492
1690201882.767,0.977,-26.855,-27.832,4.395,-92.285
1690201882.771,54.688,-26.855,-31.250,68.848,180.176
1690201882.775,17.578,-21.973,-37.598,36.621,-5.859
1690201882.790,-61.523,-22.461,-41.504,-40.527,-212.891
1690201882.794,-83.496,-24.902,-37.598,-68.848,-148.438
1690201882.798,-4.395,-40.039,-38.086,-10.742,-10.254
1690201882.802,45.898,-35.645,-36.133,44.922,30.762
1690201882.806,2.441,-19.531,-33.203,22.949,-48.340
1690201882.810,-68.359,-13.672,-37.109,-23.926,153.809
1690201882.814,-84.961,-21.484,-37.598,-39.062,444.824
1690201882.817,-17.578,-35.156,-42.969,-4.883,95.215
1690201882.821,43.945,-34.180,-43.945,55.176,-68.848
1690201882.825,33.691,-34.180,-43.457,62.012,109.375
1690201882.829,-34.668,-18.555,-42.480,1.465,-35.156
1690201882.833,-45.410,-5.371,-41.504,-53.223,-293.457
1690201882.835,14.160,-29.785,-35.156,9.766,-253.906
1690201882.839,51.270,-57.129,-38.574,84.961,-101.562
1690201882.843,31.738,-51.758,-42.480,66.406,-92.285
1690201882.847,-24.414,-19.043,-35.156,13.184,-170.410
1690201882.851,-63.477,-9.766,-34.180,-23.438,-150.391
1690201882.855,-28.320,-39.062,-51.758,3.906,95.215
1690201882.859,38.086,-46.875,-66.406,70.801,122.559
1690201882.862,26.367,-30.273,-67.871,88.867,-47.363
1690201882.866,-25.391,-15.137,-41.992,27.832,-83.496
1690201882.870,-65.918,-8.301,-26.367,-13.184,136.719
1690201882.874,-42.480,-3.906,-30.762,-15.625,61.523
1690201882.878,35.645,-1.953,-20.508,36.621,-145.996
1690201882.880,47.852,-7.324,-17.090,62.500,-96.191
1690201882.884,-16.602,-20.508,-32.227,23.438,-34.180
1690201882.888,-63.965,-23.438,-34.180,-32.715,-147.949
1690201882.892,-44.434,-22.461,-28.320,-45.410,-211.426
1690201882.896,37.598,-18.066,-27.832,28.809,-62.012
1690201882.900,69.824,-9.277,-30.273,82.031,96.680
1690201882.904,-0.488,-13.184,-36.133,32.715,-71.289
1690201882.907,-71.777,-20.508,-41.016,-49.805,-206.543
1690201882.911,-57.129,-20.996,-39.551,-33.203,-22.949
1690201882.915,16.113,-19.043,-35.156,55.664,109.863
1690201882.919,55.664,-16.113,-38.574,82.520,-113.770
1690201882.923,0.488,-17.578,-32.715,47.852,-163.086
1690201882.940,-57.617,-20.020,-22.949,-10.254,-94.727
1690201882.944,-45.410,-15.137,-23.926,-26.367,-66.895
1690201882.948,9.766,-10.254,-26.367,29.297,-110.840
1690201882.952,43.945,-19.043,-25.391,84.473,-67.871
1690201882.956,6.836,-24.902,-28.320,54.688,49.805
1690201882.960,-69.824,-24.414,-32.227,-25.391,-55.176
1690201882.964,-72.266,-25.879,-32.715,-39.551,-125.977
1690201882.967,9.277,-24.902,-30.273,18.066,-75.684
1690201882.971,63.477,-22.461,-24.414,86.426,239.746
1690201882.975,26.367,-18.555,-29.297,62.500,78.613
1690201882.979,-39.062,-11.230,-36.133,-27.832,-271.484
1690201882.983,-53.711,-18.066,-41.016,-51.270,-243.164
1690201882.970,-1.465,-29.297,-39.551,-13.672,-153.809
1690201882.974,48.340,-26.855,-27.832,43.945,-126.465
1690201882.978,29.297,-20.996,-24.902,37.109,-114.258
1690201882.982,-39.551,-14.160,-27.832,-31.250,73.242
1690201882.986,-70.801,-17.578,-29.297,-70.312,132.812
1690201882.990,-9.766,-17.578,-30.273,-36.621,-35.645
1690201882.994,51.758,-13.672,-26.855,40.527,-28.320
1690201882.997,33.203,-18.555,-26.855,40.039,104.980
1690201883.001,-40.039,-22.949,-31.738,-29.785,45.410
1690201883.005,-68.848,-28.320,-30.762,-70.801,-156.250
1690201883.009,-26.855,-29.297,-26.855,-36.621,-206.055
1690201883.013,32.715,-28.320,-27.832,32.715,94.727
1690201883.017,43.945,-31.738,-30.273,48.828,217.285
1690201883.021,-19.531,-27.344,-23.438,-6.348,-66.895
1690201883.025,-62.012,-24.902,-26.855,-57.129,-207.520
1690201883.029,-39.062,-35.156,-33.691,-47.363,-105.469
1690201883.033,20.996,-32.715,-32.227,16.602,-40.039
1690201883.037,42.480,-19.043,-33.691,50.293,36.621
1690201883.041,-10.742,-19.531,-34.668,7.324,53.711
1690201883.044,-45.898,-25.391,-34.668,-38.086,276.855
1690201883.048,-46.387,-28.320,-34.668,-46.387,186.035
1690201883.052,3.418,-28.809,-35.645,-14.160,-123.047
1690201883.056,21.973,-25.391,-36.133,24.414,-91.309
1690201883.060,-33.203,-24.414,-30.273,-3.418,-109.863
1690201883.060,-83.984,-31.738,-24.902,-58.594,-234.375
1690201883.064,-50.293,-37.598,-28.320,-56.641,-254.395
1690201883.068,30.273,-29.297,-38.086,9.277,-114.746
1690201883.072,36.621,-28.809,-39.551,52.734,41.016
1690201883.076,-22.949,-27.344,-38.574,19.043,11.230
1690201883.080,-74.219,-19.531,-45.898,-54.199,-122.559
1690201883.084,-56.641,-26.367,-49.316,-60.059,32.227
1690201883.087,11.719,-37.598,-48.828,-0.977,385.254
1690201883.091,34.668,-39.062,-47.363,40.527,206.055
1690201883.095,1.465,-33.203,-45.898,26.367,-106.934
1690201883.099,-41.992,-23.438,-54.199,-49.316,-49.316
1690201883.103,-61.035,-21.484,-53.711,-68.848,-60.547
1690201883.107,-13.184,-20.996,-48.340,-8.789,-101.562
1690201883.111,43.945,-27.344,-41.016,30.273,-7.812
1690201883.115,1.953,-38.086,-20.020,0.977,34.180
1690201883.119,-69.824,-30.762,-24.902,-54.688,-37.109
1690201883.123,-63.965,-24.414,-53.711,-82.031,-162.598
1690201883.127,-1.465,-27.832,-68.359,-38.086,-35.645
1690201883.131,48.828,-21.973,-47.363,38.086,351.562
1690201883.134,15.137,-24.414,-20.508,16.113,133.789
1690201883.138,-47.852,-27.832,-31.738,-80.566,-158.691
1690201883.142,-56.641,-21.484,-30.762,-107.910,-97.168
1690201883.146,-27.344,-25.391,-32.715,-54.688,-30.273
1690201883.150,21.973,-22.461,-33.691,5.859,73.730
1690201883.151,27.832,-7.812,-4.395,8.301,-7.324
1690201883.155,-42.969,-15.137,16.113,-54.199,-76.172
1690201883.159,-62.500,-22.949,-1.953,-78.125,-50.781
1690201883.163,10.742,-20.508,-43.945,-17.578,-64.453
1690201883.167,51.758,-13.184,-52.246,18.066,-134.766
1690201883.171,31.738,-20.996,-12.207,15.625,107.910
1690201883.175,-46.875,-26.367,3.906,-10.254,437.500
1690201883.178,-97.168,-25.391,-1.465,-72.754,-26.855
1690201883.182,-39.551,-35.156,-9.277,-59.082,-267.578
1690201883.186,27.832,-36.621,-17.090,27.344,-16.602
1690201883.190,29.785,-38.574,-14.648,58.105,-32.715
1690201883.194,-21.484,-33.691,-16.113,-9.277,-200.195
1690201883.198,-74.707,-25.391,-14.648,-66.895,-177.734
1690201883.202,-47.363,-29.785,-17.090,-43.457,-31.250
1690201883.206,18.555,-37.598,-25.391,20.508,-26.855
1690201883.210,34.668,-31.250,-30.762,51.758,-118.164
1690201883.214,-12.695,-20.508,-29.297,0.488,-33.691
1690201883.218,-62.500,-27.344,-24.414,-52.734,359.375
1690201883.222,-52.246,-35.645,-28.809,-46.875,227.051
1690201883.225,28.320,-25.391,-33.691,12.695,-85.449
1690201883.229,62.988,-22.461,-33.203,52.734,-49.805
1690201883.233,-5.859,-27.832,-30.273,8.789,114.746
1690201883.237,-79.102,-29.297,-29.785,-65.430,-74.707
1690201883.241,-74.219,-27.344,-36.621,-78.125,-229.980
1690201883.255,3.906,-25.391,-23.438,-20.996,-87.402
1690201883.259,43.457,-27.344,-24.902,20.020,-37.109
1690201883.263,-1.465,-23.926,-38.574,-8.301,-46.387
1690201883.267,-53.711,-32.227,-34.668,-68.848,-16.113
1690201883.271,-37.598,-34.180,-41.992,-76.660,113.770
1690201883.275,24.902,-27.832,-32.715,3.418,380.371
1690201883.279,46.387,-28.320,-19.531,47.852,104.004
1690201883.282,1.953,-29.297,-20.020,16.602,-172.852
1690201883.286,-57.129,-27.344,-25.391,-51.758,-5.371
1690201883.290,-63.477,-24.902,-35.645,-83.496,55.664
1690201883.294,1.465,-23.926,-35.156,-45.898,-193.359
1690201883.298,51.758,-19.531,-35.156,17.578,-161.133
1690201883.300,30.273,-22.949,-41.016,33.691,-35.645
1690201883.304,-44.922,-25.391,-41.992,-37.109,-89.355
1690201883.308,-68.848,-18.066,-35.156,-84.473,-166.016
1690201883.312,-3.906,-18.066,-32.715,-26.855,-161.621
1690201883.316,54.199,-19.531,-26.367,48.828,-38.086
1690201883.320,30.762,-27.832,-27.344,36.133,0.977
1690201883.324,-34.668,-34.180,-27.832,-38.086,-87.402
1690201883.327,-66.406,-23.438,-16.113,-74.707,-73.730
1690201883.331,-22.461,-19.531,-16.113,-33.691,299.805
1690201883.335,49.316,-24.414,-28.809,26.367,218.750
1690201883.339,53.223,-37.598,-35.156,17.578,-123.535
1690201883.343,-36.133,-42.969,-28.809,-47.852,-134.766
1690201883.345,-104.004,-30.762,-32.227,-96.680,-172.363
1690201883.349,-55.664,-20.508,-39.062,-68.359,-187.012
1690201883.353,29.297,-16.602,-35.156,17.090,-99.121
1690201883.357,33.203,-16.602,-38.574,50.781,97.168
1690201883.361,-38.086,-21.973,-39.551,5.859,71.289
1690201883.365,-80.078,-26.367,-39.551,-64.941,-91.797
1690201883.369,-50.293,-27.344,-44.922,-61.523,-113.770
1690201883.372,16.602,-22.949,-46.875,11.230,37.109
1690201883.376,51.270,-14.648,-31.250,37.109,180.664
1690201883.380,-3.906,-10.742,-23.926,-21.973,-19.043
1690201883.384,-76.660,-15.625,-25.879,-97.168,-212.402
1690201883.388,-47.363,-24.902,-27.344,-77.637,-103.516
1690201883.391,29.785,-29.297,-27.832,9.277,-63.477
1690201883.395,59.082,-24.902,-25.879,38.574,-123.535
1690201883.399,-4.883,-28.809,-32.227,5.859,-79.590
1690201883.403,-80.078,-27.344,-40.527,-57.617,-71.289
1690201883.407,-54.688,-22.461,-34.180,-66.406,-130.859
1690201883.411,21.484,-27.832,-25.879,2.441,-99.121
1690201883.415,57.129,-21.973,-27.344,51.270,56.152
1690201883.418,22.949,-8.301,-37.109,26.367,305.664
1690201883.422,-47.852,-13.672,-40.527,-48.340,62.012
1690201883.426,-57.129,-28.809,-29.785,-70.312,-199.707
1690201883.430,4.395,-22.949,-19.043,-15.137,-40.527
1690201883.434,48.340,-24.414,-19.043,41.016,108.887
1690201883.435,10.742,-30.762,-22.949,21.484,48.340
1690201883.439,-67.383,-24.902,-25.391,-63.477,-114.746
1690201883.443,-62.988,-32.227,-29.297,-82.520,-76.660
1690201883.447,-1.465,-30.273,-34.180,-21.973,83.984
1690201883.451,37.598,-14.648,-27.344,33.691,-84.961
1690201883.455,26.367,-3.418,-23.438,25.879,-97.168
1690201883.459,-56.641,-7.812,-29.785,-39.551,139.160
1690201883.462,-73.730,-14.160,-37.109,-70.312,286.133
1690201883.466,-10.742,-16.602,-45.410,-32.227,-47.363
1690201883.470,50.781,-22.949,-42.969,27.832,-166.504
1690201883.474,19.531,-26.855,-43.945,7.324,-17.578
1690201883.478,-54.688,-28.809,-40.527,-63.965,-83.984
1690201883.495,-77.637,-25.391,-34.668,-93.750,-237.793
1690201883.499,-35.645,-25.391,-34.180,-45.898,-155.762
1690201883.503,26.855,-23.438,-40.527,28.320,114.258
1690201883.507,19.531,-21.484,-30.273,15.625,20.508
1690201883.511,-55.664,-28.809,-21.973,-55.664,-144.043
1690201883.515,-93.750,-27.344,-30.762,-79.102,0.000
1690201883.519,-46.875,-28.809,-32.227,-35.156,302.246
1690201883.522,23.926,-16.113,-31.738,14.648,128.906
1690201883.526,32.715,-4.395,-39.062,20.020,-153.809
1690201883.530,-18.555,-16.602,-50.781,-25.391,-140.625
1690201883.534,-61.035,-20.508,-45.898,-74.707,-119.629
1690201883.538,-48.340,-29.297,-36.621,-58.594,-157.227
1690201883.525,26.367,-41.016,-38.574,34.668,-129.395
1690201883.529,62.988,-27.344,-46.875,60.059,-46.875
1690201883.533,-7.812,-11.719,-42.480,-10.742,-52.734
1690201883.537,-83.496,-12.695,-37.598,-65.430,-74.219
1690201883.541,-62.012,-19.531,-41.992,-55.176,-189.941
1690201883.545,15.137,-16.113,-44.434,4.883,83.496
1690201883.549,41.504,-24.902,-39.062,49.316,455.078
1690201883.552,-13.672,-34.668,-35.645,-4.395,22.461
1690201883.556,-66.406,-20.996,-36.621,-75.684,-247.559
1690201883.560,-65.430,-12.207,-44.434,-72.754,34.668
1690201883.564,1.465,-16.113,-45.410,-6.348,206.055
1690201883.568,43.457,-17.090,-33.691,35.156,-104.492
1690201883.585,-2.930,-18.555,-33.203,0.000,-212.891
1690201883.589,-54.199,-19.531,-35.156,-66.406,-128.906
1690201883.593,-59.082,-19.531,-38.086,-80.566,-190.430
1690201883.597,5.371,-22.461,-50.293,-18.066,-236.816
1690201883.601,63.965,-17.090,-51.270,35.156,-147.461
1690201883.605,19.043,-17.578,-39.062,23.926,72.266
1690201883.609,-59.082,-24.902,-39.062,-45.898,27.344
1690201883.612,-79.590,-24.902,-31.738,-84.961,-127.441
1690201883.616,-13.672,-20.996,-18.555,-18.555,-63.965
1690201883.620,53.711,-20.508,-21.973,53.711,283.691
1690201883.624,15.137,-28.809,-31.250,28.320,136.719
1690201883.628,-51.758,-27.832,-35.645,-44.434,-200.195
1690201883.630,-54.688,-27.832,-33.691,-82.520,-118.164
1690201883.634,-21.973,-26.367,-38.086,-41.016,-60.547
1690201883.638,37.598,-28.320,-38.086,38.574,-74.219
1690201883.642,33.691,-30.273,-31.250,27.832,8.789
1690201883.646,-50.781,-26.855,-30.762,-49.316,70.312
1690201883.650,-76.172,-18.555,-22.949,-83.008,106.445
1690201883.654,-28.320,-20.996,-33.691,-50.293,-11.230
1690201883.657,29.297,-23.926,-38.086,19.043,-64.453
1690201883.661,25.879,-19.043,-34.180,32.715,104.492
1690201883.665,-43.945,-20.020,-43.457,-21.973,234.863
1690201883.669,-90.332,-20.020,-48.828,-90.332,-101.074
1690201883.673,-46.875,-31.250,-47.852,-72.266,-220.215
1690201883.676,41.016,-30.762,-39.062,15.137,17.578
1690201883.680,43.945,-20.996,-29.297,19.043,-41.992
1690201883.684,-20.996,-20.996,-35.645,-39.062,-191.406
1690201883.688,-67.383,-32.227,-28.320,-81.055,-143.066
1690201883.692,-34.180,-44.922,-24.902,-63.965,-54.688
1690201883.696,35.645,-38.574,-39.062,3.418,-2.441
1690201883.700,38.574,-36.133,-43.457,19.531,-20.996
1690201883.703,-11.230,-38.574,-33.203,-21.973,-10.254
1690201883.707,-65.918,-23.438,-20.020,-57.129,181.641
1690201883.711,-54.199,-18.066,-34.668,-59.570,-3.418
1690201883.715,10.254,-13.672,-42.969,-6.348,-204.102
1690201883.719,31.738,-8.789,-29.785,35.645,-73.730
1690201883.735,-18.555,-16.602,-23.438,-0.977,-11.230
1690201883.739,-61.523,-22.949,-27.832,-67.383,-135.742
1690201883.743,-40.527,-24.414,-37.598,-71.289,-246.582
1690201883.747,1.953,-21.973,-37.109,-1.953,-34.180
1690201883.751,33.691,-14.648,-26.855,30.762,152.344
1690201883.755,-11.230,-16.113,-32.715,-3.906,67.871
1690201883.759,-90.332,-32.227,-44.434,-79.102,-39.062
1690201883.762,-82.031,-32.227,-36.621,-84.961,34.668
1690201883.766,-2.441,-26.367,-26.855,-0.488,302.246
1690201883.770,38.574,-29.785,-30.273,37.109,57.129
1690201883.774,0.000,-28.809,-36.133,15.137,-142.090
1690201883.778,-69.824,-21.484,-38.574,-58.105,-102.539
1690201883.782,-81.055,-21.973,-30.762,-93.750,-187.500
1690201883.786,-13.672,-25.391,-25.879,-22.949,-192.871
1690201883.790,49.805,-24.902,-36.133,43.945,-1.953
1690201883.794,25.879,-18.555,-34.180,26.855,140.625
1690201883.798,-50.293,-23.926,-32.227,-42.969,-62.500
1690201883.802,-69.824,-35.645,-34.180,-74.707,-116.699
1690201883.806,-7.324,-36.621,-28.320,-27.832,-11.230
1690201883.809,45.898,-24.902,-34.668,35.156,33.203
1690201883.813,24.414,-14.648,-35.645,23.926,-47.363
1690201883.817,-44.922,-11.719,-30.762,-38.574,-159.668
1690201883.821,-73.730,-16.602,-34.668,-83.984,-106.934
1690201883.825,-25.879,-26.367,-37.109,-42.480,224.121
1690201883.810,43.457,-20.508,-38.086,29.785,106.934
1690201883.814,51.758,-11.719,-33.691,37.109,-98.145
1690201883.818,-36.133,-13.672,-27.832,-36.133,-7.324
1690201883.822,-84.961,-17.090,-28.809,-92.285,-32.715
1690201883.826,-37.598,-17.090,-33.203,-56.641,-104.980
1690201883.830,46.387,-6.348,-29.785,12.207,9.766
1690201883.834,52.734,-8.789,-25.879,29.785,203.125
1690201883.837,-31.738,-31.738,-32.227,-34.668,103.027
1690201883.841,-73.730,-37.109,-48.340,-85.449,-129.883
1690201883.845,-37.109,-27.832,-43.457,-51.758,-191.895
1690201883.849,17.090,-26.855,-21.973,4.395,42.969
1690201883.853,14.160,-27.832,-16.602,11.719,386.719
1690201883.857,-41.504,-29.297,-23.926,-36.133,63.965
1690201883.861,-94.238,-22.461,-25.879,-82.520,-245.605
1690201883.865,-62.988,-17.578,-28.320,-71.289,-187.500
1690201883.869,15.625,-24.902,-31.250,-11.230,-137.207
1690201883.873,35.645,-30.273,-32.715,27.832,-159.668
1690201883.877,-11.719,-29.297,-29.785,-11.719,-78.613
1690201883.881,-56.152,-24.414,-34.180,-64.941,223.145
1690201883.884,-45.410,-16.113,-39.551,-60.059,51.270
1690201883.888,9.277,-33.691,-41.016,-3.418,-201.172
1690201883.892,32.227,-38.574,-45.898,43.945,-45.898
1690201883.896,4.883,-29.785,-40.039,17.090,146.484
1690201883.900,-52.246,-39.551,-40.527,-65.430,-90.820
1690201883.900,-68.848,-34.180,-39.062,-88.867,-234.863
1690201883.904,5.371,-33.691,-28.809,-22.461,-129.395
1690201883.908,46.387,-40.527,-33.203,33.691,-20.508
1690201883.912,5.859,-30.762,-32.227,8.789,33.691
1690201883.916,-48.340,-18.555,-34.668,-58.594,-110.352
1690201883.920,-64.941,-16.113,-39.062,-70.801,31.738
1690201883.924,0.977,-22.461,-34.180,3.906,445.801
1690201883.927,62.500,-29.297,-32.715,53.711,91.309
1690201883.931,23.438,-29.297,-31.250,19.531,-186.523
1690201883.935,-55.176,-25.391,-31.250,-54.199,-55.176
1690201883.939,-70.801,-19.531,-33.203,-84.961,-132.324
1690201883.943,0.488,-14.648,-33.203,-30.762,-240.234
1690201883.960,68.848,-25.391,-28.809,41.992,-142.090
1690201883.964,35.645,-39.551,-29.785,35.156,117.188
1690201883.968,-40.527,-36.621,-34.668,-50.293,-11.230
1690201883.972,-64.941,-27.344,-36.621,-90.332,-268.555
1690201883.976,-24.902,-25.391,-33.203,-41.992,-128.418
1690201883.980,23.926,-24.414,-29.785,24.414,115.234
1690201883.984,24.414,-24.414,-34.668,34.180,103.516
1690201883.987,-41.016,-29.297,-31.738,-37.598,-92.773
1690201883.991,-80.078,-30.762,-32.227,-75.684,-102.539
1690201883.995,-28.809,-31.250,-43.457,-25.879,144.043
1690201883.999,37.598,-20.996,-50.293,15.137,34.180
1690201884.003,27.344,-21.484,-44.434,12.695,-87.891
1690201884.005,-44.922,-29.297,-41.016,-24.414,0.488
1690201884.009,-64.453,-23.438,-39.062,-62.012,5.859
1690201884.013,-24.902,-14.648,-35.156,-40.527,-49.316
1690201884.017,26.367,-16.602,-32.227,13.672,-90.820
1690201884.021,42.969,-24.414,-23.438,39.062,21.973
1690201884.025,-31.250,-31.250,-22.461,-13.184,160.645
1690201884.029,-97.656,-42.480,-34.668,-85.449,-90.332
1690201884.032,-63.965,-44.434,-32.715,-78.125,-225.586
1690201884.036,15.625,-39.062,-30.273,9.766,22.461
1690201884.040,31.250,-37.109,-30.762,41.992,198.242
1690201884.044,-19.043,-30.273,-29.785,-18.555,-61.523
1690201884.048,-68.359,-24.902,-22.949,-85.938,-184.082
1690201884.051,-60.547,-26.367,-26.367,-78.613,-24.902
1690201884.055,12.695,-25.879,-29.297,-7.812,-101.562
1690201884.059,49.805,-26.855,-32.227,27.344,-149.414
1690201884.063,-2.441,-25.879,-38.574,-1.953,-44.434
1690201884.067,-78.613,-30.273,-43.945,-67.871,11.230
1690201884.071,-58.105,-32.227,-41.504,-87.891,-26.367
1690201884.075,20.508,-36.133,-27.344,-23.438,-7.812
1690201884.078,44.922,-43.457,-26.367,32.715,53.711
1690201884.082,2.441,-46.875,-28.809,19.043,244.141
1690201884.086,-78.125,-38.574,-30.273,-47.852,33.691
1690201884.090,-90.332,-23.926,-37.598,-77.148,-255.859
1690201884.094,-19.043,-18.555,-38.086,-18.555,-146.484
1690201884.095,34.668,-21.484,-31.738,32.715,-67.871
1690201884.099,10.742,-20.020,-29.297,14.648,-48.340
1690201884.103,-62.500,-23.926,-36.133,-47.852,-71.289
1690201884.107,-76.172,-30.762,-33.691,-80.566,25.391
1690201884.111,-9.766,-23.926,-32.227,-24.902,91.309
1690201884.115,47.852,-15.625,-35.156,44.434,23.926
1690201884.119,13.184,-22.461,-30.273,21.484,-14.160
1690201884.122,-70.312,-43.945,-28.809,-49.805,112.305
1690201884.126,-85.449,-41.016,-22.461,-76.172,315.430
1690201884.130,-26.855,-29.297,-24.902,-49.316,-50.293
1690201884.134,20.508,-30.273,-22.461,10.254,-242.676
1690201884.138,21.484,-22.461,-27.344,23.926,-118.652
1690201884.141,-49.805,-23.438,-37.598,-39.062,-145.508
1690201884.145,-90.332,-25.879,-34.180,-89.355,-209.473
1690201884.149,-21.973,-25.879,-35.645,-43.457,-167.969
1690201884.153,68.359,-26.367,-31.738,20.996,-48.340
1690201884.157,54.688,-19.043,-26.855,22.949,-24.902
1690201884.161,-35.645,-7.812,-23.438,-23.926,-70.312
1690201884.165,-89.844,-8.789,-23.926,-83.984,-90.820
1690201884.168,-42.480,-14.160,-27.344,-52.734,206.543
1690201884.172,42.969,-11.230,-34.180,29.297,172.363
1690201884.176,37.109,-20.508,-40.039,30.762,-112.793
1690201884.180,-43.945,-31.738,-40.527,-32.227,-118.652
1690201884.184,-82.520,-26.855,-33.691,-83.008,-103.516
1690201884.185,-59.082,-26.367,-30.762,-82.031,-130.859
1690201884.189,16.113,-33.203,-28.320,-12.207,-100.098
1690201884.193,56.152,-29.297,-26.855,25.391,17.578
1690201884.197,-15.137,-25.391,-34.668,-16.602,145.508
1690201884.201,-85.449,-27.344,-35.156,-71.289,-62.988
1690201884.205,-62.988,-33.203,-39.062,-65.918,-164.062
1690201884.209,22.461,-39.551,-37.109,4.395,171.387
1690201884.212,52.246,-39.551,-27.832,50.781,410.645
1690201884.216,-1.953,-34.668,-29.297,13.184,61.523
1690201884.220,-50.781,-21.484,-30.273,-59.082,-159.180
1690201884.224,-31.738,-13.672,-34.180,-65.918,-51.758
1690201884.228,23.926,-16.602,-37.598,0.977,-84.473
1690201884.232,46.387,-21.973,-40.527,54.199,-102.051
1690201884.236,3.418,-25.879,-34.668,27.344,-36.133
1690201884.240,-57.617,-20.996,-27.344,-41.504,-48.340
1690201884.244,-59.570,-18.066,-37.109,-56.641,-139.648
1690201884.248,16.113,-20.996,-38.574,6.348,-173.340
1690201884.252,64.941,-22.949,-41.016,55.176,-14.160
1690201884.256,16.113,-29.297,-39.062,20.508,310.547
1690201884.259,-61.523,-31.250,-37.598,-53.711,69.336
1690201884.263,-73.242,-27.344,-39.062,-75.195,-208.008
1690201884.267,-17.578,-31.250,-32.227,-15.625,-66.406
1690201884.271,37.109,-35.156,-34.180,40.039,86.914
1690201884.275,20.508,-25.879,-35.645,17.578,-14.648
1690201884.276,-45.410,-19.043,-36.621,-51.270,-139.160
1690201884.280,-73.242,-19.043,-27.832,-84.961,-41.992
1690201884.284,-17.090,-13.672,-28.809,-40.039,7.324
1690201884.288,57.129,-17.578,-28.320,31.738,23.926
1690201884.292,41.016,-17.090,-17.090,26.367,-63.965
1690201884.296,-37.109,-18.555,-21.484,-21.973,10.254
1690201884.300,-64.453,-25.391,-22.461,-53.223,322.754
1690201884.303,-27.344,-20.996,-20.996,-33.203,-2.930
1690201884.307,46.875,-13.184,-23.438,31.250,-228.027
1690201884.311,44.922,-20.020,-23.438,39.062,7.324
1690201884.315,-38.086,-19.043,-22.949,-18.555,-14.160
1690201884.319,-72.266,-20.020,-26.855,-75.195,-212.402
1690201884.335,-35.645,-27.344,-29.785,-61.035,-193.848
1690201884.339,30.762,-24.414,-32.227,14.160,-26.367
1690201884.343,43.945,-27.832,-29.297,43.945,6.836
1690201884.347,-21.973,-28.320,-29.297,-9.766,-82.520
1690201884.351,-67.383,-27.832,-34.180,-56.152,-97.656
1690201884.355,-41.992,-31.738,-32.227,-39.062,227.539
1690201884.359,20.020,-26.367,-35.156,13.672,204.102
1690201884.362,34.668,-16.602,-31.738,36.133,-75.684
1690201884.366,-28.320,-16.113,-33.203,-0.977,-95.215
1690201884.370,-83.008,-18.555,-42.480,-61.035,-78.125
1690201884.374,-54.688,-17.578,-42.480,-65.918,-162.598
1690201884.378,21.484,-14.160,-45.410,-14.648,-201.660
1690201884.380,48.340,-18.066,-51.270,40.527,-42.480
1690201884.384,-1.465,-13.184,-40.039,7.324,102.539
1690201884.388,-72.754,-18.555,-32.715,-70.801,-62.988
1690201884.392,-51.270,-32.227,-34.180,-62.500,-66.895
1690201884.396,24.902,-27.344,-28.320,-0.488,99.609
1690201884.400,47.852,-19.043,-27.344,28.809,204.590
1690201884.404,15.137,-12.695,-38.574,-5.859,104.004
1690201884.407,-53.711,-15.137,-41.504,-63.477,-73.242
1690201884.411,-69.336,-22.949,-35.156,-72.266,-28.809
1690201884.415,-0.977,-22.949,-34.668,-16.113,229.492
1690201884.419,44.922,-20.020,-37.109,36.621,23.438
1690201884.423,23.438,-20.996,-32.227,20.996,-117.188
1690201884.425,-50.781,-27.344,-27.344,-52.246,-83.496
1690201884.429,-62.500,-34.180,-34.668,-90.332,-163.086
1690201884.433,-16.602,-36.133,-40.039,-41.504,-198.730
1690201884.437,36.621,-28.809,-38.086,33.203,-86.914
1690201884.441,19.043,-28.809,-33.691,29.785,8.789
1690201884.445,-47.852,-24.414,-27.832,-35.156,3.906
1690201884.449,-62.988,-14.160,-26.367,-57.617,-34.668
1690201884.452,-1.465,-16.113,-33.203,-22.461,-49.316
1690201884.456,57.617,-22.461,-33.203,30.762,374.512
1690201884.460,11.719,-27.344,-39.551,27.832,266.113
1690201884.464,-53.711,-27.344,-41.504,-38.574,-195.312
1690201884.468,-72.754,-27.832,-30.273,-76.660,-215.820
1690201884.470,-27.344,-27.344,-22.949,-49.316,-189.453
1690201884.474,43.945,-20.020,-26.855,21.484,-166.016
1690201884.478,36.621,-20.508,-27.344,31.250,-94.238
1690201884.482,-45.410,-37.109,-29.785,-38.574,-3.906
1690201884.486,-88.379,-33.691,-37.109,-76.172,8.301
1690201884.490,-39.062,-22.461,-33.203,-48.340,-32.227
1690201884.494,37.598,-21.973,-42.480,13.184,15.625
1690201884.497,45.410,-30.273,-43.457,37.109,160.156
1690201884.501,-24.414,-41.992,-31.250,-12.207,166.504
1690201884.505,-77.148,-41.504,-27.344,-70.312,-184.570
1690201884.509,-59.082,-35.645,-28.809,-47.363,-226.562
1690201884.513,4.883,-24.414,-34.180,2.441,-11.719
1690201884.530,32.715,-16.602,-35.156,17.090,-54.688
1690201884.534,-13.672,-17.578,-40.039,-15.625,-231.934
1690201884.538,-66.895,-18.066,-37.598,-72.754,-173.340
1690201884.542,-54.688,-15.137,-31.738,-53.711,64.941
1690201884.546,14.648,-8.789,-34.668,7.812,8.301
1690201884.550,43.457,-10.254,-33.691,28.809,-38.574
1690201884.554,1.953,-19.043,-27.344,4.883,-19.531
1690201884.557,-61.523,-27.832,-24.902,-48.340,162.109
1690201884.561,-66.406,-25.879,-28.320,-65.430,12.207
1690201884.565,-1.465,-21.484,-29.785,-3.418,-200.195
1690201884.569,50.293,-19.531,-39.551,42.969,-70.312
1690201884.573,7.812,-23.438,-42.480,-5.371,-48.828
1690201884.561,-76.172,-28.320,-36.133,-80.566,-93.750
1690201884.565,-67.871,-31.738,-42.969,-86.914,-87.402
1690201884.569,1.953,-34.668,-44.434,-32.227,77.637
1690201884.573,44.434,-28.320,-39.551,16.113,362.793
1690201884.577,8.301,-21.973,-33.691,-9.766,54.688
1690201884.581,-60.059,-25.879,-34.180,-55.664,-128.906
1690201884.585,-59.082,-30.762,-42.480,-72.266,14.160
1690201884.588,8.789,-28.320,-42.969,-35.645,23.438
1690201884.592,37.109,-22.949,-42.969,10.742,-135.254
1690201884.596,4.883,-18.555,-44.922,-12.695,-227.539
1690201884.600,-67.383,-16.602,-41.016,-84.473,7.324
1690201884.604,-82.031,-9.766,-37.109,-102.051,143.066
1690201884.607,-16.602,-14.160,-31.738,-67.383,-140.137
1690201884.611,29.297,-15.137,-31.250,-9.277,-148.438
1690201884.615,0.977,-18.555,-38.574,-1.953,-36.621
1690201884.619,-63.477,-27.344,-43.457,-62.988,-61.523
1690201884.623,-83.008,-26.367,-42.480,-93.750,-139.160
1690201884.627,-25.391,-26.367,-43.945,-53.223,-82.031
1690201884.631,41.016,-32.227,-41.992,17.090,351.074
1690201884.634,28.320,-26.855,-41.992,30.762,333.008
1690201884.638,-34.668,-25.879,-45.898,-36.621,-139.648
1690201884.642,-70.312,-35.156,-40.527,-95.215,-226.074
1690201884.646,-36.621,-28.809,-39.062,-65.918,-175.293
1690201884.650,37.598,-24.902,-40.527,15.625,-166.992
1690201884.650,40.527,-21.973,-38.086,33.203,-117.188
1690201884.654,-30.762,-16.113,-33.203,-26.367,-82.031
1690201884.658,-73.242,-17.090,-27.344,-92.285,-41.992
1690201884.662,-45.898,-17.578,-32.227,-70.801,19.531
1690201884.666,26.367,-15.137,-32.227,-3.418,-101.562
1690201884.670,42.969,-15.137,-28.809,25.391,73.730
1690201884.674,-24.902,-22.461,-34.180,-10.742,412.598
1690201884.677,-77.148,-29.297,-40.039,-75.684,13.184
1690201884.681,-46.875,-20.508,-44.922,-80.566,-246.094
1690201884.685,24.902,-17.090,-44.434,-5.371,15.137
1690201884.689,52.734,-20.020,-41.992,19.531,88.867
1690201884.693,-3.418,-25.391,-36.621,-25.391,-148.926
1690201884.710,-74.219,-32.227,-28.809,-67.871,-180.176
1690201884.714,-57.617,-23.438,-30.273,-78.125,-88.379
1690201884.718,9.277,-15.137,-38.086,-20.508,-112.793
1690201884.722,36.621,-16.602,-41.992,30.273,-133.301
1690201884.726,-11.719,-20.996,-31.738,-1.953,-83.984
1690201884.730,-67.383,-22.461,-21.973,-59.570,38.086
1690201884.734,-68.359,-20.996,-36.621,-79.102,-25.391
1690201884.737,-0.488,-20.020,-39.062,-27.344,-127.441
1690201884.741,47.363,-20.508,-27.344,35.156,-23.926
1690201884.745,-4.395,-24.902,-29.297,-1.953,84.473
1690201884.749,-67.871,-22.949,-43.457,-80.566,-34.668
1690201884.753,-64.941,-24.414,-50.781,-91.797,-184.082
1690201884.755,10.742,-29.297,-43.457,-27.832,-64.941
1690201884.759,53.223,-28.809,-36.621,28.320,346.191
1690201884.763,21.484,-19.043,-28.809,2.930,188.965
1690201884.767,-47.852,-11.230,-30.273,-39.062,-76.172
1690201884.771,-66.895,-15.137,-35.156,-62.012,-78.125
1690201884.775,2.930,-17.090,-40.527,-28.320,69.336
1690201884.779,53.223,-11.719,-41.504,25.879,85.449
1690201884.782,26.855,-3.418,-39.551,17.090,-91.309
1690201884.786,-36.621,-24.414,-41.016,-36.621,-34.668
1690201884.790,-80.078,-41.504,-38.574,-74.707,57.617
1690201884.794,-32.715,-31.250,-38.086,-45.410,-212.402
1690201884.798,32.227,-28.809,-31.738,20.996,-184.570
1690201884.800,27.832,-34.180,-29.297,31.738,68.848
1690201884.804,-29.297,-30.762,-29.785,-28.320,-46.875
1690201884.808,-64.941,-22.949,-19.531,-70.312,-193.359
1690201884.812,-22.461,-19.531,-21.973,-43.457,-131.348
1690201884.816,39.062,-21.973,-33.691,20.508,-20.020
1690201884.820,29.297,-20.020,-31.738,27.344,40.039
1690201884.824,-40.527,-12.695,-25.879,-33.691,-31.738
1690201884.827,-87.402,-14.648,-26.367,-87.891,-101.074
1690201884.831,-55.176,-20.996,-30.273,-70.801,188.477
1690201884.835,11.230,-23.438,-33.691,-12.695,125.000
1690201884.839,20.020,-17.578,-30.762,12.207,-93.750
1690201884.843,-38.574,-20.996,-29.297,-27.832,-100.098
1690201884.846,-93.750,-25.391,-36.133,-77.148,-138.184
1690201884.850,-57.129,-27.344,-30.273,-52.734,-67.871
1690201884.854,21.484,-32.227,-20.996,6.836,-21.973
1690201884.858,27.832,-28.809,-24.902,33.203,168.457
1690201884.862,-22.949,-29.785,-27.344,0.977,349.121
1690201884.866,-74.219,-29.297,-36.133,-74.219,44.922
1690201884.870,-64.941,-18.066,-38.574,-76.660,-104.980
1690201884.873,16.602,-12.695,-29.297,-2.930,37.598
1690201884.877,49.805,-17.090,-30.273,32.227,200.195
1690201884.881,-2.930,-24.902,-36.133,-15.137,-38.574
1690201884.885,-69.824,-26.367,-42.480,-76.660,-233.887
1690201884.889,-80.566,-32.227,-45.898,-79.590,-181.641
1690201884.891,0.000,-30.273,-41.016,-19.043,-176.758
1690201884.895,56.152,-16.602,-35.156,31.250,-130.859
1690201884.899,19.531,-21.484,-37.598,11.230,-62.500
1690201884.903,-38.086,-31.250,-34.668,-50.293,-69.824
1690201884.907,-41.992,-38.574,-28.809,-73.730,-114.258
1690201884.911,-1.953,-35.645,-37.109,-27.344,-76.172
1690201884.915,38.086,-26.855,-33.203,41.504,18.066
1690201884.918,17.090,-20.508,-25.391,43.457,350.098
1690201884.922,-56.641,-21.973,-30.273,-38.086,227.539
1690201884.926,-82.031,-18.066,-29.785,-83.008,-204.590
1690201884.930,-3.418,-20.020,-31.250,-28.320,-184.570
1690201884.934,60.547,-22.949,-35.645,37.598,-63.965
1690201884.935,27.344,-24.414,-28.809,27.344,-104.980
1690201884.939,-49.316,-24.414,-23.926,-41.992,-193.359
1690201884.943,-72.266,-20.996,-22.461,-80.566,-133.301
1690201884.947,-15.137,-21.973,-20.996,-41.016,-25.391
1690201884.951,47.363,-19.531,-20.020,39.062,-57.129
1690201884.955,31.250,-19.043,-20.020,34.668,-28.809
1690201884.959,-41.016,-19.531,-21.484,-40.039,160.645
1690201884.962,-74.219,-17.090,-28.320,-71.777,497.070
1690201884.966,-38.086,-15.137,-39.551,-50.781,159.668
1690201884.970,43.945,-17.090,-30.273,16.602,-195.312
1690201884.974,52.734,-21.484,-19.043,49.805,-37.598
1690201884.978,-34.668,-29.785,-20.996,-11.719,-88.379
1690201884.982,-72.266,-26.367,-23.926,-65.430,-256.348
1690201884.986,-28.320,-20.508,-30.762,-40.527,-233.887
1690201884.990,29.785,-21.973,-41.504,19.531,-82.520
1690201884.994,48.828,-22.461,-35.156,26.855,-85.938
1690201884.998,-26.855,-20.996,-32.715,-33.203,-159.668
1690201885.002,-77.148,-24.414,-31.738,-68.848,-51.758
1690201885.006,-52.246,-22.461,-30.273,-35.645,278.320
1690201885.009,28.809,-20.020,-36.621,0.977,97.656
1690201885.013,46.875,-17.578,-38.086,18.555,-130.859
1690201885.017,-34.180,-22.461,-37.109,-8.789,-9.766
1690201885.021,-80.566,-28.809,-41.016,-69.336,33.203
1690201885.025,-57.129,-17.090,-45.898,-87.402,-179.688
1690201885.025,10.254,-15.137,-46.387,-24.902,-196.777
1690201885.029,39.551,-20.996,-42.969,13.184,-62.500
1690201885.033,-7.812,-20.508,-42.480,-13.672,-96.680
1690201885.037,-59.570,-22.949,-48.828,-52.734,-88.867
1690201885.041,-62.012,-25.391,-50.781,-75.684,-163.086
1690201885.045,7.324,-32.227,-39.551,-15.137,24.902
1690201885.049,55.664,-27.344,-33.203,45.410,486.816
1690201885.052,-1.953,-24.902,-52.246,4.395,115.723
1690201885.056,-86.914,-29.785,-49.805,-64.941,-261.719
1690201885.060,-76.660,-27.344,-37.109,-90.332,-149.902
1690201885.064,0.488,-22.949,-37.109,-31.738,-108.398
1690201885.068,40.527,-25.391,-35.645,35.156,-14.160
1690201885.073,7.324,-28.320,-37.598,12.207,-17.090
1690201885.077,-62.500,-29.785,-39.062,-58.594,37.598
1690201885.081,-88.379,-31.250,-41.504,-90.820,-57.129
1690201885.085,-31.250,-30.273,-47.363,-35.156,-170.898
1690201885.089,32.715,-21.484,-46.387,45.898,-15.625
1690201885.093,26.367,-22.461,-46.387,33.203,166.016
1690201885.097,-43.457,-34.180,-50.781,-56.641,76.172
1690201885.100,-76.172,-28.809,-47.363,-93.750,-166.016
1690201885.104,-29.785,-20.996,-43.945,-47.363,-140.625
1690201885.108,25.879,-25.879,-41.992,18.066,167.969
1690201885.112,0.488,-26.367,-41.504,8.789,7.812
1690201885.116,-54.199,-22.949,-34.180,-50.781,-221.191
1690201885.131,-76.172,-20.020,-35.645,-86.914,-164.062
1690201885.135,-57.617,-22.461,-37.598,-60.547,-26.367
1690201885.139,27.344,-18.066,-37.109,7.812,78.613
1690201885.143,38.086,-12.695,-35.156,20.020,41.992
1690201885.147,-41.016,-24.414,-33.203,-34.180,23.926
1690201885.151,-70.312,-28.320,-32.715,-83.984,327.148
1690201885.155,-48.340,-24.902,-34.180,-69.336,152.344
1690201885.158,6.348,-27.832,-43.945,-6.348,-157.227
1690201885.162,33.203,-23.926,-40.039,27.832,20.508
1690201885.166,-17.090,-20.508,-26.367,-21.484,0.488
1690201885.170,-74.219,-28.809,-32.227,-95.703,-222.656
1690201885.174,-58.594,-35.645,-41.992,-88.379,-187.500
1690201885.190,-1.953,-33.691,-41.504,-13.672,-38.574
1690201885.194,25.391,-29.297,-34.668,23.926,-75.195
1690201885.198,-28.320,-30.762,-33.203,-15.137,-166.992
1690201885.202,-84.961,-26.367,-33.203,-68.848,-191.406
1690201885.206,-44.434,-22.461,-32.715,-60.547,-87.891
1690201885.210,24.414,-20.508,-33.203,6.836,-15.137
1690201885.214,52.246,-21.484,-32.715,41.016,1.953
1690201885.217,-0.977,-25.879,-33.203,-11.230,-20.996
1690201885.221,-63.477,-26.367,-36.621,-68.359,233.398
1690201885.225,-60.547,-27.832,-37.598,-65.430,214.355
1690201885.229,15.625,-24.902,-38.086,-7.324,-108.398
1690201885.233,61.523,-15.625,-34.668,40.527,-96.680
1690201885.220,11.719,-10.742,-38.086,17.578,-76.172
1690201885.224,-48.828,-23.438,-38.086,-58.594,-166.016
1690201885.228,-51.758,-34.180,-42.480,-80.078,-240.723
1690201885.232,5.859,-25.879,-36.133,-25.879,-48.340
1690201885.236,58.594,-20.020,-32.715,28.809,172.363
1690201885.240,13.672,-19.043,-37.598,5.859,84.473
1690201885.244,-50.781,-25.391,-37.598,-47.852,-59.082
1690201885.247,-47.852,-36.133,-36.133,-45.898,18.555
1690201885.251,-4.395,-41.992,-30.273,-22.949,-24.902
1690201885.255,29.297,-36.621,-30.762,20.020,-112.793
1690201885.259,8.789,-33.691,-33.691,22.461,-132.812
1690201885.263,-65.430,-43.945,-22.949,-31.738,72.754
1690201885.266,-104.004,-44.434,-21.484,-55.664,335.449
1690201885.270,-59.082,-43.457,-23.438,-52.734,61.035
1690201885.274,12.695,-50.781,-20.020,8.301,-79.102
1690201885.278,16.113,-47.852,-20.508,36.133,-48.340
1690201885.282,-53.223,-41.016,-25.879,-42.480,-148.438
1690201885.286,-83.984,-33.691,-25.391,-83.984,-160.156
1690201885.290,-32.715,-32.715,-18.555,-27.344,-35.156
1690201885.293,31.250,-33.203,-17.090,17.578,122.070
1690201885.297,38.086,-35.645,-30.273,17.090,18.555
1690201885.301,-28.809,-44.922,-36.133,-32.227,-60.059
1690201885.305,-90.332,-44.434,-34.180,-80.078,-101.562
1690201885.309,-49.805,-38.086,-35.156,-41.504,80.566
1690201885.310,35.156,-27.832,-35.156,22.949,-0.977
1690201885.314,46.875,-28.809,-35.645,35.645,-146.484
1690201885.318,-24.414,-30.762,-35.156,-16.113,-46.387
1690201885.322,-84.961,-28.320,-30.273,-69.824,-33.691
1690201885.326,-49.805,-30.762,-26.855,-59.570,-134.277
1690201885.330,35.645,-34.668,-25.879,2.930,-104.004
1690201885.334,36.133,-35.645,-28.320,49.316,165.039
1690201885.337,-23.926,-35.156,-29.297,7.812,482.910
1690201885.341,-76.660,-34.180,-31.738,-72.266,23.438
1690201885.345,-65.430,-36.133,-33.203,-67.871,-269.043
1690201885.349,11.230,-26.367,-30.762,0.000,-108.398
1690201885.353,36.133,-19.531,-31.738,31.250,-32.227
1690201885.385,-21.484,-20.020,-32.227,-8.789,-46.875
1690201885.389,-81.055,-15.137,-24.414,-76.172,-175.781
1690201885.393,-72.754,-16.113,-20.508,-75.684,-33.203
1690201885.397,-5.371,-23.926,-25.391,-15.137,-43.945
1690201885.401,49.805,-28.809,-35.645,30.273,-173.340
1690201885.405,7.812,-27.832,-37.109,-2.441,-55.176
1690201885.409,-68.359,-28.809,-30.273,-61.523,182.617
1690201885.412,-63.477,-26.367,-33.203,-73.242,-20.508
1690201885.416,4.883,-23.926,-35.156,-22.949,-199.219
1690201885.420,39.062,-37.109,-31.250,32.227,-20.508
1690201885.424,1.465,-42.480,-23.438,15.625,-2.930
1690201885.428,-61.523,-32.227,-25.879,-58.105,-115.723
1690201885.430,-69.336,-23.438,-31.250,-89.355,-138.184
1690201885.434,10.254,-22.949,-33.691,-41.016,-102.539
1690201885.438,57.129,-24.414,-33.203,14.648,-1.953
1690201885.442,18.555,-20.508,-27.344,9.766,-8.789
1690201885.446,-61.035,-17.578,-38.086,-54.199,-83.496
1690201885.450,-84.473,-20.508,-45.410,-89.355,23.438
1690201885.454,-1.953,-17.578,-31.250,-41.016,42.480
1690201885.457,52.246,-20.508,-30.273,20.508,-43.945
1690201885.461,13.184,-23.438,-40.039,13.184,-70.312
1690201885.465,-51.758,-21.484,-31.738,-35.645,107.910
1690201885.469,-82.520,-20.996,-25.879,-73.730,257.324
1690201885.473,-36.621,-26.367,-35.156,-51.758,-72.266
1690201885.448,37.598,-31.738,-39.551,11.230,-195.801
1690201885.452,35.156,-31.738,-33.691,26.855,114.258
1690201885.456,-45.898,-23.438,-39.062,-38.086,217.773
1690201885.460,-80.078,-23.926,-46.387,-93.750,-148.926
1690201885.464,-27.344,-27.344,-35.156,-55.176,-162.598
1690201885.468,47.363,-21.484,-42.969,28.809,162.109
1690201885.472,48.340,-20.996,-46.875,34.668,107.422
1690201885.475,-32.227,-29.297,-46.875,-46.875,-110.840
1690201885.479,-73.242,-27.344,-53.223,-85.938,-115.723
1690201885.483,-29.785,-20.020,-41.016,-58.105,-46.875
1690201885.487,27.832,-25.391,-31.738,-13.184,-153.320
1690201885.491,34.180,-27.832,-24.902,18.555,-178.711
1690201885.505,-16.113,-25.879,-25.879,-17.090,-64.941
1690201885.509,-69.824,-21.484,-28.320,-70.801,-30.762
1690201885.513,-38.574,-15.625,-29.297,-64.453,-89.844
1690201885.517,28.809,-9.766,-31.250,-7.812,-28.320
1690201885.521,47.363,-17.090,-28.809,33.691,66.895
1690201885.525,1.465,-28.809,-25.391,15.137,428.223
1690201885.529,-71.289,-22.461,-30.273,-50.293,312.988
1690201885.532,-54.688,-13.184,-26.367,-54.688,-109.375
1690201885.536,14.160,-14.648,-26.855,13.184,-11.230
1690201885.540,39.062,-17.578,-28.809,42.969,122.070
1690201885.544,-2.930,-13.184,-23.926,-5.371,-115.723
1690201885.548,-65.430,-13.672,-25.391,-68.848,-222.656
1690201885.552,-60.059,-15.625,-23.926,-76.172,-137.207
1690201885.556,7.812,-12.695,-23.926,-8.789,-112.305
1690201885.560,52.734,-14.648,-29.297,28.320,-141.602
1690201885.564,9.277,-21.973,-34.180,-0.977,-138.184
1690201885.568,-65.918,-19.531,-32.715,-54.688,-109.375
1690201885.572,-79.102,-21.973,-30.762,-67.383,-76.660
1690201885.576,-9.766,-20.020,-35.645,-18.555,-66.406
1690201885.579,44.434,-13.184,-38.086,30.273,1.953
1690201885.583,16.113,-19.531,-29.785,27.832,261.230
1690201885.587,-64.453,-23.438,-26.855,-29.297,157.715
1690201885.591,-90.820,-20.996,-26.367,-76.172,-145.020
1690201885.595,-24.902,-17.090,-22.461,-31.250,-145.996
1690201885.595,48.340,-12.207,-26.367,31.738,18.066
1690201885.599,29.297,-12.207,-24.414,22.461,-49.316
1690201885.603,-49.316,-15.137,-22.949,-39.551,-168.457
1690201885.607,-82.031,-19.043,-29.297,-88.379,-107.910
1690201885.611,-33.691,-21.484,-30.273,-52.734,-88.867
1690201885.615,38.574,-21.484,-32.227,30.273,-0.488
1690201885.619,33.691,-23.438,-32.227,27.344,63.477
1690201885.622,-35.645,-20.996,-29.297,-32.715,94.727
1690201885.626,-65.430,-18.555,-24.414,-47.852,301.758
1690201885.630,-2.930,-23.926,-32.227,-31.738,-1.465
1690201885.634,54.199,-24.414,-43.945,4.395,-166.504
1690201885.638,41.504,-19.043,-34.668,19.043,-51.758
1690201885.657,-23.438,-17.578,-33.203,-34.668,-122.559
1690201885.661,-69.824,-8.301,-35.645,-78.125,-255.371
1690201885.665,-34.668,-13.184,-38.574,-60.547,-264.160
1690201885.669,30.762,-20.020,-42.480,-1.953,-8.789
1690201885.673,41.504,-12.695,-41.016,24.902,-5.859
1690201885.677,-23.926,-17.090,-34.668,-14.648,-33.691
1690201885.681,-69.336,-16.113,-31.250,-69.336,40.039
1690201885.684,-30.273,-12.207,-33.203,-54.688,167.480
1690201885.688,32.227,-19.043,-34.668,3.418,67.871
1690201885.692,37.598,-15.137,-37.109,40.527,-144.531
1690201885.696,-12.695,-16.602,-34.668,7.812,-92.773
1690201885.700,-77.637,-19.043,-31.738,-75.195,-50.293
1690201885.686,-70.801,-16.113,-45.898,-77.148,-148.438
1690201885.690,11.230,-12.207,-51.270,-6.836,-180.176
1690201885.694,53.711,-16.113,-39.551,34.180,-11.719
1690201885.698,-3.418,-29.297,-38.086,-4.883,95.703
1690201885.702,-67.871,-26.367,-49.316,-72.266,-43.457
1690201885.706,-57.617,-18.555,-44.434,-71.289,-106.445
1690201885.710,16.602,-18.066,-27.344,-2.930,124.512
1690201885.713,69.336,-20.020,-25.879,42.969,123.535
1690201885.717,4.883,-25.879,-40.527,5.859,-77.148
1690201885.721,-70.312,-24.902,-40.039,-67.383,-148.926
1690201885.725,-70.801,-20.020,-32.715,-76.172,15.137
1690201885.729,-10.254,-22.461,-35.645,-23.926,356.934
1690201885.731,48.828,-25.391,-35.156,22.461,107.422
1690201885.735,17.090,-20.020,-28.809,13.672,-176.270
1690201885.739,-53.223,-13.184,-34.668,-52.734,-130.371
1690201885.743,-60.547,-17.090,-35.156,-83.984,-153.809
1690201885.747,-22.949,-28.320,-34.668,-34.668,-224.609
1690201885.751,26.855,-34.668,-38.574,32.715,-18.555
1690201885.755,16.602,-28.320,-29.297,28.809,403.809
1690201885.758,-49.316,-23.438,-29.785,-47.363,225.586
1690201885.762,-79.590,-20.996,-31.738,-94.727,-118.652
1690201885.766,-24.414,-19.043,-28.809,-51.270,-123.047
1690201885.770,36.621,-14.648,-27.344,20.020,103.027
1690201885.774,16.113,-16.602,-32.715,20.508,-20.508
1690201885.775,-44.434,-17.578,-26.855,-37.109,-231.934
1690201885.779,-60.547,-19.531,-23.438,-80.566,-229.004
1690201885.783,-3.418,-32.227,-42.969,-51.270,-129.883
1690201885.787,45.410,-28.320,-43.945,4.395,19.531
1690201885.791,25.391,-18.066,-34.668,2.930,-63.965
1690201885.795,-46.875,-22.949,-30.273,-40.527,30.273
1690201885.799,-85.449,-21.973,-24.414,-75.195,393.555
1690201885.802,-47.852,-21.973,-25.391,-63.477,145.020
1690201885.806,17.578,-17.578,-39.062,0.977,-126.465
1690201885.810,41.992,-8.789,-37.598,31.738,-2.441
1690201885.814,-15.625,-16.113,-22.949,-25.879,-20.508
1690201885.818,-81.055,-21.484,-26.367,-85.449,-230.957
1690201885.835,-56.641,-26.855,-30.273,-62.500,-222.168
1690201885.839,16.113,-37.598,-29.297,-2.930,-111.328
1690201885.843,46.387,-34.180,-24.414,28.320,-75.195
1690201885.847,-0.977,-30.273,-24.902,-13.184,-124.023
1690201885.851,-69.336,-28.320,-36.133,-68.848,-98.633
1690201885.855,-54.199,-18.066,-33.691,-58.594,83.984
1690201885.859,28.809,-9.277,-38.086,-0.488,80.566
1690201885.862,75.195,-12.695,-40.527,48.340,-52.734
1690201885.866,26.855,-16.113,-31.738,20.996,-83.984
1690201885.870,-67.383,-22.949,-20.996,-45.410,174.805
1690201885.874,-75.195,-35.156,-24.902,-73.242,84.473
1690201885.878,5.859,-26.855,-23.438,-20.508,-141.602
1690201885.880,42.969,-19.531,-19.043,39.551,-17.578
1690201885.884,1.465,-30.762,-24.902,20.508,38.086
1690201885.888,-66.895,-33.691,-32.227,-60.059,-132.324
1690201885.892,-67.871,-24.414,-30.273,-78.613,-116.699
1690201885.896,2.441,-23.438,-19.531,-15.625,-6.836
1690201885.900,62.012,-24.414,-15.137,41.016,136.230
1690201885.904,19.043,-20.996,-16.602,24.902,48.340
1690201885.907,-62.988,-29.785,-20.020,-45.410,-190.918
1690201885.911,-70.801,-41.016,-26.367,-70.312,-76.172
1690201885.915,-4.395,-32.227,-26.367,-12.695,124.512
1690201885.919,41.992,-20.508,-23.438,38.086,-108.887
1690201885.923,24.902,-34.180,-27.832,23.438,-157.715
1690201885.926,-40.039,-42.969,-27.832,-34.668,-59.082
1690201885.930,-77.637,-31.250,-21.973,-65.430,-157.715
1690201885.934,-22.461,-19.531,-23.438,-26.855,-208.008
1690201885.938,45.410,-11.230,-22.949,34.668,-95.703
1690201885.942,29.785,-19.531,-20.020,38.086,97.168
1690201885.946,-54.199,-29.785,-26.855,-31.738,58.105
1690201885.950,-88.867,-22.949,-27.832,-88.379,-34.668
1690201885.953,-33.691,-21.484,-24.414,-54.199,-31.250
1690201885.957,31.738,-30.273,-32.227,23.926,230.469
1690201885.961,34.180,-22.461,-34.668,30.762,142.090
1690201885.965,-17.090,-17.090,-38.574,-34.668,-164.551
1690201885.969,-72.754,-25.391,-42.480,-77.148,-177.734
1690201885.970,-46.875,-20.020,-34.180,-58.105,-80.566
1690201885.974,25.391,-25.879,-40.039,3.418,-30.762
1690201885.978,31.738,-39.551,-40.527,30.273,-62.500
1690201885.982,-35.645,-40.527,-23.926,-8.301,49.316
1690201885.986,-88.379,-37.109,-21.484,-70.312,195.801
1690201885.990,-53.711,-30.273,-28.809,-62.500,67.871
1690201885.994,17.578,-28.809,-35.156,-6.348,-62.012
1690201885.997,40.527,-24.414,-32.715,21.973,18.555
1690201886.001,-7.324,-18.066,-30.762,-8.789,288.574
1690201886.005,-78.613,-16.113,-32.715,-72.266,-48.340
1690201886.009,-67.871,-17.090,-29.297,-78.613,-305.176
1690201886.013,23.438,-16.113,-25.879,-12.207,-107.422
1690201886.016,50.781,-18.555,-26.367,27.832,-90.820
1690201886.020,-11.719,-22.949,-32.715,-17.090,-170.898
1690201886.024,-70.312,-27.832,-34.668,-76.660,-161.133
1690201886.028,-67.383,-33.203,-28.320,-68.359,-133.789
1690201886.032,3.418,-24.902,-33.691,-9.277,-77.148
1690201886.036,47.363,-11.230,-41.992,36.621,30.762
1690201886.040,2.441,-12.695,-35.645,13.184,66.895
1690201886.043,-47.363,-31.250,-26.855,-44.434,355.957
1690201886.047,-56.641,-41.016,-24.414,-67.383,295.898
1690201886.051,-14.160,-36.621,-26.367,-26.367,-112.305
1690201886.055,29.785,-30.273,-32.227,29.297,-133.301
1690201886.059,4.395,-21.973,-32.715,9.766,-92.285
1690201886.075,-43.457,-24.902,-35.645,-55.664,-121.582
1690201886.079,-83.496,-27.832,-41.504,-83.496,-138.184
1690201886.083,-22.949,-25.391,-41.016,-39.551,-53.223
1690201886.087,45.410,-28.320,-33.203,17.578,65.430
1690201886.091,11.230,-29.297,-31.250,6.836,-40.527
1690201886.095,-48.828,-20.996,-27.832,-52.734,-126.953
1690201886.099,-61.523,-16.113,-26.855,-75.195,87.891
1690201886.102,-6.348,-25.391,-26.855,-28.809,356.445
1690201886.106,52.246,-28.809,-29.785,20.020,38.574
1690201886.110,20.996,-19.043,-35.156,14.160,-182.617
1690201886.114,-49.316,-21.484,-24.414,-34.180,-12.695
1690201886.118,-71.777,-26.367,-28.320,-72.266,-71.777
1690201886.106,-30.273,-26.367,-38.574,-55.176,-191.406
1690201886.110,36.621,-21.484,-37.598,6.836,-116.211
1690201886.114,35.156,-19.043,-36.621,15.625,-38.574
1690201886.118,-30.273,-23.926,-35.156,-43.945,-143.555
1690201886.122,-72.266,-25.879,-32.227,-77.637,-238.281
1690201886.126,-42.969,-29.297,-34.180,-49.316,-94.238
1690201886.130,32.227,-29.297,-43.457,16.113,149.414
1690201886.133,42.969,-18.066,-46.387,39.551,76.660
1690201886.137,-28.320,-18.555,-41.016,-23.438,-133.301
1690201886.141,-78.125,-24.902,-39.062,-77.637,-163.574
1690201886.145,-38.574,-21.973,-30.762,-49.316,241.699
1690201886.149,19.531,-23.438,-28.809,2.930,224.609
1690201886.150,35.645,-34.668,-28.320,27.344,-110.840
1690201886.154,-21.484,-28.320,-25.391,-16.113,-150.879
1690201886.158,-78.125,-17.090,-30.273,-69.824,-144.531
1690201886.162,-42.969,-20.020,-33.203,-55.664,-125.488
1690201886.166,15.137,-15.137,-32.227,-0.977,-180.664
1690201886.170,40.527,-14.648,-30.762,36.133,35.156
1690201886.174,-3.906,-13.672,-31.738,15.625,472.656
1690201886.177,-68.359,-14.648,-40.039,-56.152,191.895
1690201886.181,-63.965,-22.461,-43.945,-72.754,-156.250
1690201886.185,6.348,-23.926,-40.527,-11.230,-41.016
1690201886.189,53.711,-21.484,-41.504,34.668,-34.180
1690201886.193,18.555,-18.555,-34.180,4.883,-175.293
1690201886.198,-58.105,-20.020,-28.809,-56.641,-176.270
1690201886.202,-51.758,-19.043,-35.156,-61.523,-58.594
1690201886.206,11.719,-25.391,-38.086,-13.184,-121.094
1690201886.210,33.691,-35.645,-33.691,41.992,-162.109
1690201886.214,-3.906,-29.297,-38.574,10.742,-95.215
1690201886.218,-56.152,-21.973,-36.133,-60.059,139.160
1690201886.222,-88.867,-19.043,-33.203,-72.754,62.988
1690201886.225,-35.156,-21.484,-41.504,-26.367,-161.133
1690201886.229,43.945,-24.902,-44.922,30.273,-72.754
1690201886.233,19.043,-25.879,-37.598,25.879,175.781
1690201886.237,-59.082,-28.320,-29.785,-41.016,-34.180
1690201886.241,-96.191,-32.227,-30.273,-97.656,-251.953
1690201886.255,-54.688,-38.574,-27.344,-71.289,-164.062
1690201886.259,13.184,-31.250,-32.227,-3.418,-74.707
1690201886.263,-6.348,-32.227,-36.133,-4.883,-63.965
1690201886.267,-71.289,-39.062,-31.738,-57.617,-102.539
1690201886.271,-79.590,-30.273,-37.109,-85.449,-23.926
1690201886.275,-20.508,-26.367,-38.086,-51.270,279.297
1690201886.279,41.992,-26.855,-35.156,2.441,115.723
1690201886.282,30.273,-21.484,-38.574,10.254,-166.016
1690201886.286,-43.945,-18.555,-38.574,-41.992,-30.273
1690201886.290,-87.402,-23.438,-33.203,-93.262,68.359
1690201886.294,-43.457,-23.438,-35.645,-72.266,-135.254
1690201886.298,27.832,-20.020,-40.527,-5.371,-130.371
1690201886.300,34.180,-30.273,-44.434,21.484,-9.277
1690201886.304,-30.762,-34.668,-41.504,-22.949,-66.406
1690201886.308,-83.984,-32.715,-36.621,-84.473,-176.270
1690201886.312,-51.758,-34.668,-31.250,-62.500,-180.664
1690201886.316,45.410,-24.414,-28.320,21.484,11.719
1690201886.320,79.590,-20.996,-24.902,45.410,109.863
1690201886.324,-14.648,-29.785,-28.320,-11.719,54.199
1690201886.327,-75.684,-35.645,-34.180,-75.195,70.312
1690201886.331,-45.410,-31.738,-31.250,-52.734,317.871
1690201886.335,19.531,-26.855,-35.645,14.160,203.125
1690201886.339,49.805,-27.344,-38.086,41.504,-141.113
1690201886.343,-8.301,-22.949,-33.691,-0.488,-145.020
1690201886.345,-79.590,-23.926,-40.039,-74.219,-125.488
1690201886.349,-59.082,-22.461,-44.434,-75.195,-220.703
1690201886.353,31.250,-20.020,-34.180,0.000,-182.617
1690201886.357,56.641,-25.879,-33.203,54.688,26.367
1690201886.361,2.930,-25.879,-34.180,15.137,73.730
1690201886.365,-59.082,-24.902,-36.133,-62.012,16.113
1690201886.369,-62.988,-30.762,-40.039,-76.660,-35.645
1690201886.372,3.906,-33.203,-31.738,-20.508,68.359
1690201886.376,57.129,-24.414,-32.227,48.828,376.465
1690201886.380,11.719,-23.926,-39.551,7.324,34.180
1690201886.384,-67.383,-40.039,-40.527,-71.777,-211.914
1690201886.388,-64.941,-34.668,-37.598,-78.613,-89.355
1690201886.392,0.488,-17.578,-39.062,-21.973,-81.055
1690201886.396,59.082,-18.555,-44.434,45.410,-93.750
1690201886.400,30.273,-13.184,-46.875,26.367,-42.480
1690201886.404,-45.410,-8.789,-43.945,-43.457,8.301
1690201886.408,-54.199,-18.555,-39.551,-71.777,-106.934
1690201886.412,21.973,-10.254,-24.902,-22.461,-39.551
1690201886.416,61.035,-14.160,-20.996,49.316,134.277
1690201886.419,23.926,-35.645,-23.438,45.410,259.766
1690201886.423,-44.434,-35.156,-30.762,-32.715,51.270
1690201886.427,-64.453,-28.320,-38.574,-74.219,-247.070
1690201886.431,-14.160,-27.832,-34.668,-41.504,-155.762
1690201886.435,37.109,-23.438,-34.180,17.578,20.020
1690201886.435,23.926,-21.484,-33.203,31.250,-116.211
1690201886.439,-38.086,-30.273,-31.250,-40.039,-267.578
1690201886.443,-69.824,-32.715,-34.180,-89.355,-171.387
1690201886.447,-39.551,-29.297,-33.203,-48.828,65.430
1690201886.451,40.039,-27.344,-34.668,18.066,40.039
1690201886.455,50.781,-22.949,-42.480,37.598,-61.035
1690201886.459,-24.414,-21.973,-28.809,-16.113,87.891
1690201886.462,-89.355,-24.902,-25.391,-85.449,380.371
1690201886.466,-68.848,-26.367,-31.738,-88.379,133.301
1690201886.470,10.742,-29.297,-29.297,-16.602,-173.340
1690201886.474,39.551,-37.109,-28.320,43.457,-29.297
1690201886.478,-29.785,-40.039,-31.250,-12.207,-82.031
1690201886.498,-95.703,-33.203,-26.367,-92.285,-262.207
1690201886.502,-59.570,-23.438,-24.902,-75.684,-139.648
1690201886.506,20.508,-20.996,-27.344,5.859,114.258
1690201886.510,37.598,-30.273,-31.738,35.156,32.227
1690201886.514,-21.484,-30.762,-33.691,-16.113,-129.395
1690201886.518,-80.566,-27.344,-33.691,-76.172,15.137
1690201886.522,-51.270,-30.273,-40.039,-74.707,138.184
1690201886.525,21.484,-31.738,-37.109,-15.137,-80.566
1690201886.529,38.574,-28.809,-36.621,26.367,-154.297
1690201886.533,-2.441,-26.855,-42.480,0.000,-31.250
1690201886.537,-65.430,-29.785,-36.133,-69.824,126.465
1690201886.541,-64.453,-33.203,-33.203,-91.797,-50.293
1690201886.525,5.859,-37.598,-36.621,-25.391,-126.953
1690201886.529,36.133,-33.203,-38.086,16.113,-20.508
1690201886.533,5.371,-15.625,-31.250,5.371,-28.320
1690201886.537,-58.105,-20.996,-41.016,-57.129,-29.785
1690201886.541,-71.289,-37.598,-46.387,-97.168,-23.438
1690201886.545,-2.441,-31.250,-34.668,-36.133,10.742
1690201886.549,37.598,-21.484,-28.809,28.809,79.590
1690201886.552,11.230,-21.973,-26.855,13.672,8.301
1690201886.556,-60.547,-26.855,-30.762,-60.547,-122.070
1690201886.560,-71.777,-27.832,-25.391,-85.449,-31.738
1690201886.564,4.395,-26.367,-21.484,-3.418,322.754
1690201886.568,49.805,-19.043,-25.391,51.270,219.238
1690201886.585,22.461,-15.625,-26.367,34.668,-76.660
1690201886.589,-42.480,-24.414,-29.785,-19.531,-99.121
1690201886.593,-67.871,-18.555,-30.762,-68.359,-140.625
1690201886.597,-16.113,-7.812,-30.762,-39.062,-194.336
1690201886.601,44.434,-15.137,-26.367,28.809,-86.426
1690201886.605,45.410,-25.391,-22.949,31.738,66.895
1690201886.609,-27.832,-29.297,-27.832,-36.133,-14.160
1690201886.612,-86.914,-22.949,-30.762,-94.727,-90.820
1690201886.616,-38.574,-16.113,-23.926,-55.176,-61.035
1690201886.620,45.898,-19.043,-18.066,22.461,235.840
1690201886.624,39.062,-28.809,-31.250,28.809,167.969
1690201886.628,-36.621,-30.762,-36.133,-35.156,-200.195
1690201886.630,-69.824,-24.414,-30.762,-80.078,-243.164
1690201886.634,-32.227,-20.996,-31.738,-52.246,-159.180
1690201886.638,33.691,-15.625,-32.227,17.578,-109.863
1690201886.642,51.758,-22.461,-32.715,34.668,-44.434
1690201886.646,-14.160,-31.738,-33.203,-20.020,-18.066
1690201886.650,-77.637,-30.762,-39.551,-73.730,64.941
1690201886.654,-50.293,-27.344,-40.039,-61.035,24.902
1690201886.657,29.785,-21.484,-24.414,0.977,-112.305
1690201886.661,58.105,-20.996,-24.902,45.410,90.820
1690201886.665,-18.555,-21.973,-34.180,1.465,235.840
1690201886.669,-83.008,-16.602,-39.062,-77.637,-181.641
1690201886.673,-46.875,-10.254,-35.645,-75.684,-309.082
1690201886.675,22.949,-13.672,-26.855,9.766,27.344
1690201886.679,44.434,-20.996,-32.227,49.316,86.914
1690201886.683,-6.836,-20.508,-29.297,-3.418,-172.363
1690201886.687,-72.754,-20.996,-33.203,-66.406,-205.566
1690201886.691,-70.801,-21.973,-35.156,-70.312,-122.070
1690201886.695,13.184,-19.531,-23.926,-4.395,-8.789
1690201886.699,60.059,-14.648,-30.762,40.039,15.625
1690201886.702,5.859,-9.766,-23.438,10.254,-4.883
1690201886.706,-66.895,-17.090,-20.020,-39.062,214.355
1690201886.710,-78.613,-21.484,-24.902,-66.406,59.082
1690201886.714,-10.254,-23.438,-22.949,-22.461,-205.078
1690201886.718,72.754,-17.090,-29.297,59.570,-34.668
1690201886.720,46.387,-4.395,-43.945,49.316,34.668
1690201886.724,-49.805,-8.301,-42.969,-52.246,-94.238
1690201886.728,-79.590,-17.090,-41.992,-100.098,-203.613
1690201886.732,-15.625,-19.531,-44.922,-34.180,-5.859
1690201886.736,42.480,-17.578,-44.434,41.504,221.191
1690201886.740,15.137,-13.672,-53.711,17.578,44.434
1690201886.744,-44.922,-19.531,-53.223,-56.152,-75.684
1690201886.747,-67.383,-20.996,-47.852,-90.820,1.465
1690201886.751,-4.883,-7.812,-45.410,-41.504,124.023
1690201886.755,68.848,-5.859,-45.898,21.484,-70.801
1690201886.759,36.621,-13.672,-47.363,7.324,-135.742
1690201886.763,-42.969,-11.719,-47.852,-47.852,-112.793
1690201886.767,-73.242,-12.695,-51.270,-87.402,-212.402
1690201886.771,-29.785,-19.043,-49.316,-62.500,-195.801
1690201886.775,51.270,-19.043,-34.180,16.602,-93.262
1690201886.779,51.758,-15.625,-26.855,34.668,62.012
1690201886.783,-15.625,-7.812,-30.273,-24.902,-30.762
1690201886.787,-68.848,-14.648,-31.250,-82.520,-173.340
1690201886.791,-39.551,-27.344,-38.086,-67.871,-72.266
1690201886.794,37.109,-22.949,-41.016,11.719,245.605
1690201886.798,44.922,-13.184,-37.109,33.203,177.734
1690201886.802,-20.996,-18.066,-33.203,-23.438,-79.590
1690201886.806,-71.289,-18.066,-34.668,-77.148,-101.074
1690201886.810,-46.387,-12.695,-31.250,-70.312,-116.699
1690201886.810,22.461,-16.113,-26.855,0.488,-104.492
1690201886.814,47.363,-16.113,-32.715,35.645,-18.066
1690201886.818,-2.930,-16.602,-46.875,-20.508,-34.668
1690201886.822,-53.711,-19.043,-42.480,-75.684,9.766
1690201886.826,-39.551,-20.996,-34.180,-71.289,33.203
1690201886.830,33.203,-18.066,-34.668,-0.977,-50.293
1690201886.834,62.500,-16.113,-32.227,48.828,90.332
1690201886.837,7.812,-19.043,-29.785,11.719,418.457
1690201886.841,-81.055,-19.531,-34.668,-72.754,97.168
1690201886.845,-71.289,-24.414,-35.156,-88.867,-271.973
1690201886.849,20.020,-20.996,-32.227,-16.113,-172.852
1690201886.853,54.199,-13.672,-28.320,31.250,-106.934
1690201886.856,5.371,-13.184,-29.297,0.977,-181.641
1690201886.860,-62.988,-15.137,-27.344,-67.383,-208.008
1690201886.864,-66.406,-17.578,-36.621,-88.867,-133.301
1690201886.868,2.930,-24.902,-40.039,-34.180,-89.844
1690201886.872,58.105,-26.855,-24.414,37.598,-99.121
1690201886.876,10.254,-23.438,-28.320,23.438,-29.785
1690201886.880,-64.941,-24.414,-34.180,-40.527,297.852
1690201886.883,-74.219,-25.879,-29.297,-78.613,150.879
1690201886.887,0.000,-17.578,-28.809,-44.922,-176.270
1690201886.891,55.176,-8.789,-24.414,31.250,-83.008
1690201886.895,29.297,-16.113,-23.438,25.391,91.797
1690201886.899,-44.922,-20.020,-32.715,-57.617,-84.473
1690201886.900,-64.453,-20.508,-36.133,-97.656,-240.723
1690201886.904,-2.930,-22.461,-36.133,-46.875,-192.383
1690201886.908,29.297,-18.066,-40.527,8.789,-70.312
1690201886.912,20.020,-18.555,-38.574,7.324,24.414
1690201886.916,-44.922,-23.438,-40.527,-61.523,-127.441
1690201886.920,-78.613,-25.391,-39.062,-96.191,-20.996
1690201886.924,-31.738,-33.203,-27.832,-43.457,465.820
1690201886.927,37.109,-28.320,-26.367,11.230,190.430
1690201886.931,34.180,-22.461,-34.668,15.625,-136.230
1690201886.935,-30.273,-21.973,-37.109,-35.645,21.484
1690201886.939,-83.008,-20.508,-27.344,-86.426,-101.074
1690201886.943,-54.199,-27.344,-22.949,-77.637,-250.977
1690201886.947,29.297,-35.645,-30.273,-17.090,-153.320
1690201886.951,48.340,-36.621,-34.668,15.625,-19.043
1690201886.955,-26.367,-27.344,-37.109,-47.852,-114.258
1690201886.959,-86.914,-23.926,-26.367,-114.258,-241.699
1690201886.963,-45.898,-24.414,-20.996,-81.543,-145.020
1690201886.967,31.738,-23.926,-26.855,0.977,112.305
1690201886.971,49.805,-19.531,-29.785,31.250,88.867
1690201886.974,-13.184,-20.508,-30.273,-31.738,-106.934
1690201886.978,-62.988,-20.020,-27.832,-80.078,-122.559
1690201886.982,-40.039,-18.066,-22.949,-32.227,125.488
1690201886.986,11.719,-27.832,-22.949,3.418,33.203
1690201886.990,42.969,-30.762,-15.137,12.207,-75.195
1690201887.005,4.883,-17.578,-17.578,-17.578,52.246
1690201887.009,-62.988,-17.578,-34.180,-79.590,-5.371
1690201887.013,-44.922,-28.320,-40.039,-76.660,-116.699
1690201887.017,20.020,-35.156,-38.086,-15.137,-90.820
1690201887.021,43.945,-31.738,-36.133,36.133,119.629
1690201887.025,16.113,-28.320,-36.133,10.254,352.539
1690201887.029,-48.340,-32.227,-36.621,-64.941,90.820
1690201887.032,-60.059,-31.250,-40.527,-87.891,-112.793
1690201887.036,6.348,-32.227,-36.133,-28.320,27.832
1690201887.040,52.246,-32.227,-31.738,27.344,167.969
1690201887.044,16.602,-26.855,-36.133,0.000,-92.773
1690201887.048,-45.898,-24.902,-40.039,-52.246,-209.961
1690201887.051,-53.223,-30.762,-31.738,-74.219,-108.887
1690201887.055,4.395,-38.086,-31.738,-30.762,-58.105
1690201887.059,61.523,-26.855,-39.062,34.668,-12.695
1690201887.063,43.945,-16.602,-37.109,37.598,-57.129
1690201887.067,-39.062,-21.973,-34.180,-24.902,55.176
1690201887.071,-69.824,-25.391,-42.480,-66.895,26.855
1690201887.075,-13.672,-24.414,-41.504,-31.738,-65.918
1690201887.078,51.270,-24.414,-39.551,39.062,-37.598
1690201887.082,40.039,-26.855,-37.109,57.129,211.914
1690201887.086,-30.762,-22.461,-33.203,-15.137,76.172
1690201887.090,-66.895,-20.508,-38.086,-69.824,-255.371
1690201887.094,-29.785,-26.367,-38.574,-41.504,-191.406
1690201887.095,39.551,-26.367,-38.574,26.855,-77.148
1690201887.099,39.551,-19.043,-34.668,37.109,-33.691
1690201887.103,-31.250,-22.461,-30.762,-30.273,-80.078
1690201887.107,-77.148,-27.344,-34.180,-80.078,-20.996
1690201887.111,-31.738,-30.762,-29.297,-47.852,54.688
1690201887.115,41.504,-31.250,-31.250,21.973,50.293
1690201887.119,46.875,-28.809,-31.738,50.293,60.547
1690201887.122,-17.578,-27.344,-35.156,2.930,48.828
1690201887.126,-69.336,-22.949,-40.527,-51.758,243.652
1690201887.130,-46.387,-26.367,-28.809,-47.363,-5.371
1690201887.134,16.602,-32.227,-28.809,11.230,-200.684
1690201887.138,43.457,-27.344,-33.203,48.340,-49.316
1690201887.141,-2.930,-24.414,-29.297,-5.371,-107.422
1690201887.145,-71.777,-26.367,-31.250,-76.660,-234.375
1690201887.149,-64.453,-27.832,-30.273,-62.500,-223.633
1690201887.153,18.066,-24.902,-27.832,-4.883,-81.543
1690201887.157,55.664,-26.855,-26.367,33.691,-10.742
1690201887.161,-9.277,-30.762,-26.855,-5.859,6.348
1690201887.165,-83.984,-26.855,-31.738,-72.266,35.645
1690201887.168,-61.035,-20.020,-28.320,-60.547,294.922
1690201887.172,16.602,-18.066,-32.227,-7.324,258.789
1690201887.176,51.270,-20.996,-33.691,24.414,-130.859
1690201887.180,0.488,-25.879,-31.250,-3.906,-215.332
1690201887.184,-64.941,-23.438,-34.668,-58.105,-168.945
1690201887.185,-43.945,-23.438,-40.039,-72.754,-211.426
1690201887.189,43.945,-26.855,-27.344,-5.371,-192.871
1690201887.193,69.824,-31.738,-13.672,48.340,-76.660
1690201887.197,7.324,-28.809,-18.066,20.996,30.762
1690201887.201,-69.824,-23.438,-21.973,-49.316,-37.109
1690201887.205,-84.961,-33.203,-28.809,-82.031,-77.148
1690201887.209,-12.207,-42.969,-32.227,-23.438,113.770
1690201887.212,51.758,-38.574,-26.855,41.504,378.906
1690201887.216,8.301,-30.273,-32.715,20.508,97.168
1690201887.220,-74.219,-26.855,-33.691,-48.828,-185.547
1690201887.224,-83.008,-30.762,-19.043,-82.520,-26.367
1690201887.228,-21.484,-27.344,-22.461,-27.344,26.367
1690201887.231,41.016,-26.367,-31.738,32.227,-104.980
1690201887.235,32.227,-37.109,-22.949,26.855,-27.832
1690201887.239,-36.621,-32.227,-26.367,-37.109,24.414
1690201887.243,-65.430,-20.508,-32.715,-79.590,-78.125
1690201887.247,-2.930,-18.066,-32.227,-37.598,-130.371
1690201887.251,55.664,-22.461,-27.832,37.598,-27.344
1690201887.255,42.969,-28.320,-25.879,52.734,255.371
1690201887.258,-28.320,-22.461,-28.809,-20.996,102.539
1690201887.262,-75.195,-18.555,-31.738,-65.918,-191.406
1690201887.266,-26.855,-29.297,-27.832,-29.297,-156.738
1690201887.270,54.688,-29.297,-27.344,35.645,-26.367
1690201887.274,44.434,-20.996,-30.273,60.547,-27.344
1690201887.276,-25.391,-24.414,-33.203,6.348,-51.758
1690201887.280,-70.801,-26.367,-34.668,-50.293,-68.848
1690201887.284,-32.715,-25.879,-22.949,-26.855,-56.641
1690201887.288,54.199,-28.809,-9.277,44.922,-33.203
1690201887.292,65.430,-26.367,-13.672,65.918,-98.145
1690201887.296,-3.906,-20.996,-24.902,14.648,50.781
1690201887.300,-67.871,-20.508,-23.438,-35.156,446.777
1690201887.303,-52.734,-23.438,-23.926,-38.574,119.141
1690201887.307,19.043,-24.902,-29.297,26.855,-233.887
1690201887.311,66.895,-18.555,-32.715,72.266,-29.785
1690201887.315,12.207,-15.137,-28.320,22.949,-71.289
1690201887.319,-80.566,-27.344,-25.879,-56.152,-279.297
1690201887.350,-74.707,-34.180,-25.879,-68.359,-229.492
1690201887.354,10.254,-25.879,-21.973,12.207,-19.043
1690201887.358,44.922,-24.414,-25.391,60.547,62.988
1690201887.362,-2.441,-28.320,-32.227,32.227,-64.453
1690201887.366,-67.383,-22.949,-31.738,-36.133,-177.734
1690201887.370,-66.895,-20.020,-33.203,-49.805,167.480
1690201887.374,0.488,-17.578,-33.691,15.137,81.543
1690201887.377,38.574,-13.672,-37.598,48.828,-212.402
1690201887.381,10.254,-18.066,-35.156,21.973,-90.332
1690201887.385,-60.059,-24.414,-28.320,-30.273,57.129
1690201887.389,-81.055,-26.855,-35.156,-64.453,-130.371
1690201887.393,-5.371,-26.855,-40.527,-0.488,-241.211
1690201887.381,58.594,-25.391,-41.016,75.195,-95.703
1690201887.385,28.809,-21.484,-31.738,51.758,-44.434
1690201887.389,-52.734,-26.367,-27.344,-25.879,-128.418
1690201887.393,-53.223,-29.785,-32.227,-48.828,-153.320
1690201887.397,1.465,-27.832,-34.668,-2.930,-69.336
1690201887.401,44.922,-30.762,-34.668,46.387,238.770
1690201887.405,21.973,-27.832,-39.551,32.227,200.195
1690201887.408,-51.758,-19.043,-36.621,-32.227,-4.883
1690201887.412,-69.824,-9.277,-25.879,-65.430,-56.641
1690201887.416,-20.020,-16.113,-20.508,-38.574,-128.418
1690201887.420,42.480,-21.973,-28.809,32.715,-157.227
1690201887.424,39.062,-24.414,-34.668,48.340,-150.391
1690201887.425,-37.109,-33.203,-32.715,-12.695,43.457
1690201887.429,-77.637,-27.832,-37.109,-58.105,166.992
1690201887.433,-42.480,-20.020,-35.156,-50.293,-166.992
1690201887.437,27.344,-20.020,-36.621,15.625,-160.156
1690201887.441,45.898,-13.184,-40.527,49.805,20.020
1690201887.445,-33.691,-14.648,-40.039,-10.742,14.648
1690201887.449,-83.984,-26.855,-43.457,-78.125,-68.359
1690201887.452,-62.012,-32.715,-35.156,-68.848,24.414
1690201887.456,7.324,-31.250,-27.832,19.043,200.684
1690201887.460,41.016,-28.809,-32.715,54.688,12.207
1690201887.464,-24.414,-22.949,-33.691,-7.812,-191.406
1690201887.468,-72.266,-17.578,-28.320,-63.477,-151.367
1690201887.470,-42.969,-19.531,-31.250,-54.688,198.242
1690201887.474,14.160,-18.555,-35.156,9.277,61.523
1690201887.478,48.828,-16.113,-33.691,64.453,-162.109
1690201887.482,25.391,-19.531,-32.715,43.457,26.855
1690201887.486,-51.270,-20.020,-37.109,-44.434,144.531
1690201887.490,-75.684,-21.484,-43.945,-86.426,-35.645
1690201887.494,0.000,-19.531,-44.434,-14.648,-147.461
1690201887.497,49.316,-15.625,-41.992,49.805,78.613
1690201887.501,10.254,-20.508,-44.434,9.766,238.281
1690201887.505,-62.988,-19.531,-50.293,-78.613,-81.543
1690201887.509,-65.918,-14.160,-45.898,-89.355,-201.660
1690201887.513,12.207,-13.672,-39.551,-18.066,-10.254
1690201887.518,62.012,-14.160,-35.645,41.992,36.621
1690201887.522,1.953,-18.066,-38.574,9.277,-109.375
1690201887.526,-62.012,-22.949,-44.922,-57.617,-166.504
1690201887.530,-65.918,-31.250,-42.969,-80.566,-158.203
1690201887.534,-5.859,-36.133,-36.133,-32.227,-123.535
1690201887.538,59.082,-25.391,-31.250,36.133,14.648
1690201887.542,28.320,-20.508,-29.785,14.160,44.434
1690201887.545,-38.574,-23.926,-33.203,-50.293,170.898
1690201887.549,-56.152,-20.020,-38.574,-84.473,12.207
1690201887.553,-12.695,-18.066,-37.109,-54.688,-220.703
1690201887.557,57.129,-12.695,-32.227,22.949,-125.977
1690201887.561,34.180,-9.277,-32.715,15.137,-102.539
1690201887.561,-39.551,-19.043,-37.109,-53.223,-133.301
1690201887.565,-62.500,-15.625,-37.598,-85.938,-165.527
1690201887.569,-13.184,-13.672,-33.691,-44.434,-32.715
1690201887.573,51.270,-29.297,-32.227,32.715,146.973
1690201887.577,47.852,-24.414,-32.715,43.457,79.590
1690201887.581,-9.766,-13.184,-33.691,-26.367,20.020
1690201887.585,-52.246,-22.461,-37.598,-77.148,70.312
1690201887.588,-26.855,-29.785,-31.738,-49.316,351.562
1690201887.592,38.086,-28.320,-34.180,7.324,272.461
1690201887.596,50.781,-19.531,-37.109,11.719,-80.566
1690201887.600,-7.324,-9.766,-32.227,-42.969,-96.680
1690201887.604,-68.848,-13.184,-32.715,-98.145,-184.570
1690201887.606,-31.250,-16.113,-35.645,-80.566,-228.516
1690201887.610,48.340,-12.207,-36.133,-3.906,-131.836
1690201887.614,41.016,-19.531,-34.180,26.855,-10.742
1690201887.618,-20.996,-23.438,-30.273,-21.973,-1.465
1690201887.622,-68.359,-22.949,-31.738,-91.797,-166.504
1690201887.626,-47.852,-21.484,-31.738,-77.637,-55.176
1690201887.630,27.344,-17.090,-25.879,-3.418,406.738
