timestamps,TP9,AF7,AF8,TP10,Right AUX
1685718663.423,-48.828,-13.672,-23.438,-30.273,51.270
1685718663.427,-117.188,-19.531,-16.602,-77.637,-175.781
1685718663.431,-92.285,-29.785,-17.090,-65.918,-245.605
1685718663.435,14.160,-26.367,-12.695,-11.719,7.812
1685718663.439,59.570,-28.320,-29.297,8.301,118.164
1685718663.443,-21.484,-40.039,-47.852,-30.762,-21.973
1685718663.447,-102.539,-29.297,-28.320,-67.871,-99.121
1685718663.450,-84.473,-28.320,-14.648,-53.711,4.395
1685718663.454,13.672,-15.625,-33.691,-6.348,117.676
1685718663.458,70.312,-10.254,-38.574,9.277,-42.480
1685718663.462,-4.395,-27.832,-20.508,-16.602,-140.137
1685718663.466,-88.867,-14.160,-11.719,-62.012,-152.344
1685718663.471,-75.684,-18.555,-23.438,-65.918,-202.637
1685718663.475,1.953,-21.973,-26.855,-16.113,-166.992
1685718663.479,51.270,-21.484,-26.855,19.531,27.344
1685718663.483,-13.672,-44.922,-27.832,-12.695,132.324
1685718663.487,-120.605,-41.504,-41.016,-87.891,-70.312
1685718663.491,-117.188,-41.992,-39.062,-84.473,-180.664
1685718663.495,-0.977,-38.086,-20.996,-15.625,-17.090
1685718663.498,71.289,-12.207,-24.902,16.602,317.383
1685718663.502,21.973,4.883,-18.066,-12.207,132.812
1685718663.506,-56.152,-15.137,-17.578,-41.992,-193.848
1685718663.510,-86.914,-25.391,-40.039,-72.266,-187.988
1685718663.514,-47.363,-23.926,-47.363,-53.223,-141.113
1685718663.514,13.184,-35.156,-42.969,-12.207,-101.074
1685718663.518,0.977,-35.645,-32.227,-29.297,-46.387
1685718663.522,-86.914,-26.855,-25.879,-73.730,3.906
1685718663.526,-125.000,-22.461,-33.691,-93.262,16.113
1685718663.530,-39.551,-17.090,-35.645,-48.828,-8.301
1685718663.534,54.688,-17.090,-21.484,10.742,55.664
1685718663.538,32.715,-27.344,-20.020,3.418,291.016
1685718663.541,-69.824,-35.645,-35.645,-48.340,454.590
1685718663.545,-118.652,-26.855,-40.039,-80.566,4.883
1685718663.549,-53.711,-35.156,-18.555,-54.688,-302.734
1685718663.553,33.691,-63.965,-20.508,2.930,-96.680
1685718663.557,30.762,-53.223,-48.340,-7.324,-64.453
1685718663.561,-59.570,-37.598,-45.410,-57.617,-182.129
1685718663.565,-111.328,-29.785,-26.367,-67.383,-227.539
1685718663.569,-56.641,-17.578,-36.133,-38.086,-172.363
1685718663.573,34.180,-17.578,-43.457,1.465,-125.000
1685718663.577,51.758,-27.344,-35.156,15.625,-123.047
1685718663.581,-48.340,-34.180,-35.156,-36.621,41.992
1685718663.585,-139.648,-35.645,-29.785,-98.145,211.914
1685718663.588,-94.727,-41.504,-25.879,-80.566,-82.031
1685718663.592,20.020,-37.598,-20.996,-11.230,-163.086
1685718663.596,53.223,-20.996,-38.086,4.883,-37.598
1685718663.600,-35.156,-25.391,-43.457,-42.969,-24.902
1685718663.604,-132.324,-28.809,-24.902,-86.914,-103.027
1685718663.619,-111.816,-21.973,-21.973,-79.590,-234.863
1685718663.623,-1.465,-37.109,-32.227,-22.949,-76.660
1685718663.627,44.434,-49.316,-31.250,5.371,311.523
1685718663.631,-20.020,-18.555,-27.344,-14.160,156.738
1685718663.635,-83.984,-10.254,-18.555,-53.711,-242.676
1685718663.639,-79.102,-30.762,-7.812,-67.871,20.508
1685718663.643,5.371,-23.926,-11.719,-11.230,534.180
1685718663.646,44.922,-20.996,-27.344,16.113,119.141
1685718663.650,-17.578,-30.273,-33.203,-25.879,-208.984
1685718663.654,-104.004,-32.227,-34.668,-77.637,73.730
1685718663.658,-107.910,-26.855,-18.555,-76.172,-25.879
1685718663.662,-16.113,-19.043,-2.441,-19.531,-243.164
1685718663.663,48.828,-15.137,-4.395,15.137,-104.492
1685718663.667,18.555,-4.395,-3.418,-0.488,-38.574
1685718663.671,-80.566,-8.301,-9.277,-53.223,-165.527
1685718663.675,-123.535,-12.207,-27.832,-88.867,-281.738
1685718663.679,-48.340,-10.254,-35.645,-60.059,-223.633
1685718663.683,31.738,-3.906,-20.508,-23.926,62.500
1685718663.687,0.000,0.000,-11.719,-44.434,110.352
1685718663.690,-111.328,-0.977,-2.930,-108.398,-175.293
1685718663.694,-158.203,-7.812,3.906,-129.395,-233.398
1685718663.698,-113.281,-32.715,-11.230,-104.980,107.422
1685718663.702,-88.867,-6.836,-10.742,-124.512,69.824
1685718663.706,-128.418,3.906,-10.742,-161.621,-78.125
1685718663.709,-214.844,-21.484,-0.488,-195.312,-86.426
1685718663.713,-258.789,11.230,23.926,-228.027,-140.137
1685718663.717,-202.637,24.414,11.230,-216.797,-179.688
1685718663.721,-135.742,3.418,-14.160,-182.617,-64.453
1685718663.725,-147.949,-13.672,-13.672,-187.012,134.277
1685718663.729,-234.375,-20.996,0.977,-219.238,145.508
1685718663.733,-245.605,0.977,0.000,-218.750,-129.883
1685718663.736,-149.902,-5.371,-11.230,-170.410,-231.934
1685718663.740,-48.340,-13.672,-6.836,-96.191,128.906
1685718663.744,-28.320,7.812,-23.926,-70.801,258.301
1685718663.748,-92.773,-14.160,-30.762,-99.121,-62.500
1685718663.752,-131.348,-53.711,-17.578,-97.168,-190.918
1685718663.770,-76.660,-40.039,-36.133,-56.641,-165.527
1685718663.774,20.996,-22.949,-40.527,-7.324,-58.105
1685718663.778,58.105,-20.508,-27.344,15.625,48.828
1685718663.782,-4.883,-14.160,-45.898,-4.395,10.742
1685718663.786,-66.406,-34.668,-64.941,-27.832,-4.883
1685718663.790,-31.250,-59.570,-54.199,-16.602,-36.133
1685718663.794,80.078,-43.457,-35.156,44.434,-46.387
1685718663.797,134.277,-43.457,-53.223,83.496,49.316
1685718663.801,53.223,-60.059,-69.824,37.109,264.648
1685718663.805,-41.016,-47.363,-32.227,-16.113,-11.230
1685718663.809,-16.602,-19.531,-23.926,1.465,-265.625
1685718663.813,76.172,-23.438,-53.223,40.039,-118.164
1685718663.799,121.582,-35.645,-64.941,65.430,-11.719
1685718663.803,66.406,-30.762,-41.992,48.340,-91.797
1685718663.807,-28.320,-27.832,-29.297,2.441,-193.359
1685718663.811,-44.922,-37.109,-45.898,1.953,22.461
1685718663.815,49.316,-47.852,-66.406,50.781,153.809
1685718663.819,127.441,-38.086,-57.617,79.102,68.848
1685718663.823,85.938,-32.715,-32.227,53.711,62.500
1685718663.826,-14.160,-16.113,-20.996,6.348,104.004
1685718663.830,-44.434,4.883,-21.484,-14.648,-113.281
1685718663.834,33.691,-5.371,-25.879,24.414,-227.539
1685718663.838,97.656,-27.344,-35.645,70.312,-74.707
1685718663.842,61.523,-41.992,-41.016,44.434,243.652
1685718663.845,-35.645,-45.898,-47.852,-5.371,297.852
1685718663.849,-59.082,-26.855,-27.344,-15.625,-177.734
1685718663.853,42.480,-21.484,-7.812,38.574,-250.977
1685718663.857,113.281,-30.762,-49.805,81.055,-49.316
1685718663.861,61.523,-28.809,-52.734,42.480,8.789
1685718663.865,-34.668,-11.719,-26.367,-13.184,-40.527
1685718663.869,-68.848,-2.441,-41.992,-20.508,-128.906
1685718663.872,-19.531,-14.160,-39.551,3.418,221.191
1685718663.876,43.945,-26.367,0.000,26.855,216.797
1685718663.880,44.922,-41.016,13.184,33.691,-112.305
1685718663.884,-23.438,-31.738,-21.484,-0.977,-118.164
1685718663.888,-93.750,-16.602,-44.922,-52.734,-148.926
1685718663.889,-45.410,-20.508,-30.273,-21.973,-198.242
1685718663.893,43.945,-33.203,-12.207,42.480,-136.230
1685718663.897,16.602,-41.504,4.883,16.113,60.059
1685718663.901,-76.172,-52.246,10.742,-41.016,96.680
1685718663.905,-136.719,-44.922,-5.859,-73.730,-134.277
1685718663.909,-90.820,-25.391,-21.973,-61.523,-213.379
1685718663.913,38.574,-32.715,-14.648,16.602,131.348
1685718663.916,74.707,-23.926,-16.602,56.641,484.375
1685718663.920,-21.973,-12.695,-29.297,-1.953,93.262
1685718663.924,-103.516,-20.508,-20.020,-48.340,-215.820
1685718663.928,-66.406,-20.996,-40.527,-25.879,-81.543
1685718663.932,41.504,-16.113,-40.039,22.461,-125.000
1685718663.935,81.543,-17.578,-27.344,32.715,-191.406
1685718663.939,6.836,-33.691,-19.531,-4.883,-142.090
1685718663.943,-87.402,-41.016,-3.418,-50.293,-39.551
1685718663.947,-66.406,-33.203,-30.273,-47.363,-150.391
1685718663.951,42.480,-21.973,-31.738,22.949,-192.383
1685718663.955,94.238,-12.207,-12.695,63.965,71.777
1685718663.959,17.578,-18.555,-48.828,10.254,334.473
1685718663.962,-105.957,-20.508,-54.199,-62.012,-51.758
1685718663.966,-102.051,-36.621,-24.902,-65.430,-340.820
1685718663.970,7.324,-28.320,-8.301,-10.254,-155.762
1685718663.974,57.617,-8.301,-16.602,20.508,-44.434
1685718663.978,-2.441,-33.691,-20.996,-13.672,-41.992
1685718663.979,-68.359,-21.484,-8.301,-47.852,-81.055
1685718663.983,-82.031,5.859,-26.367,-31.250,-160.645
1685718663.987,-23.438,-6.348,-60.059,-4.883,25.391
1685718663.991,53.223,-17.578,-24.414,16.113,178.223
1685718663.995,20.020,-32.715,-0.488,-6.836,-31.250
1685718663.999,-86.426,-37.598,-21.484,-53.223,32.227
1685718664.003,-118.652,-20.020,-30.273,-54.199,388.672
1685718664.006,-13.184,-15.137,-29.297,-6.348,-24.414
1685718664.010,70.801,-17.090,-21.973,34.180,-208.496
1685718664.014,34.668,-17.090,-41.992,16.113,37.598
1685718664.018,-52.734,-15.625,-41.992,-34.180,-97.656
1685718664.022,-101.074,-16.602,-23.438,-66.895,-267.578
1685718664.039,-40.039,-17.578,-27.344,-34.668,-208.984
1685718664.043,58.594,-25.879,-22.461,21.973,-27.344
1685718664.047,58.105,-20.020,-14.648,25.879,51.758
1685718664.051,-43.945,-7.324,-23.926,-29.785,-99.609
1685718664.055,-116.699,-13.184,-23.438,-74.707,-212.402
1685718664.059,-67.383,-11.230,-27.832,-45.898,173.340
1685718664.063,29.297,-8.789,-32.715,5.371,172.852
1685718664.066,42.480,-8.789,-23.926,18.555,-93.262
1685718664.070,-44.922,-20.508,-32.715,-25.391,-102.051
1685718664.074,-106.934,-40.527,-27.344,-65.918,-24.902
1685718664.078,-60.059,-35.156,-7.812,-34.668,-169.434
1685718664.082,45.898,-3.418,-29.785,18.555,-176.758
1685718664.083,75.195,-5.371,-32.227,29.297,20.508
1685718664.087,-23.926,-30.273,-19.043,-23.926,-6.348
1685718664.091,-120.117,-30.273,-21.484,-82.031,-99.609
1685718664.095,-84.961,-21.973,-21.973,-67.383,-130.859
1685718664.099,19.531,-22.949,-40.527,-6.348,129.883
1685718664.103,54.688,-21.484,-42.969,15.625,445.801
1685718664.107,-14.648,-30.762,-42.480,-27.832,108.398
1685718664.110,-106.934,-37.598,-30.273,-70.312,-176.270
1685718664.114,-77.148,-14.648,0.000,-41.992,-11.230
1685718664.118,33.203,-2.441,-4.883,23.438,121.094
1685718664.122,66.406,-20.508,-20.996,38.574,-75.684
1685718664.126,0.977,-18.555,-24.414,5.371,-119.141
1685718664.129,-101.074,-22.461,-43.945,-61.523,-91.797
1685718664.133,-94.727,-31.738,-38.574,-63.477,-186.035
1685718664.137,5.371,-27.832,-36.621,-7.812,-201.660
1685718664.141,45.410,-19.043,-54.199,13.184,-47.852
1685718664.145,-8.301,-4.883,-21.973,-10.254,110.840
1685718664.149,-87.402,-7.812,11.719,-50.293,-27.832
1685718664.153,-95.215,-12.207,-11.719,-60.547,-144.043
1685718664.156,-4.883,-12.207,-35.645,-8.789,-26.367
1685718664.160,59.082,-26.367,-63.965,27.344,332.520
1685718664.164,11.719,-35.645,-53.223,-2.930,258.789
1685718664.168,-81.055,-25.391,-19.531,-62.500,-140.137
1685718664.172,-97.656,-5.859,-12.207,-69.336,-230.469
1685718664.173,-22.949,-5.859,-23.926,-17.578,-186.035
1685718664.177,56.641,-25.391,-26.855,21.973,-146.973
1685718664.181,44.922,-28.809,-13.672,21.973,-49.805
1685718664.185,-65.430,-16.602,-36.133,-32.227,127.930
1685718664.189,-110.352,-11.719,-65.918,-55.664,33.203
1685718664.193,-27.344,-44.922,-53.711,-16.602,-117.188
1685718664.197,59.082,-42.969,-14.160,16.602,-24.414
1685718664.200,41.992,-14.648,0.000,13.184,213.867
1685718664.204,-55.176,-11.230,-23.926,-39.551,158.203
1685718664.208,-116.699,-15.625,-32.227,-82.520,-187.500
1685718664.212,-56.641,-20.996,-41.016,-50.293,-131.348
1685718664.216,59.082,-1.465,-41.504,20.508,57.129
1685718664.220,50.781,3.418,-29.785,14.648,-37.109
1685718664.224,-56.152,-16.113,-24.902,-51.270,-221.680
1685718664.228,-105.469,-19.043,-28.320,-82.031,-229.980
1685718664.232,-52.734,-16.602,-34.180,-49.805,-156.738
1685718664.236,48.340,-23.438,-41.992,10.254,-99.121
1685718664.240,78.613,-32.227,-45.898,32.227,-11.719
1685718664.244,-10.742,-51.270,-46.875,-19.531,133.301
1685718664.247,-105.469,-32.715,-39.551,-71.289,278.809
1685718664.251,-78.613,-8.789,-35.156,-57.617,-9.766
1685718664.255,36.133,-16.113,-20.020,0.977,-201.172
1685718664.259,76.172,-16.113,-21.973,25.879,-88.867
1685718664.263,-19.043,-19.531,-41.016,-31.250,-108.398
1685718664.265,-96.680,-32.715,-39.062,-84.473,-181.641
1685718664.269,-75.684,-33.691,-49.805,-59.082,-290.039
1685718664.273,18.555,-27.344,-47.852,6.836,-77.148
1685718664.277,88.379,3.418,-23.438,44.922,225.586
1685718664.281,19.043,2.930,-19.531,-9.766,-11.230
1685718664.285,-108.887,-31.250,-29.297,-89.355,-212.891
1685718664.289,-117.188,-41.504,-30.762,-82.031,61.523
1685718664.292,-2.441,-22.461,-27.832,-18.555,372.559
1685718664.296,61.035,-20.508,-36.133,7.324,62.012
1685718664.300,9.277,-33.203,-56.152,-10.254,-74.707
1685718664.304,-80.078,-22.949,-41.992,-56.152,-42.480
1685718664.308,-90.820,-7.324,-10.742,-53.711,-230.957
1685718664.310,5.859,-33.203,-18.555,10.254,-265.137
1685718664.314,71.777,-48.340,-31.250,38.086,-104.004
1685718664.318,20.020,-23.438,-19.531,-3.906,47.363
1685718664.322,-88.379,-24.414,-37.598,-72.266,-97.656
1685718664.326,-109.863,-29.785,-58.105,-68.848,-273.438
1685718664.330,-18.066,-19.043,-49.805,-15.625,-89.844
1685718664.334,55.664,-29.785,-25.391,9.277,463.379
1685718664.337,27.832,-55.176,-5.859,-2.441,366.699
1685718664.341,-77.637,-33.691,-8.301,-49.316,-166.992
1685718664.345,-125.977,-13.184,-33.203,-82.031,-262.207
1685718664.349,-40.527,-5.371,-57.617,-53.223,-189.453
1685718664.353,50.781,-0.488,-44.922,4.395,-114.258
1685718664.354,35.645,-10.254,-38.086,5.371,-57.129
1685718664.358,-66.895,-33.203,-24.414,-48.828,-143.066
1685718664.362,-115.234,-50.293,-5.371,-72.754,-204.590
1685718664.366,-54.688,-39.551,-10.742,-42.480,-141.113
1685718664.370,30.762,-23.926,-10.254,9.277,-124.512
1685718664.374,41.992,-20.508,-6.836,30.273,101.562
1685718664.378,-50.781,-20.996,-27.344,-10.742,413.086
1685718664.381,-127.930,-33.691,-49.805,-70.801,7.324
1685718664.385,-74.707,-42.969,-38.574,-54.199,-289.551
1685718664.389,32.715,-23.926,-25.391,7.324,24.902
1685718664.393,52.734,-0.977,-28.320,20.996,63.477
1685718664.397,-34.668,-8.301,-37.109,-35.156,-214.355
1685718664.413,-96.191,-19.043,-21.484,-66.406,-264.160
1685718664.417,-65.918,-34.180,-8.789,-48.340,-169.434
1685718664.421,11.230,-38.574,-31.250,-13.672,-122.559
1685718664.425,46.875,-15.625,-34.180,4.883,-69.336
1685718664.429,-24.414,-11.719,-36.133,-28.809,-55.176
1685718664.433,-114.746,-13.184,-28.320,-69.336,-33.203
1685718664.437,-95.703,-13.184,-13.672,-47.363,-29.297
1685718664.440,23.438,-27.344,-20.996,22.461,-101.562
1685718664.444,76.660,-32.227,-14.160,57.129,-11.230
1685718664.448,3.418,-16.602,-12.695,18.066,281.738
1685718664.452,-99.609,-21.973,-42.480,-54.688,28.320
1685718664.456,-111.816,-26.367,-39.062,-74.219,-219.727
1685718664.459,-14.160,-15.625,-22.461,-32.715,-55.176
1685718664.463,55.176,-11.719,-22.949,-6.348,46.875
1685718664.467,-3.906,-9.277,-23.926,-35.156,-22.949
1685718664.471,-93.750,-2.930,-18.555,-69.824,-65.430
1685718664.475,-92.773,25.391,-14.160,-62.988,-1.953
1685718664.479,-17.578,45.410,-24.414,-29.297,97.656
1685718664.483,42.480,32.227,-31.738,1.465,53.223
1685718664.486,-0.488,3.418,-27.832,-36.133,-98.633
1685718664.490,-88.867,5.859,-28.320,-81.543,-17.090
1685718664.494,-106.445,30.273,-34.668,-70.801,41.016
1685718664.498,-29.297,37.109,-39.062,-35.156,-196.777
1685718664.502,48.828,11.719,-20.020,-11.719,-118.164
1685718664.503,13.184,-13.672,-8.301,-26.367,62.988
1685718664.507,-88.867,-10.742,-13.672,-72.266,-116.699
1685718664.511,-120.117,-6.836,-28.320,-86.914,-266.113
1685718664.515,-44.434,-2.930,-22.461,-51.270,-180.664
1685718664.519,43.457,8.789,-3.418,-4.395,-36.621
1685718664.523,10.254,3.906,-17.090,-20.020,41.992
1685718664.527,-107.910,-9.766,-29.297,-96.680,-80.078
1685718664.530,-157.715,18.555,-1.465,-119.629,-129.883
1685718664.534,-102.539,36.621,14.648,-83.008,173.340
1685718664.538,-47.852,18.555,-6.348,-87.402,79.590
1685718664.542,-83.984,4.395,-10.254,-125.000,-99.609
1685718664.546,-201.172,2.441,-26.367,-191.895,-56.641
1685718664.549,-259.766,-2.441,-30.273,-239.258,-79.590
1685718664.553,-210.449,18.066,24.902,-215.820,-126.465
1685718664.557,-138.672,40.039,-3.906,-174.805,-121.094
1685718664.561,-133.789,15.625,1.953,-179.199,124.512
1685718664.565,-245.117,6.348,56.152,-244.629,242.188
1685718664.569,-328.613,9.277,0.000,-294.922,-80.078
1685718664.573,-251.953,-8.789,-40.527,-234.863,-179.199
1685718664.576,-110.840,-25.879,-22.461,-150.391,146.484
1685718664.580,-73.730,17.090,10.742,-138.184,240.234
1685718664.584,-131.348,37.109,18.066,-153.809,-104.492
1685718664.588,-182.617,18.066,-7.324,-167.969,-207.520
1685718664.592,-148.926,8.789,-14.648,-145.020,-153.809
1685718664.594,-30.273,-20.996,-24.902,-68.848,-167.969
1685718664.598,22.461,-12.207,-33.691,-27.344,-112.793
1685718664.602,-41.504,1.465,-41.992,-53.711,-77.637
1685718664.606,-114.746,-25.879,-53.711,-78.613,-9.766
1685718664.610,-86.426,-39.551,-71.289,-52.734,-86.914
1685718664.614,26.367,-41.504,-44.922,12.695,-71.289
1685718664.618,104.980,-28.320,-17.090,59.082,110.352
1685718664.621,56.641,-32.715,-21.484,48.340,367.676
1685718664.625,-45.898,-57.617,-53.711,-8.301,81.055
1685718664.629,-44.922,-50.781,-83.008,-18.066,-216.797
1685718664.633,39.551,-27.344,-71.289,30.762,-91.309
1685718664.637,110.352,-11.719,-43.457,69.336,-46.875
1685718664.638,70.801,-19.043,-39.062,58.594,-71.777
1685718664.642,-27.344,-33.203,-40.039,15.137,-178.223
1685718664.646,-19.043,-24.902,-19.043,20.996,-155.273
1685718664.650,45.410,-18.066,-36.133,62.012,48.828
1685718664.654,92.773,-50.293,-64.941,72.754,24.414
1685718664.658,72.754,-67.871,-58.105,49.316,-56.641
1685718664.662,-22.949,-54.688,-48.828,7.812,129.395
1685718664.665,-62.988,-20.508,-34.668,-10.742,429.688
1685718664.669,13.184,8.789,-46.875,13.184,46.387
1685718664.673,112.305,9.277,-39.551,70.801,-220.703
1685718664.677,88.867,-7.812,-20.508,70.801,54.199
1685718664.681,-11.230,-13.184,-28.320,7.812,-49.805
1685718664.686,-59.570,-21.484,-26.855,-23.438,-244.141
1685718664.690,-10.254,-21.973,-16.113,4.883,-201.660
1685718664.694,84.961,-20.996,-13.672,59.082,-46.875
1685718664.698,72.754,-33.203,-51.270,48.828,12.695
1685718664.702,-31.738,-47.852,-67.383,-3.418,-125.000
1685718664.706,-72.266,-33.691,-41.504,-4.883,-81.055
1685718664.710,-14.160,-3.418,-15.137,27.832,318.359
1685718664.713,74.219,-1.465,-18.066,49.316,188.965
1685718664.717,86.914,-8.789,-5.859,50.293,-21.973
1685718664.721,3.418,-4.395,4.395,24.902,25.879
1685718664.725,-74.707,-13.672,-24.902,-16.602,54.688
1685718664.729,-45.410,-32.227,-43.945,-16.113,-124.023
1685718664.744,55.664,-40.527,-40.039,43.945,-115.723
1685718664.748,85.938,-13.184,-46.875,65.430,20.996
1685718664.752,6.348,9.277,-71.289,20.996,-19.531
1685718664.756,-75.195,5.859,-38.086,-26.855,-128.906
1685718664.760,-53.711,9.277,11.230,-17.578,-238.770
1685718664.764,50.781,-9.277,14.160,35.645,84.473
1685718664.768,65.918,-37.109,-24.902,42.969,554.688
1685718664.771,-14.160,-27.344,-55.664,-10.254,155.273
1685718664.775,-88.867,-24.902,-45.410,-56.152,-213.867
1685718664.779,-69.336,-40.527,-29.297,-42.969,-135.742
1685718664.783,11.230,-36.621,-54.199,3.906,-83.984
1685718664.787,55.176,-16.602,-52.246,26.855,-27.832
1685718664.789,10.742,-8.301,8.789,-6.348,-35.156
1685718664.793,-83.984,-32.227,-5.371,-51.270,33.203
1685718664.797,-80.566,-29.785,-58.105,-42.969,-136.719
1685718664.801,13.184,-17.578,-44.434,-6.348,-216.797
1685718664.805,68.359,-20.508,-27.832,30.762,-32.227
1685718664.809,10.742,-28.809,-56.641,2.930,129.883
1685718664.813,-86.426,-25.879,-45.898,-49.316,62.988
1685718664.816,-83.496,-7.324,-19.043,-41.504,-137.207
1685718664.820,2.930,-1.953,-5.371,-2.930,-99.609
1685718664.824,73.242,-6.348,-7.324,36.621,271.973
1685718664.828,60.547,-13.672,-19.043,38.574,121.094
1685718664.832,-47.363,-36.621,-37.109,-30.273,-215.332
1685718664.835,-100.586,-31.738,-41.504,-62.500,-185.547
1685718664.839,-44.922,-19.531,-17.578,-40.527,-118.164
1685718664.843,32.227,-22.949,-10.254,-4.395,-76.172
1685718664.847,21.484,-24.902,-13.672,2.441,-55.176
1685718664.851,-73.730,-31.738,-9.766,-38.086,34.668
1685718664.855,-107.422,-38.574,-26.367,-57.129,199.707
1685718664.859,-30.762,-42.480,-25.391,-13.672,62.500
1685718664.862,53.223,-36.133,-22.949,32.227,-63.477
1685718664.866,30.762,-36.133,-20.996,19.531,120.605
1685718664.870,-76.660,-40.039,-14.648,-32.715,231.934
1685718664.874,-121.582,-44.922,-34.180,-71.777,-141.602
1685718664.878,-61.523,-56.641,-47.363,-43.457,-189.453
1685718664.879,40.527,-44.434,-59.570,6.836,-12.207
1685718664.883,59.570,-12.695,-33.691,31.738,-70.312
1685718664.887,-47.852,-11.230,-15.625,-25.391,-175.293
1685718664.891,-124.512,-32.715,-35.156,-75.684,-129.883
1685718664.895,-79.102,-34.180,-28.320,-47.852,-9.277
1685718664.899,18.555,-25.391,-4.395,8.301,14.160
1685718664.903,54.688,-7.812,2.441,34.668,-31.738
1685718664.906,-26.855,-15.625,-5.371,-11.230,-89.844
1685718664.910,-110.352,-26.855,-37.109,-50.293,145.996
1685718664.914,-62.500,-26.367,-24.414,-30.273,72.754
1685718664.918,36.621,-29.297,-12.695,7.812,-153.809
1685718664.922,55.176,-27.344,-27.832,10.742,-37.598
1685718664.924,-23.438,-20.020,-25.391,-38.574,-29.297
1685718664.928,-112.305,-7.812,-35.645,-66.406,-190.430
1685718664.932,-99.121,-16.602,-41.992,-53.223,-205.566
1685718664.936,2.930,-17.090,-17.090,-10.254,63.477
1685718664.940,68.359,-3.906,-13.184,23.438,164.062
1685718664.944,3.418,-26.367,-23.926,-6.348,22.949
1685718664.948,-78.613,-45.410,-22.461,-56.152,-109.375
1685718664.951,-81.543,-26.367,-11.719,-65.918,-23.438
1685718664.955,-19.043,-8.301,-20.996,-26.367,232.910
1685718664.959,58.105,-0.488,-38.086,12.207,-29.297
1685718664.963,20.996,-4.395,-27.344,-1.465,-167.480
1685718664.967,-82.031,-7.812,-14.648,-60.059,-156.250
1685718664.970,-118.652,0.000,-29.785,-87.402,-214.844
1685718664.974,-31.250,-13.672,-34.668,-35.645,-180.176
1685718664.978,59.570,-11.230,-19.531,18.555,-82.031
1685718664.982,22.461,-0.488,-20.020,1.953,13.672
1685718664.986,-74.219,-10.254,-16.113,-45.898,-109.863
1685718664.990,-116.211,-26.367,-37.109,-72.266,-189.453
1685718664.994,-49.805,-17.090,-57.617,-47.852,-58.594
1685718664.997,43.945,-14.160,-65.430,1.465,287.598
1685718665.001,24.902,-14.160,-70.312,-14.160,266.602
1685718665.005,-72.754,-11.230,-39.551,-72.266,-67.871
1685718665.009,-103.516,-7.324,-22.461,-83.496,-157.715
1685718665.013,-51.270,-18.555,-42.480,-54.688,-83.496
1685718665.029,29.297,-52.246,-48.828,-9.277,-82.031
1685718665.033,24.902,-38.086,-51.270,-2.441,-98.633
1685718665.037,-64.941,-12.207,-71.777,-35.645,-68.359
1685718665.041,-121.094,-25.391,-63.965,-67.383,12.695
1685718665.045,-66.406,-25.391,-51.758,-51.758,-61.523
1685718665.049,38.086,-8.789,-49.316,2.441,-8.789
1685718665.053,37.109,-11.719,-28.320,-0.977,306.641
1685718665.056,-63.477,-15.625,-19.043,-50.781,463.867
1685718665.060,-127.441,-12.207,-33.691,-74.707,-55.664
1685718665.064,-70.801,-30.762,-44.922,-49.805,-317.383
1685718665.068,35.645,-32.227,-48.340,-1.465,-41.504
1685718665.072,47.852,-13.672,-47.363,9.766,111.816
1685718665.060,-50.781,-19.043,-25.879,-35.645,-63.477
1685718665.064,-122.559,-30.273,-27.344,-74.219,-182.617
1685718665.068,-79.102,-24.902,-32.715,-46.387,-12.207
1685718665.072,15.625,-20.996,-25.391,5.371,-38.574
1685718665.076,42.480,-13.672,-30.273,20.508,-88.379
1685718665.080,-28.809,-16.602,-31.738,-26.855,1.465
1685718665.084,-111.328,-40.039,-40.527,-70.801,34.668
1685718665.087,-95.215,-35.645,-50.781,-54.199,-80.566
1685718665.091,0.488,-7.324,-37.598,-2.441,-166.016
1685718665.095,43.457,-11.230,-30.273,9.277,-35.156
1685718665.099,6.836,-11.719,-16.113,-15.625,20.508
1685718665.103,-81.055,-4.883,-9.766,-58.594,-121.582
1685718665.105,-100.098,-18.555,-31.250,-70.801,-213.379
1685718665.109,-9.277,-31.250,-45.898,-25.879,-19.531
1685718665.113,47.852,-20.996,-48.340,2.930,405.762
1685718665.117,6.348,-3.418,-61.523,-9.277,199.707
1685718665.121,-75.684,-14.160,-59.570,-58.594,-172.852
1685718665.125,-104.004,-36.133,-13.184,-78.125,-40.039
1685718665.129,-21.973,-26.855,3.906,-16.113,374.023
1685718665.132,66.895,-2.930,-8.789,40.039,122.559
1685718665.136,24.902,-5.859,-23.926,4.883,-188.965
1685718665.140,-90.332,-19.043,-36.621,-57.129,-116.211
1685718665.144,-116.699,-19.531,-34.668,-62.500,-205.078
1685718665.148,-22.949,-11.230,-28.809,-15.137,-257.812
1685718665.163,67.383,4.395,-24.902,28.320,-146.973
1685718665.167,42.480,15.137,-25.391,21.973,-45.898
1685718665.171,-62.012,-5.859,-30.762,-26.855,-115.723
1685718665.175,-124.512,-25.879,-15.625,-72.266,-246.094
1685718665.179,-54.688,-28.809,4.395,-38.574,-109.863
1685718665.183,42.969,-34.668,-5.371,24.902,332.031
1685718665.187,24.414,-44.922,-19.531,17.578,264.648
1685718665.190,-69.824,-51.758,-25.879,-39.551,-148.926
1685718665.194,-122.070,-47.852,-28.320,-70.801,-190.430
1685718665.198,-64.453,-45.898,-23.926,-27.832,109.863
1685718665.202,29.785,-55.176,-9.277,32.227,13.184
1685718665.206,50.781,-62.988,-5.371,40.527,-76.172
1685718665.208,-36.621,-50.293,2.441,-21.484,-51.758
1685718665.212,-108.887,-32.715,12.695,-56.152,-226.074
1685718665.216,-45.898,-39.062,-8.789,0.000,-192.383
1685718665.220,50.293,-32.715,-22.461,39.551,-41.016
1685718665.224,55.176,-40.527,1.953,36.133,108.398
1685718665.228,-39.062,-52.734,-2.441,-9.277,192.871
1685718665.232,-108.398,-45.898,-11.719,-51.270,-29.785
1685718665.235,-58.594,-15.137,-5.859,-17.578,-115.234
1685718665.239,30.762,-7.324,-39.551,25.391,94.238
1685718665.243,43.945,-30.273,-37.109,26.855,357.910
1685718665.247,-18.066,-20.508,4.395,-6.348,-16.602
1685718665.251,-98.633,-25.391,7.324,-52.734,-306.641
1685718665.253,-102.539,-51.270,-6.348,-51.758,-189.941
1685718665.257,3.418,-55.176,-25.391,8.301,-138.672
1685718665.261,71.777,-29.785,-36.621,39.551,-116.699
1685718665.265,0.488,-24.902,-14.160,-4.395,-77.148
1685718665.269,-97.168,-34.180,-16.602,-54.199,-99.121
1685718665.273,-79.102,-4.395,-32.227,-39.062,-77.637
1685718665.277,17.578,8.789,-4.883,22.461,-71.289
1685718665.280,57.129,-22.461,-6.348,36.621,-20.508
1685718665.284,-10.742,-34.180,-24.902,-6.836,364.746
1685718665.288,-102.539,-17.578,-35.645,-58.594,153.320
1685718665.292,-108.398,-11.719,-38.574,-64.453,-261.719
1685718665.296,-26.855,-17.578,-13.672,-25.391,-137.695
1685718665.299,40.039,-43.457,-2.930,13.672,35.645
1685718665.303,1.953,-45.410,-24.902,-1.953,-93.262
1685718665.307,-83.984,-6.836,-31.250,-54.199,-174.805
1685718665.311,-122.559,-1.953,-12.695,-73.730,10.742
1685718665.315,-46.875,-9.277,-23.926,-30.762,22.949
1685718665.319,56.641,-15.137,-30.273,21.973,-25.391
1685718665.323,27.832,-19.531,-29.785,7.324,-26.855
1685718665.326,-79.102,-28.320,-37.109,-43.945,44.434
1685718665.330,-112.305,-22.949,-46.387,-74.707,96.191
1685718665.334,-43.945,-8.789,-36.621,-52.734,-166.992
1685718665.338,61.523,-15.137,-4.395,16.602,-117.188
1685718665.342,69.336,-12.695,-22.461,30.273,96.680
1685718665.344,-41.504,-3.906,-45.410,-21.973,-75.684
1685718665.348,-118.652,-5.371,-23.926,-67.871,-313.477
1685718665.352,-69.336,-5.371,-28.809,-45.410,-166.016
1685718665.356,26.367,-4.883,-28.320,10.742,36.621
1685718665.360,39.551,-14.160,-8.301,4.395,27.344
1685718665.364,-57.617,-46.875,-12.695,-56.152,-45.410
1685718665.368,-127.930,-34.668,-29.297,-83.496,-68.359
1685718665.371,-64.453,-2.930,-28.320,-51.758,66.895
1685718665.375,36.621,-22.461,-40.527,2.930,16.602
1685718665.379,53.223,-38.574,-41.016,8.789,-106.445
1685718665.383,-26.367,-36.621,-41.016,-38.086,-57.617
1685718665.387,-103.516,-11.230,-38.086,-75.195,47.363
1685718665.390,-75.684,-0.977,-9.277,-68.359,-127.930
1685718665.394,33.691,-3.418,-9.277,-5.859,-129.883
1685718665.398,57.617,-4.395,-27.832,13.672,190.918
1685718665.402,-39.551,-17.090,-53.223,-40.527,242.676
1685718665.406,-119.141,-33.203,-53.223,-89.355,-121.582
1685718665.410,-85.938,-50.293,-28.320,-64.453,-242.188
1685718665.414,13.184,-55.664,-17.090,2.930,173.828
1685718665.417,44.922,-18.555,-24.902,31.250,463.379
1685718665.421,-34.180,3.418,-43.945,-21.484,22.461
1685718665.425,-115.234,-6.836,-43.457,-74.707,-276.367
1685718665.429,-82.520,-11.719,-22.461,-43.457,-197.754
1685718665.433,3.418,-20.996,-9.766,-11.230,-159.180
1685718665.435,36.133,-25.879,-15.625,-9.766,-99.121
1685718665.439,-24.414,-34.180,-13.184,-24.414,-104.980
1685718665.443,-108.887,-34.668,-10.742,-63.477,-166.992
1685718665.447,-118.652,-41.016,-29.785,-65.918,-187.500
1685718665.451,-18.555,-39.551,-21.973,-11.719,-153.809
1685718665.455,62.500,-33.691,-6.348,32.715,-7.812
1685718665.459,11.230,-46.875,-13.672,10.254,398.438
1685718665.462,-83.496,-35.645,-17.090,-51.270,198.730
1685718665.466,-101.562,-16.113,-20.020,-67.383,-275.391
1685718665.470,-34.668,-20.020,-43.945,-34.180,-269.531
1685718665.474,23.438,-28.320,-45.410,-2.930,-147.461
1685718665.478,4.883,-32.715,-26.855,-21.973,-166.016
1685718665.479,-73.242,-29.785,-26.367,-64.941,-263.672
1685718665.483,-107.422,-35.156,-24.902,-74.707,-244.629
1685718665.487,-30.273,-42.480,-14.160,-26.855,-127.930
1685718665.491,75.195,-40.527,-16.602,26.367,-13.184
1685718665.495,58.594,-28.320,-14.160,3.418,-97.656
1685718665.499,-65.430,-30.762,-12.207,-56.152,60.059
1685718665.503,-125.488,-22.461,-49.316,-73.242,393.555
1685718665.506,-54.688,4.883,-36.133,-32.227,23.926
1685718665.510,47.852,13.184,4.395,20.020,-167.480
1685718665.514,42.480,-9.277,-2.441,10.254,82.520
1685718665.518,-55.176,-23.438,-21.484,-44.922,-13.672
1685718665.522,-116.211,-27.832,-33.203,-63.965,-301.270
1685718665.538,-68.359,-36.621,-28.809,-32.715,-259.277
1685718665.542,23.438,-20.996,-20.508,19.043,-93.262
1685718665.546,36.133,-32.715,-40.039,17.578,-47.363
1685718665.550,-46.875,-64.453,-47.363,-29.785,-77.637
1685718665.554,-117.188,-63.965,-26.855,-73.242,-156.250
1685718665.558,-75.195,-20.508,1.465,-62.500,-59.570
1685718665.562,17.090,5.859,-3.418,-7.324,53.711
1685718665.565,40.039,-6.348,-16.602,15.137,-42.480
1685718665.569,-30.273,-10.742,-5.371,-14.648,-91.309
1685718665.573,-104.492,-6.836,-31.250,-53.223,200.195
1685718665.577,-83.496,-0.488,-52.734,-44.434,0.488
1685718665.581,0.000,-27.344,-33.203,-9.766,-196.777
1685718665.583,50.293,-46.875,-15.137,18.555,-22.949
1685718665.587,0.000,-22.949,-20.508,-8.301,-14.160
1685718665.591,-104.980,-17.090,-22.461,-62.988,-93.750
1685718665.595,-93.750,-20.508,-21.973,-54.199,-122.559
1685718665.599,20.020,-11.719,-15.625,9.277,3.906
1685718665.603,68.359,-11.719,-23.438,30.762,159.180
1685718665.607,-3.906,-15.137,-48.340,-18.555,64.941
1685718665.610,-107.422,-13.184,-47.363,-74.219,-88.379
1685718665.614,-109.375,-22.461,-40.039,-70.801,47.363
1685718665.618,-20.508,-20.020,-21.484,-26.367,258.301
1685718665.622,44.434,-19.531,5.859,3.906,12.207
1685718665.626,5.859,-48.340,-4.883,-19.531,-22.949
1685718665.628,-83.984,-42.480,-21.973,-64.453,106.445
1685718665.632,-103.027,-17.578,-48.828,-75.684,-121.582
1685718665.636,-25.391,-29.297,-56.152,-26.367,-212.891
1685718665.640,55.664,-35.156,-43.457,13.672,-50.293
1685718665.644,20.996,-22.949,-20.508,-10.742,26.855
1685718665.648,-87.891,-14.160,-21.484,-59.082,-39.551
1685718665.652,-132.324,-27.344,-39.551,-84.473,-93.262
1685718665.655,-57.617,-42.969,-29.785,-40.039,-55.176
1685718665.659,49.316,-26.367,-16.602,24.902,250.000
1685718665.663,43.945,-12.207,-19.043,16.113,110.840
1685718665.667,-83.496,-27.344,-25.391,-55.664,-166.992
1685718665.671,-152.344,-29.785,-52.734,-97.168,-161.133
1685718665.675,-75.195,-28.320,-60.059,-67.871,-154.297
1685718665.679,29.785,-17.090,-30.762,-15.137,-84.473
1685718665.683,25.391,-12.207,-38.086,-23.438,8.789
1685718665.687,-55.176,-7.812,-40.527,-66.895,155.762
1685718665.691,-118.652,-8.789,-56.152,-93.750,252.930
1685718665.695,-82.031,-10.742,-89.844,-90.332,14.648
1685718665.699,2.930,-7.324,-90.820,-54.199,-82.031
1685718665.702,27.344,-6.348,-68.359,-30.273,176.758
1685718665.706,-51.758,-13.184,-54.688,-64.941,253.906
1685718665.710,-126.465,-18.066,-60.059,-116.211,-190.918
1685718665.714,-79.102,-10.742,-49.316,-84.473,-301.758
1685718665.718,19.043,-16.113,-38.086,-19.531,-0.488
1685718665.720,44.434,-14.648,-30.273,-1.953,0.977
1685718665.724,-10.742,15.137,-32.715,-15.137,-166.504
1685718665.728,-84.961,1.465,-47.852,-51.758,-203.613
1685718665.732,-95.703,-29.785,-57.617,-70.312,-157.227
1685718665.736,5.371,-16.602,-54.199,-28.320,-62.012
1685718665.740,55.176,-11.719,-44.922,2.441,4.395
1685718665.744,-15.137,-21.484,-47.852,-20.508,62.012
1685718665.747,-89.355,-23.926,-35.645,-50.293,321.289
1685718665.751,-73.730,-3.906,-18.555,-51.758,150.391
1685718665.755,18.555,-12.695,-33.203,-12.207,-163.574
1685718665.759,80.566,-10.742,-29.297,30.273,-76.172
1685718665.763,17.578,13.672,-13.672,-2.930,-26.367
1685718665.764,-90.332,5.859,-38.574,-65.918,-146.973
1685718665.768,-101.074,-20.020,-53.223,-79.102,-276.855
1685718665.772,3.418,-17.578,-31.250,-32.227,-120.605
1685718665.776,59.570,-12.695,-41.504,3.906,50.781
1685718665.780,-1.953,-19.531,-37.598,-6.836,-27.832
1685718665.784,-82.031,-5.859,-6.348,-45.898,-86.914
1685718665.788,-106.445,-12.695,-26.367,-70.312,44.434
1685718665.791,-25.879,-28.809,-53.711,-18.555,446.289
1685718665.795,53.223,-32.715,-62.012,21.484,333.984
1685718665.799,21.973,-21.973,-48.828,-0.977,-4.883
1685718665.803,-67.871,-16.602,-36.621,-39.062,-101.562
1685718665.807,-104.980,-13.672,-33.691,-58.105,-248.047
1685718665.810,-29.785,-14.648,-18.066,-27.344,-224.609
1685718665.814,52.734,-9.277,-24.414,15.625,-56.152
1685718665.818,19.531,-17.578,-40.039,-9.766,-8.301
1685718665.822,-85.938,-23.926,-33.203,-75.195,-145.996
1685718665.826,-137.695,-15.625,-24.414,-100.586,-259.277
1685718665.830,-62.500,-21.484,-26.367,-73.242,-66.406
1685718665.834,36.133,-34.180,-31.250,-14.160,349.121
1685718665.837,34.668,-30.273,-38.086,-1.465,163.086
1685718665.841,-68.848,-17.578,-47.852,-63.477,-214.355
1685718665.845,-131.836,-13.672,-45.898,-102.539,-195.801
1685718665.849,-72.266,-10.742,-39.062,-70.312,35.156
1685718665.853,17.090,-26.367,-52.246,-29.297,12.695
1685718665.854,21.484,-35.156,-70.312,-26.367,-72.754
1685718665.858,-71.289,-24.414,-66.406,-75.195,-115.723
1685718665.862,-124.023,-13.672,-45.410,-113.281,-168.457
1685718665.866,-59.082,12.207,-39.062,-79.102,-139.648
1685718665.870,30.762,19.531,-48.340,-26.367,-140.137
1685718665.874,46.875,8.789,-40.039,0.000,143.555
1685718665.878,-40.039,-15.625,-37.109,-26.855,532.715
1685718665.881,-111.328,-12.695,-32.715,-81.055,15.625
1685718665.885,-82.520,-5.371,-46.387,-77.637,-323.730
1685718665.889,8.301,-32.227,-61.035,-21.973,-60.059
1685718665.893,57.617,-22.461,-27.832,6.348,-3.418
1685718665.897,-11.719,11.230,-9.277,-31.250,-132.324
1685718665.902,-98.633,-7.812,-26.855,-78.125,-172.852
1685718665.906,-86.426,-39.062,-45.410,-69.824,-60.059
1685718665.910,-0.488,-23.926,-29.297,-34.180,-87.891
1685718665.914,43.945,-21.484,-22.461,-11.230,-146.484
1685718665.918,-26.855,-33.691,-28.809,-39.062,-94.727
1685718665.922,-111.816,-11.230,-17.090,-77.148,-52.734
1685718665.926,-108.398,3.906,-31.738,-71.777,-40.527
1685718665.929,-29.785,-16.602,-42.480,-26.367,-26.855
1685718665.933,41.016,-35.645,-35.645,4.395,14.160
1685718665.937,1.465,-24.414,-46.387,-19.531,250.000
1685718665.941,-98.145,-23.438,-39.551,-71.289,-10.742
1685718665.945,-108.887,-36.133,-32.715,-86.426,-261.719
1685718665.958,-12.207,-21.973,-34.180,-39.551,-98.633
1685718665.962,63.965,6.348,-22.949,14.648,26.367
1685718665.966,8.301,8.301,-24.902,-12.695,32.715
1685718665.970,-110.840,-9.766,-31.250,-83.008,-61.035
1685718665.974,-150.879,-21.484,-18.555,-97.168,77.637
1685718665.978,-81.543,-30.273,-17.578,-68.359,486.328
1685718665.982,12.207,-18.066,-19.531,-36.621,211.914
1685718665.985,-1.953,-3.906,-23.438,-44.434,-134.277
1685718665.989,-109.375,-4.883,-21.973,-95.703,-21.484
1685718665.993,-163.086,-0.977,-19.531,-121.094,-1.953
1685718665.997,-84.961,-0.488,-22.949,-90.820,-159.180
1685718666.001,-6.836,-3.418,-12.207,-64.941,-102.539
1685718666.003,-39.551,5.859,-3.418,-84.473,20.508
1685718666.007,-153.320,17.090,-7.324,-134.766,-75.684
1685718666.011,-236.328,-12.207,3.906,-190.918,-231.934
1685718666.015,-190.430,-22.461,29.297,-184.570,-214.844
1685718666.019,-114.746,19.531,16.602,-152.832,-82.520
1685718666.023,-138.184,36.133,7.324,-187.500,34.180
1685718666.027,-253.418,20.508,6.836,-264.160,-36.133
1685718666.030,-311.523,22.949,-19.531,-288.574,-129.395
1685718666.034,-228.516,36.133,-18.555,-239.258,171.875
1685718666.038,-144.043,5.859,-20.996,-202.148,189.453
1685718666.042,-129.883,-2.930,-22.949,-194.336,-51.270
1685718666.046,-176.758,2.441,9.766,-212.402,-101.562
1685718666.049,-245.117,-8.301,0.000,-243.652,-208.008
1685718666.053,-196.777,7.812,-18.066,-202.637,-230.957
1685718666.057,-54.199,22.461,-20.508,-114.258,-174.316
1685718666.061,6.348,20.996,-46.875,-71.777,66.406
1685718666.065,-64.453,10.254,-68.848,-96.191,159.668
1685718666.069,-132.812,-10.742,-80.566,-125.977,-76.172
1685718666.073,-82.520,-9.766,-77.148,-107.422,-145.996
1685718666.076,23.438,6.836,-61.035,-55.176,169.434
1685718666.080,80.566,1.465,-84.473,-10.254,475.098
1685718666.084,45.898,0.488,-99.609,-16.602,56.641
1685718666.088,-45.410,2.930,-103.027,-67.383,-257.324
1685718666.092,-55.176,-13.672,-111.328,-61.035,-172.852
1685718666.095,53.223,-33.691,-84.961,20.508,-158.691
1685718666.099,138.184,-10.742,-67.383,80.566,-126.953
1685718666.103,86.426,8.789,-89.844,57.617,-26.367
1685718666.107,-13.672,-7.324,-90.332,13.184,-92.285
1685718666.111,-17.090,-36.621,-53.223,6.836,-211.914
1685718666.115,74.219,-39.062,-33.203,48.340,-104.492
1685718666.119,146.973,-21.484,-27.344,98.633,72.754
1685718666.122,100.586,-38.086,-37.109,69.824,325.684
1685718666.126,-4.883,-63.477,-62.500,2.930,86.426
1685718666.130,-37.598,-39.551,-72.754,-7.812,-269.043
1685718666.134,29.297,-23.926,-55.664,39.551,-83.496
1685718666.138,104.004,-31.250,-40.039,88.867,93.262
1685718666.138,77.148,-32.227,-58.105,60.059,-58.594
1685718666.142,-20.508,-29.297,-45.410,9.766,-166.504
1685718666.146,-51.758,-25.879,-22.461,9.766,-153.320
1685718666.150,14.648,-22.949,-37.598,29.785,5.859
1685718666.154,104.492,-22.461,-46.875,66.406,-14.648
1685718666.158,101.074,-31.738,-43.457,63.477,-96.680
1685718666.162,-2.441,-35.645,-56.641,3.906,113.281
1685718666.165,-62.500,-27.344,-65.430,-17.578,345.215
1685718666.169,-13.184,-40.039,-55.176,9.766,32.227
1685718666.173,83.008,-43.945,-34.180,49.805,-127.930
1685718666.177,86.914,-13.672,-21.973,53.711,41.504
1685718666.181,-23.926,-16.602,-20.020,5.371,-61.523
1685718666.201,-85.449,-40.527,-32.227,-38.086,-228.516
1685718666.205,-38.086,-43.457,-49.805,-19.531,-121.094
1685718666.209,60.059,-44.434,-46.875,42.969,132.812
1685718666.213,79.102,-35.645,-58.594,52.246,36.133
1685718666.217,-4.883,-18.066,-55.664,11.230,-152.344
1685718666.221,-68.848,-24.414,-22.949,-24.414,-56.152
1685718666.225,-35.156,-32.227,-24.414,-20.508,197.266
1685718666.228,40.527,-18.066,-39.551,11.719,0.977
1685718666.232,58.594,-23.438,-44.434,17.090,-120.605
1685718666.236,-13.184,-40.527,-45.898,-16.113,-49.316
1685718666.240,-83.008,-32.715,-35.156,-45.410,-118.652
1685718666.244,-41.504,-21.973,-21.484,-31.738,-195.312
1685718666.229,53.711,-31.250,-39.062,30.273,-150.391
1685718666.233,77.148,-28.320,-49.316,63.965,-27.344
1685718666.237,10.254,-15.625,-23.926,14.160,-9.766
1685718666.241,-68.848,-41.992,-19.531,-23.438,-92.773
1685718666.245,-56.641,-61.035,-27.832,-13.672,-88.867
1685718666.249,9.277,-30.762,-25.879,-2.441,115.234
1685718666.253,32.715,-12.207,-30.762,3.418,166.016
1685718666.256,0.977,-9.277,-44.922,-11.719,-22.461
1685718666.260,-87.891,-11.719,-62.988,-52.246,-191.895
1685718666.264,-97.656,-18.555,-41.016,-49.805,-79.590
1685718666.268,12.207,-13.184,-17.090,5.371,303.223
1685718666.272,68.359,-10.742,-28.809,30.762,178.711
1685718666.288,7.812,-20.020,-45.898,-1.953,-113.281
1685718666.292,-74.707,-27.344,-42.480,-44.434,-168.945
1685718666.296,-87.402,-27.832,-20.020,-47.852,-264.648
1685718666.300,-10.742,-15.625,-15.137,-0.488,-257.812
1685718666.304,62.012,-22.461,-22.949,41.992,-44.434
1685718666.308,31.250,-42.480,-29.297,19.043,150.879
1685718666.312,-59.082,-20.020,-32.715,-29.297,-55.176
1685718666.315,-94.238,-8.301,-22.949,-48.340,-214.355
1685718666.319,-35.156,-26.367,-17.090,-24.414,-70.312
1685718666.323,38.086,-27.344,-30.762,6.836,130.859
1685718666.327,30.273,-23.926,-30.273,-3.906,29.785
1685718666.331,-50.293,-20.996,-15.625,-37.598,-185.547
1685718666.333,-98.145,-12.695,-14.648,-62.012,-170.898
1685718666.337,-43.457,-18.555,-23.926,-36.133,140.137
1685718666.341,43.945,-32.715,-18.555,9.277,86.426
1685718666.345,50.781,-29.297,-29.297,17.090,-32.227
1685718666.349,-40.039,-27.832,-41.016,-24.902,14.648
1685718666.353,-104.004,-28.809,-46.387,-66.406,41.504
1685718666.357,-45.410,-20.508,-43.945,-35.645,-62.012
1685718666.360,44.434,-27.832,-20.020,18.555,-61.523
1685718666.364,54.199,-24.414,-17.090,29.297,202.148
1685718666.368,-35.156,-20.020,-27.344,-25.879,148.438
1685718666.372,-98.145,-23.926,-13.672,-61.523,-247.070
1685718666.376,-62.988,-26.367,-11.719,-36.133,-255.859
1685718666.380,21.973,-19.043,-21.973,3.906,117.188
1685718666.384,57.617,-9.277,-31.738,20.996,150.391
1685718666.388,-25.879,-20.020,-52.246,-24.902,-137.207
1685718666.392,-115.234,-27.344,-33.203,-76.172,-196.777
1685718666.396,-75.684,-26.367,-15.137,-54.199,-141.602
1685718666.400,46.875,-20.996,-29.785,18.555,-69.824
1685718666.404,60.547,-20.508,-26.855,14.160,-25.391
1685718666.407,-29.297,-23.438,-14.648,-43.945,-46.387
1685718666.411,-100.098,-28.809,-13.672,-66.895,127.441
1685718666.415,-88.379,-37.109,-12.207,-39.062,-60.059
1685718666.419,3.906,-47.852,-12.207,10.742,-151.367
1685718666.423,63.965,-53.223,-11.719,36.133,-2.930
1685718666.423,16.113,-51.758,-5.859,23.438,44.434
1685718666.427,-75.684,-61.035,-7.812,-13.672,-115.723
1685718666.431,-72.266,-64.453,-4.883,-9.277,-229.492
1685718666.435,13.672,-64.941,-5.371,35.156,60.059
1685718666.439,85.449,-67.871,-4.883,76.660,128.906
1685718666.443,51.758,-74.219,-3.418,71.289,-13.184
1685718666.447,-56.641,-74.707,-9.277,9.766,-49.805
1685718666.450,-73.242,-65.430,-6.348,0.000,16.113
1685718666.454,31.250,-60.547,-7.812,57.617,330.566
1685718666.458,119.141,-52.734,-13.184,88.379,135.254
1685718666.462,86.914,-42.480,-8.789,76.172,-93.750
1685718666.466,-7.324,-41.016,-9.766,34.180,-74.219
1685718666.471,-44.922,-62.500,-14.160,10.254,-181.641
1685718666.475,-4.395,-62.988,-29.297,26.367,-128.418
1685718666.479,64.453,-39.062,-33.691,59.570,31.738
1685718666.483,41.992,-26.855,-35.645,41.504,147.461
1685718666.487,-60.547,-25.879,-28.320,-12.695,-47.852
1685718666.491,-103.516,-35.645,-0.977,-26.367,-223.633
1685718666.495,-22.461,-40.039,15.137,7.812,-100.098
1685718666.498,78.125,-31.250,8.789,59.082,226.074
1685718666.502,67.871,-32.227,-7.324,56.641,138.184
1685718666.506,-23.926,-28.320,-0.977,0.488,-154.297
1685718666.510,-86.426,-20.020,-15.137,-41.504,-194.336
1685718666.514,-47.852,-42.480,-48.828,-30.762,-145.996
1685718666.513,40.039,-33.691,-40.039,11.230,-98.145
1685718666.517,50.781,-15.137,-45.410,26.367,-123.535
1685718666.521,-21.973,-23.926,-40.039,-7.324,-43.457
1685718666.525,-82.520,-20.996,-34.180,-41.992,-38.574
1685718666.529,-45.898,-12.207,-36.133,-22.949,-112.793
1685718666.533,41.992,-24.902,1.953,18.555,-28.320
1685718666.537,56.641,-33.691,19.043,30.273,203.125
1685718666.540,-26.855,-33.691,-1.953,-5.859,466.309
1685718666.544,-98.145,-18.066,-5.371,-48.340,132.812
1685718666.548,-73.730,-13.184,-7.812,-35.156,-215.820
1685718666.552,38.574,-27.344,-30.273,24.902,-37.109
1685718666.556,71.289,-37.109,-37.598,43.457,53.711
1685718666.560,-13.672,-31.250,-35.645,-6.348,-118.652
1685718666.564,-98.633,-28.809,-38.086,-66.895,-211.914
1685718666.568,-84.961,-23.926,-23.926,-57.617,-145.508
1685718666.572,17.578,0.488,20.996,4.883,-156.738
1685718666.576,63.965,-10.254,17.090,20.996,-146.973
1685718666.580,-7.324,-29.297,-31.738,-19.531,60.059
1685718666.584,-102.539,-24.414,-40.527,-66.406,250.000
1685718666.587,-101.074,-25.391,-29.297,-68.848,-2.930
1685718666.591,2.930,-20.508,-20.996,-8.789,-232.910
1685718666.595,77.148,-7.324,-23.926,38.086,-123.535
1685718666.599,13.184,-19.043,-23.438,8.301,86.426
1685718666.603,-109.375,-37.109,-29.297,-66.406,-123.047
1685718666.603,-105.957,-34.180,-36.133,-75.684,-321.777
1685718666.607,-7.812,-30.762,-33.691,-9.766,-202.148
1685718666.611,45.898,-36.133,-25.391,6.348,71.289
1685718666.615,12.207,-26.855,-17.090,-16.602,107.422
1685718666.619,-70.801,-23.438,-27.832,-54.688,-160.156
1685718666.623,-117.676,-29.785,-19.531,-80.566,-47.852
1685718666.627,-46.875,-31.250,-4.883,-32.715,386.719
1685718666.630,53.223,-16.602,-13.184,23.926,140.137
1685718666.634,34.668,-15.137,-17.578,10.254,-60.547
1685718666.638,-73.730,-29.297,-39.551,-42.969,31.250
1685718666.642,-90.820,-22.949,-60.059,-55.176,-142.578
1685718666.646,-16.602,-14.160,-45.410,-34.180,-272.949
1685718666.663,52.734,-17.578,-14.648,6.836,-129.395
1685718666.667,37.598,-31.250,-30.273,6.836,25.879
1685718666.671,-66.895,-43.457,-43.945,-52.734,-62.012
1685718666.675,-125.977,-51.270,-12.695,-80.566,-187.012
1685718666.679,-57.617,-28.809,3.418,-44.434,-85.449
1685718666.683,50.293,-6.836,-3.418,6.836,163.086
1685718666.687,45.410,-18.555,-21.973,7.812,186.523
1685718666.690,-52.734,-16.113,-21.484,-44.922,-57.617
1685718666.694,-108.887,-3.906,-15.625,-68.848,-151.367
1685718666.698,-53.711,-10.742,-24.414,-32.715,118.652
1685718666.702,51.758,-20.996,-26.367,16.602,81.055
1685718666.706,63.477,-27.832,-50.293,18.555,-68.359
1685718666.708,-37.598,-30.273,-82.031,-40.527,-53.711
1685718666.712,-120.605,-30.273,-51.270,-78.613,-84.961
1685718666.716,-95.703,-37.109,-6.836,-64.453,-156.250
1685718666.720,-1.953,-33.691,-6.348,-16.113,-79.590
1685718666.724,46.387,-16.602,-14.648,12.695,59.570
1685718666.728,-28.809,-11.230,-23.438,-26.855,145.996
1685718666.732,-116.699,-21.484,-45.898,-75.195,-49.316
1685718666.735,-94.238,-33.203,-53.223,-65.918,-280.273
1685718666.739,25.391,-16.602,-25.391,9.277,-25.391
1685718666.743,85.449,-21.973,-15.137,45.898,254.395
1685718666.747,2.441,-41.504,-39.551,-16.113,-39.551
1685718666.751,-105.957,-24.902,-44.922,-78.613,-232.422
1685718666.754,-102.051,-27.344,-29.785,-73.730,-152.832
1685718666.758,-5.371,-41.504,-18.555,-26.367,-23.926
1685718666.762,69.336,-16.113,-19.531,22.949,-35.156
1685718666.766,4.395,-15.625,-34.668,-0.488,-83.008
1685718666.770,-114.258,-21.484,-37.598,-70.801,14.160
1685718666.774,-122.559,-19.043,-26.855,-87.402,-10.254
1685718666.778,-38.086,-26.367,-30.762,-42.480,6.348
1685718666.781,41.016,-32.227,-26.367,12.207,63.965
1685718666.785,21.973,-22.461,-27.344,14.160,239.746
1685718666.789,-77.637,-20.020,-41.504,-51.270,-11.719
1685718666.793,-114.746,-26.367,-22.949,-88.379,-308.105
1685718666.797,-45.410,-24.414,-21.484,-48.340,-166.016
1685718666.799,44.434,-25.391,-21.484,10.254,-82.031
1685718666.803,20.508,-41.992,-6.836,-1.465,-94.727
1685718666.807,-87.891,-42.480,-24.414,-72.754,-169.922
1685718666.811,-127.441,-31.250,-46.875,-96.191,-104.004
1685718666.815,-60.547,-21.484,-45.410,-44.922,125.488
1685718666.819,35.156,-8.301,-24.902,0.977,136.230
1685718666.823,31.250,-27.832,-22.949,-9.766,63.965
1685718666.826,-79.590,-39.551,-36.133,-59.082,113.770
1685718666.830,-139.160,-17.578,-35.156,-79.102,243.164
1685718666.834,-60.547,-7.812,-24.414,-40.527,-64.453
1685718666.838,53.711,-12.207,-9.766,14.648,-151.367
1685718666.842,47.852,-26.367,-14.648,11.230,54.688
1685718666.844,-58.594,-34.668,-49.805,-47.852,-36.133
1685718666.848,-123.047,-26.855,-47.852,-83.008,-237.305
1685718666.852,-66.895,-27.344,-16.113,-54.199,-218.750
1685718666.856,31.738,-27.832,-12.207,3.418,-66.895
1685718666.860,52.734,-18.066,-5.859,24.414,4.883
1685718666.864,-28.320,-24.414,-10.742,-27.832,-27.344
1685718666.868,-92.285,-27.344,-19.531,-59.082,-138.184
1685718666.871,-78.613,-17.090,-30.273,-39.062,180.176
1685718666.875,8.789,-12.695,-33.691,-4.883,252.930
1685718666.879,51.270,-23.438,-31.250,11.230,-100.098
1685718666.883,-33.203,-31.250,-42.969,-20.996,-129.883
1685718666.887,-123.047,-24.414,-50.293,-76.172,-111.816
1685718666.888,-104.980,-17.090,-39.551,-69.824,-194.336
1685718666.892,5.859,-19.043,-17.090,-22.461,-150.391
1685718666.896,59.570,-31.738,-17.578,-5.371,37.598
1685718666.900,-0.977,-37.598,-15.625,-17.090,85.449
1685718666.904,-92.773,-35.645,-8.301,-67.871,-103.027
1685718666.908,-109.375,-32.227,-37.598,-93.750,-170.410
1685718666.912,-12.207,-36.621,-70.801,-39.062,127.930
1685718666.915,62.500,-18.066,-50.293,8.789,454.590
1685718666.919,-3.418,-15.625,-46.387,-29.297,125.488
1685718666.923,-105.957,-41.016,-40.527,-81.543,-128.418
1685718666.927,-115.234,-21.973,-32.715,-87.891,-92.285
1685718666.931,-37.109,-18.066,-37.598,-46.387,-164.551
1685718666.935,27.832,-34.668,-34.668,-12.695,-230.957
1685718666.939,-15.137,-44.434,-38.086,-31.738,-198.242
1685718666.943,-87.402,-39.062,-20.020,-75.195,-198.730
1685718666.947,-106.934,-26.855,-11.230,-72.754,-263.672
1685718666.951,-39.062,-26.367,-24.414,-36.621,-294.922
1685718666.955,60.547,-30.273,-41.504,13.184,64.453
1685718666.959,39.551,-32.227,-41.992,14.160,484.863
1685718666.962,-98.633,-29.297,-38.086,-82.520,96.191
1685718666.966,-158.691,-41.992,-37.109,-123.047,-264.648
1685718666.970,-67.871,-41.016,-30.273,-57.617,-138.184
1685718666.974,27.832,-43.457,-8.789,-5.371,14.648
1685718666.978,-22.461,-47.363,-43.945,-42.480,87.402
1685718666.980,-138.184,-25.879,-60.059,-113.770,-73.730
1685718666.984,-198.730,-29.297,-13.672,-150.391,-171.387
1685718666.988,-138.672,-22.461,-16.602,-117.676,-11.230
1685718666.992,-51.758,-27.344,-21.484,-77.148,41.504
1685718666.996,-74.707,-30.273,-5.859,-96.680,-89.844
1685718667.000,-159.668,-46.875,-19.043,-136.230,70.801
1685718667.004,-213.379,-64.941,-15.625,-152.832,434.082
1685718667.007,-158.203,-56.152,22.461,-131.348,84.961
1685718667.011,-46.875,-59.570,26.367,-80.078,-202.637
1685718667.015,-24.414,-51.758,13.672,-49.316,-63.965
1685718667.019,-116.699,-41.992,7.324,-86.914,-83.984
1685718667.023,-183.594,-59.082,-1.465,-116.699,-204.590
1685718667.026,-128.418,-71.289,9.277,-80.566,-177.734
1685718667.030,-22.461,-58.594,-4.883,-33.691,-0.977
1685718667.034,11.230,-44.434,-31.250,-20.996,93.262
1685718667.038,-58.594,-47.363,-47.363,-53.711,-68.359
1685718667.042,-139.648,-46.875,-30.762,-90.820,-152.344
1685718667.046,-114.746,-46.875,5.859,-66.895,206.543
1685718667.050,-8.789,-30.273,5.859,-20.020,213.867
1685718667.053,41.504,-17.578,0.488,6.836,-39.062
1685718667.057,-14.160,-27.344,-1.953,-15.625,-29.785
1685718667.061,-95.215,-14.648,-4.883,-48.340,92.773
1685718667.065,-84.961,-11.719,-8.301,-32.227,-130.371
1685718667.069,0.000,-45.898,-16.602,10.254,-209.961
1685718667.083,46.875,-49.805,-27.832,21.973,-73.730
1685718667.087,-0.488,-35.645,-37.109,-10.254,-78.125
1685718667.091,-97.168,-43.945,-19.531,-62.988,-154.297
1685718667.095,-102.539,-47.363,2.441,-66.406,-209.961
1685718667.099,5.371,-25.391,-5.371,-4.883,110.840
1685718667.103,65.430,-13.672,-9.277,26.367,533.203
1685718667.107,22.949,-12.695,-0.488,5.859,152.832
1685718667.110,-59.082,-11.719,-12.207,-31.250,-258.301
1685718667.114,-101.074,-27.344,-52.246,-59.082,-148.926
1685718667.118,-25.879,-28.320,-40.039,-27.344,-62.012
1685718667.122,61.523,-25.879,-14.648,15.137,-93.262
1685718667.126,12.207,-32.227,-31.250,-2.930,-45.410
1685718667.128,-96.191,-33.203,-30.273,-43.945,-37.598
1685718667.132,-113.770,-27.832,-19.531,-53.711,-141.113
1685718667.136,-25.879,-40.527,-13.672,-19.531,-186.035
1685718667.140,47.363,-48.340,-32.227,15.137,-92.285
1685718667.144,30.762,-21.973,-26.367,14.160,9.766
1685718667.148,-56.152,-7.812,-19.043,-33.691,-23.926
1685718667.152,-131.836,-32.715,-36.133,-80.566,-125.488
1685718667.155,-85.938,-40.039,-41.992,-46.387,-55.176
1685718667.159,16.602,-34.180,-35.156,15.625,332.520
1685718667.163,20.996,-27.832,-27.344,3.906,284.180
1685718667.167,-69.824,-18.555,-30.762,-55.664,-108.887
1685718667.171,-125.977,-23.438,-38.574,-78.613,-232.422
1685718667.174,-62.012,-24.414,-38.086,-42.969,-186.035
1685718667.178,50.293,-18.066,-23.926,21.973,-122.559
1685718667.182,51.758,-29.297,-21.973,15.137,-98.145
1685718667.186,-70.801,-38.086,-29.785,-55.176,53.711
1685718667.190,-149.902,-43.457,-53.223,-93.750,48.340
1685718667.194,-85.938,-39.551,-40.527,-53.711,-62.500
1685718667.198,22.949,-28.320,-24.414,5.859,-50.293
1685718667.201,42.480,-15.625,-17.578,9.277,165.527
1685718667.205,-44.922,-14.160,-13.184,-43.457,264.648
1685718667.209,-115.723,-24.414,-47.363,-77.637,-64.453
1685718667.213,-61.523,-22.461,-39.551,-41.992,-236.816
1685718667.217,5.859,-12.207,1.465,-17.090,-30.762
1685718667.219,34.180,-21.973,-10.742,-11.230,51.758
1685718667.223,-17.090,-44.434,-36.133,-31.738,-119.629
1685718667.227,-115.723,-38.574,-22.461,-81.543,-208.984
1685718667.231,-111.816,-29.785,-14.160,-71.289,-188.965
1685718667.235,-3.418,-32.227,-2.441,-9.277,-110.840
1685718667.239,53.711,-31.250,6.836,13.672,61.523
1685718667.243,-17.090,-41.992,-7.812,-33.691,150.879
1685718667.246,-109.863,-71.289,-4.883,-69.824,186.035
1685718667.250,-107.910,-66.406,-18.555,-70.312,-55.176
1685718667.254,-12.695,-27.344,-29.785,-30.273,-185.547
1685718667.258,49.316,-8.301,-31.738,5.859,-33.203
1685718667.262,-2.930,-11.719,-28.809,-3.906,-6.348
1685718667.264,-104.492,-34.180,-25.391,-47.852,-135.254
1685718667.268,-128.906,-34.668,-27.832,-76.172,-273.438
1685718667.272,-29.785,-18.555,-40.527,-27.344,-25.391
1685718667.276,50.293,-8.789,-35.156,17.090,285.645
1685718667.280,10.742,-2.930,-11.719,-5.859,49.316
1685718667.284,-96.191,-30.762,-15.137,-62.012,-133.789
1685718667.288,-134.277,-62.500,-14.648,-80.566,36.133
1685718667.291,-51.270,-45.898,-31.250,-45.898,292.969
1685718667.295,37.598,-32.227,-37.598,-4.883,9.277
1685718667.299,20.020,-24.902,-26.367,-10.254,-157.227
1685718667.303,-78.613,-17.090,-49.316,-70.801,-101.562
1685718667.307,-118.164,-14.160,-59.082,-85.938,-185.059
1685718667.340,-37.109,-18.555,-11.230,-27.832,-202.637
1685718667.344,45.410,-38.086,-1.465,-0.488,-94.727
1685718667.348,25.391,-35.645,-13.672,-14.160,64.941
1685718667.352,-68.359,-32.227,-18.555,-58.105,-84.473
1685718667.356,-133.301,-46.875,-34.180,-92.773,-271.484
1685718667.360,-85.938,-47.363,-41.016,-62.988,-115.723
1685718667.364,20.020,-39.551,-30.762,-4.883,397.461
1685718667.367,34.668,-13.672,-19.531,-4.395,337.402
1685718667.371,-30.762,2.441,-24.414,-35.156,-147.461
1685718667.375,-87.402,-15.625,-39.551,-67.383,-195.801
1685718667.379,-64.941,-30.273,-15.625,-62.012,-107.910
1685718667.383,26.855,-33.203,-2.441,-13.672,-138.184
1685718667.354,52.734,-24.902,-20.996,2.930,-134.766
1685718667.358,-38.574,-29.297,-33.203,-35.156,-111.816
1685718667.362,-112.305,-30.273,-39.551,-78.613,-125.000
1685718667.366,-64.453,-31.738,-17.090,-52.734,-101.074
1685718667.370,20.508,-35.156,-10.742,-2.441,-84.473
1685718667.374,45.898,-27.832,-30.273,6.348,111.816
1685718667.378,-21.484,-22.461,-28.320,-27.832,213.379
1685718667.381,-101.074,-10.254,-25.391,-72.266,-72.754
1685718667.385,-72.266,-10.742,-29.785,-61.523,-218.262
1685718667.389,20.508,-20.020,-28.809,-5.859,23.926
1685718667.393,60.547,-18.066,-23.438,20.508,88.867
1685718667.397,1.953,-16.602,-10.254,-0.488,-97.168
1685718667.413,-91.309,-18.555,-25.879,-43.457,-218.750
1685718667.417,-94.238,-13.672,-17.090,-44.434,41.992
1685718667.421,-8.789,-18.555,-20.020,-3.418,347.656
1685718667.425,55.176,-25.879,-41.992,21.484,50.293
1685718667.429,13.184,-31.250,-24.414,1.953,-47.852
1685718667.433,-91.309,-27.832,-19.043,-56.152,70.801
1685718667.437,-103.516,-16.113,-5.371,-59.082,-96.680
1685718667.440,0.977,-7.324,-9.766,0.977,-160.645
1685718667.444,65.430,-20.996,-36.621,28.809,-22.461
1685718667.448,19.043,-25.879,-18.555,3.418,300.293
1685718667.452,-88.867,-14.648,-27.832,-68.359,108.398
1685718667.456,-126.953,-17.578,-45.410,-94.727,-260.742
1685718667.460,-41.992,-42.969,-15.137,-34.180,-196.289
1685718667.464,48.828,-38.574,-13.672,13.184,-92.285
1685718667.468,32.227,-21.484,-41.504,0.977,-52.246
1685718667.472,-68.848,-27.344,-38.574,-41.016,-133.789
1685718667.476,-120.605,-36.133,-30.273,-70.801,-131.836
1685718667.480,-56.152,-27.832,-20.996,-47.363,117.188
1685718667.484,48.340,-20.996,-17.578,13.184,32.715
1685718667.487,57.129,-24.414,-18.555,33.691,-115.723
1685718667.491,-52.734,-19.531,-5.859,-17.578,7.812
1685718667.495,-131.348,-21.973,-2.441,-61.523,138.672
1685718667.499,-79.590,-26.855,-18.066,-43.945,-52.734
1685718667.503,19.043,-31.738,-27.344,3.906,-140.625
1685718667.503,29.297,-36.621,-27.832,15.625,52.246
1685718667.507,-62.988,-45.898,-46.875,-35.645,-29.297
1685718667.511,-133.301,-40.527,-58.594,-79.102,-279.785
1685718667.515,-84.961,-52.734,-60.059,-54.199,-249.512
1685718667.519,15.137,-56.641,-39.551,-1.465,-4.883
1685718667.523,41.992,-17.090,-20.020,15.137,104.004
1685718667.527,-35.156,-5.371,-1.953,-21.973,96.680
1685718667.530,-99.121,-21.973,10.254,-61.035,-45.898
1685718667.534,-69.336,-23.926,-24.902,-46.387,184.570
1685718667.538,9.766,-21.484,-52.734,1.953,264.160
1685718667.542,47.363,-22.461,-61.035,1.953,-51.758
1685718667.546,-34.180,-33.691,-43.457,-50.293,-124.023
1685718667.548,-126.465,-57.617,-10.254,-86.426,-100.098
1685718667.552,-78.125,-39.062,-7.324,-59.570,-125.488
1685718667.556,38.086,-1.465,-12.207,11.719,-123.535
1685718667.560,70.801,-4.883,-21.973,22.461,65.430
1685718667.564,-8.301,-18.066,-50.293,-32.715,244.629
1685718667.568,-107.422,-29.297,-56.152,-83.984,41.504
1685718667.572,-98.633,-23.438,-27.344,-74.219,-171.875
1685718667.575,5.371,-20.996,-17.090,-17.090,7.812
1685718667.579,60.547,-34.668,-13.184,11.719,251.465
1685718667.583,14.160,-35.156,-8.789,-18.066,-47.852
1685718667.587,-62.988,-28.320,-20.996,-61.035,-269.531
1685718667.591,-89.355,-22.949,-27.832,-58.594,-212.402
1685718667.595,-8.789,-7.324,-42.969,-16.602,-173.340
1685718667.599,58.105,-20.508,-48.340,6.836,-118.652
1685718667.603,6.836,-25.879,-51.758,-10.742,-33.203
1685718667.607,-95.215,-19.531,-51.270,-60.547,83.984
1685718667.611,-113.281,-20.996,-9.766,-67.871,-137.207
1685718667.615,-28.809,-18.555,-0.977,-24.902,-187.988
1685718667.619,44.434,-18.066,-20.996,5.859,154.297
1685718667.622,15.625,-21.484,-41.504,-12.207,319.824
1685718667.626,-91.309,-33.691,-45.898,-67.871,-61.035
1685718667.630,-131.836,-23.926,-15.137,-80.078,-277.832
1685718667.634,-51.270,-16.113,-25.879,-46.875,-86.914
1685718667.638,42.480,-27.344,-25.879,-11.230,148.926
1685718667.638,21.484,-14.648,-5.371,-21.973,-5.859
1685718667.642,-88.867,-13.672,-10.254,-75.195,-202.637
1685718667.646,-138.672,-21.484,-18.066,-100.098,-159.180
1685718667.650,-71.289,-11.230,-8.301,-66.406,-55.176
1685718667.654,22.949,-11.719,-1.465,-15.625,-59.082
1685718667.658,1.465,-14.648,-0.488,-35.156,-8.301
1685718667.662,-104.492,-9.277,9.766,-95.215,123.047
1685718667.665,-192.383,-21.484,8.301,-145.996,407.227
1685718667.669,-170.898,-20.996,-13.672,-149.902,113.281
1685718667.673,-73.730,-14.648,-11.719,-106.934,-186.035
1685718667.677,-73.242,-28.320,8.301,-116.211,-60.059
1685718667.681,-186.523,-27.832,29.297,-196.289,-146.484
1685718667.685,-271.484,-9.277,33.691,-247.070,-265.137
1685718667.689,-223.145,17.090,35.645,-223.145,-221.680
1685718667.693,-145.508,-5.859,34.668,-183.594,-67.383
1685718667.697,-141.602,-17.578,18.066,-186.523,-1.953
1685718667.701,-201.172,-12.695,1.953,-228.516,-98.145
1685718667.705,-270.996,-24.902,-9.766,-260.254,-128.418
1685718667.709,-233.398,-39.062,2.441,-224.609,178.711
1685718667.712,-124.023,-30.273,17.578,-163.574,165.039
1685718667.716,-66.895,0.977,20.020,-128.906,-32.715
1685718667.720,-116.211,2.930,11.230,-150.391,-13.184
1685718667.724,-195.801,-12.695,-0.488,-179.199,52.734
1685718667.728,-172.852,-24.414,-14.648,-165.039,-168.945
1685718667.744,-52.734,-30.273,-21.973,-95.703,-198.242
1685718667.748,45.410,-21.484,-20.996,-28.320,-45.898
1685718667.752,2.930,-16.113,-38.574,-31.250,23.926
1685718667.756,-101.074,-36.621,-45.898,-79.590,-28.809
1685718667.760,-94.727,-48.340,-40.039,-85.938,-261.719
1685718667.764,12.207,-51.758,-37.109,-22.461,-52.734
1685718667.768,93.750,-34.668,-46.875,34.180,431.152
1685718667.771,58.594,-20.508,-66.895,14.160,107.422
1685718667.775,-33.203,-26.367,-75.195,-24.414,-238.281
1685718667.779,-36.133,-22.461,-55.664,-0.488,-104.004
1685718667.783,48.828,-30.762,-34.668,50.293,-2.441
1685718667.787,118.164,-44.434,-29.785,76.660,-82.031
1685718667.776,74.707,-49.805,-27.344,52.734,-87.402
1685718667.780,-26.855,-56.641,-47.363,5.371,20.020
1685718667.784,-49.316,-41.504,-77.637,-1.953,-134.766
1685718667.788,35.645,-21.973,-84.961,42.969,-225.098
1685718667.792,125.977,-33.203,-70.312,86.426,-44.434
1685718667.796,102.051,-41.992,-58.594,71.777,103.027
1685718667.800,-0.488,-30.762,-52.246,22.949,47.363
1685718667.803,-51.758,-30.762,-50.293,-0.488,-165.039
1685718667.807,-4.395,-39.062,-59.570,17.578,-190.430
1685718667.811,80.566,-40.527,-38.574,71.289,229.980
1685718667.815,93.750,-31.250,-27.344,71.289,210.449
1685718667.819,12.695,-10.742,-38.086,17.578,-75.195
1685718667.833,-57.617,-26.855,-47.852,-12.207,-72.266
1685718667.837,-19.043,-44.922,-50.293,5.859,-95.703
1685718667.841,75.195,-31.250,-43.945,51.758,-79.102
1685718667.845,107.910,-13.184,-54.199,76.172,-18.555
1685718667.849,-1.465,-27.832,-44.434,21.973,50.781
1685718667.853,-88.867,-46.387,-17.090,-34.180,194.824
1685718667.857,-40.527,-52.246,-21.484,-21.484,-34.180
1685718667.860,62.500,-53.223,-22.949,38.086,-154.297
1685718667.864,91.797,-33.691,-22.949,58.594,51.758
1685718667.868,6.348,-28.320,-28.809,10.254,103.516
1685718667.872,-62.012,-24.414,-35.156,-30.762,-185.059
1685718667.876,-25.391,-6.836,-43.945,-5.859,-243.164
1685718667.880,73.242,-1.465,-35.156,47.363,-61.523
1685718667.884,97.656,-21.973,-31.250,62.988,-23.926
1685718667.888,9.277,-36.133,-19.043,14.648,-110.840
1685718667.892,-79.590,-41.992,-18.066,-34.180,-46.875
1685718667.896,-82.520,-50.293,-19.043,-34.668,69.336
1685718667.900,17.578,-25.879,-22.461,15.625,-20.020
1685718667.904,75.195,-7.324,-30.762,49.316,-50.293
1685718667.907,20.020,-9.766,-28.320,23.438,-52.246
1685718667.911,-52.246,-22.461,-36.133,-17.578,122.559
1685718667.915,-65.430,-31.250,-60.059,-20.508,6.348
1685718667.919,7.812,-7.324,-40.527,11.230,-133.301
1685718667.923,65.918,-8.789,-13.184,21.484,31.738
1685718667.923,12.207,-21.973,-38.086,-0.488,5.371
1685718667.927,-74.707,-28.809,-27.344,-33.203,-183.105
1685718667.931,-86.914,-34.668,1.465,-40.039,-206.055
1685718667.935,-10.742,-37.598,-20.508,-12.207,-12.207
1685718667.939,61.035,-23.926,-36.133,19.043,48.828
1685718667.943,34.668,-6.836,-19.531,13.672,3.418
1685718667.947,-60.059,-16.113,-43.945,-40.527,-55.664
1685718667.950,-96.191,-13.672,-45.898,-59.570,19.043
1685718667.954,-32.715,-20.996,-28.320,-9.277,368.164
1685718667.958,45.410,-26.855,-15.625,32.715,234.375
1685718667.962,32.227,-46.387,-9.277,21.484,-99.121
1685718667.966,-54.199,-56.641,-26.855,-13.672,-143.066
1685718667.970,-104.004,-20.508,-44.922,-52.734,-226.074
1685718667.974,-51.270,-0.977,-46.387,-52.246,-235.840
1685718667.978,40.039,-0.977,-38.086,-9.277,-100.098
1685718667.982,39.062,-18.066,-52.734,-6.836,-1.465
1685718667.986,-60.059,-23.926,-64.453,-59.082,-107.910
1685718667.990,-114.746,-11.230,-72.266,-88.867,-190.918
1685718667.994,-50.293,4.395,-83.008,-54.688,-65.918
1685718667.997,41.504,4.883,-91.309,-19.043,293.457
1685718668.001,62.012,-10.254,-86.914,-20.020,261.719
1685718668.005,-10.742,-12.207,-88.379,-56.641,-147.461
1685718668.009,-86.914,10.254,-102.051,-97.656,-258.789
1685718668.013,-51.270,20.020,-114.746,-68.359,-170.898
1685718668.013,64.941,30.273,-119.141,-3.418,-120.117
1685718668.017,102.539,46.875,-108.887,6.348,-106.445
1685718668.021,23.438,45.410,-84.961,-24.902,-30.762
1685718668.025,-54.688,28.320,-84.473,-56.641,-1.465
1685718668.029,-36.621,7.812,-127.441,-58.105,-185.547
1685718668.033,62.012,-14.160,-109.863,-9.277,-120.605
1685718668.037,108.887,-16.602,-71.289,23.926,257.812
1685718668.040,33.691,9.277,-59.570,-15.137,250.000
1685718668.044,-53.711,10.254,-45.898,-57.617,-135.254
1685718668.048,-23.438,16.113,-45.410,-38.574,-270.996
1685718668.052,60.547,23.438,-67.383,8.301,74.219
1685718668.056,93.750,10.742,-72.266,20.508,345.215
1685718668.060,23.926,7.324,-50.293,-21.973,-75.195
1685718668.064,-68.848,10.742,-54.199,-65.918,-291.016
1685718668.068,-66.406,-5.371,-57.617,-71.289,-203.125
1685718668.072,21.973,-18.066,-48.340,-23.438,-141.113
1685718668.076,95.703,-6.836,-47.363,25.879,-87.891
1685718668.080,46.875,-6.348,-40.039,9.766,-22.461
1685718668.084,-57.129,0.488,-21.973,-32.715,219.238
1685718668.087,-63.477,13.184,-16.113,-35.645,24.414
1685718668.091,8.301,-9.766,-41.016,-5.859,-221.680
1685718668.095,59.570,-16.113,-42.480,27.832,-63.477
1685718668.099,33.691,-9.277,-34.668,17.578,36.621
1685718668.103,-57.129,-25.391,-52.734,-41.504,-122.070
1685718668.105,-96.191,-20.508,-63.965,-71.777,-223.145
1685718668.109,-12.207,-4.883,-31.250,-18.066,-41.504
1685718668.113,72.754,-3.906,-4.395,30.762,136.230
1685718668.117,32.715,-22.461,-14.648,8.301,79.102
1685718668.121,-72.754,-11.230,-32.715,-48.828,-147.949
1685718668.125,-120.605,-5.859,-32.715,-69.824,11.719
1685718668.129,-42.480,-17.090,-22.461,-21.973,440.918
1685718668.132,65.430,-5.371,-20.996,25.391,180.176
1685718668.136,64.453,-0.977,-29.785,20.020,-84.961
1685718668.140,-32.715,-9.766,-31.738,-21.973,-40.039
1685718668.144,-102.539,-24.902,-39.062,-60.059,-136.719
1685718668.148,-54.199,-29.297,-29.297,-41.016,-192.383
1685718668.164,53.223,-28.809,0.977,22.949,-73.242
1685718668.168,76.172,-21.484,1.953,33.691,57.617
1685718668.172,-20.996,-25.879,-19.531,-13.672,-44.434
1685718668.176,-93.750,-20.508,-33.691,-48.340,-145.020
1685718668.180,-63.477,-9.766,-35.156,-54.199,-132.812
1685718668.184,40.039,-15.137,-20.996,-10.254,201.172
1685718668.188,65.918,-20.508,-27.832,10.742,225.586
1685718668.191,-31.250,-15.137,-32.227,-34.180,-127.930
1685718668.195,-115.723,-19.531,-35.156,-81.543,-133.789
1685718668.199,-80.078,-10.254,-57.617,-65.430,128.906
1685718668.203,17.090,3.906,-68.848,-11.230,0.977
1685718668.207,43.457,-7.324,-73.730,1.465,-76.172
1685718668.209,-32.715,-4.395,-46.875,-52.734,-44.434
1685718668.213,-108.887,-10.742,-6.348,-89.355,-166.504
1685718668.217,-85.938,-22.949,-10.254,-66.895,-129.395
1685718668.221,5.859,-5.371,-21.973,-17.090,-10.742
1685718668.225,68.359,10.254,-13.184,11.719,93.262
1685718668.229,1.953,-1.465,-28.809,-31.250,221.191
1685718668.233,-97.656,-28.320,-32.715,-76.660,12.207
1685718668.236,-99.609,-29.297,-25.879,-67.383,-221.680
1685718668.240,-5.371,-23.438,-56.152,-20.508,19.531
1685718668.244,55.664,-16.602,-59.082,13.672,357.422
1685718668.248,5.371,-6.348,-38.086,-13.184,50.293
1685718668.252,-90.820,-31.250,-16.113,-62.012,-183.594
1685718668.268,-109.375,-40.039,-13.184,-72.266,-177.734
1685718668.272,-16.113,-26.855,-31.738,-31.738,-180.664
1685718668.276,53.223,-15.625,-28.809,7.324,-125.977
1685718668.280,12.207,-11.719,-18.555,-10.254,-74.707
1685718668.284,-74.707,-16.113,-16.602,-49.316,-53.711
1685718668.288,-103.027,-23.926,-42.480,-68.359,-76.172
1685718668.292,-26.367,-31.738,-46.875,-32.715,-115.234
1685718668.295,70.801,-20.996,-16.113,34.180,-46.387
1685718668.299,35.156,-37.598,-3.418,18.066,408.203
1685718668.303,-87.402,-40.527,-8.789,-65.918,254.395
1685718668.307,-119.629,-24.902,-17.090,-86.914,-275.391
1685718668.311,-36.621,-36.133,-21.484,-32.715,-241.211
1685718668.298,48.340,-30.762,-21.973,18.066,-97.656
1685718668.302,38.086,-14.648,-35.156,15.137,-76.172
1685718668.306,-56.641,-19.043,-35.156,-38.086,-165.039
1685718668.310,-123.047,-30.273,-33.203,-71.777,-125.977
1685718668.314,-47.363,-23.438,-39.551,-31.738,5.859
1685718668.318,47.363,-32.227,-21.484,16.113,36.133
1685718668.322,33.691,-37.598,1.465,9.277,75.684
1685718668.325,-62.988,-32.715,-12.695,-52.246,56.152
1685718668.329,-121.094,-30.762,-25.391,-84.961,-141.113
1685718668.333,-58.105,-16.113,-20.020,-39.062,-244.141
1685718668.337,46.387,-11.230,-21.484,18.555,-150.391
1685718668.341,50.781,-39.551,-24.902,20.996,213.379
1685718668.344,-41.992,-43.945,-38.086,-32.227,380.859
1685718668.348,-111.328,-18.066,-50.293,-69.824,-114.746
1685718668.352,-71.289,-8.789,-32.715,-40.527,-273.926
1685718668.356,30.762,-23.926,-11.719,4.883,-41.016
1685718668.360,53.711,-51.270,-13.672,19.531,45.410
1685718668.364,-30.273,-54.688,-18.066,-23.438,21.973
1685718668.368,-126.465,-38.086,-31.250,-94.238,-7.812
1685718668.371,-102.539,-21.973,-37.109,-83.496,171.387
1685718668.375,25.391,-11.230,-39.551,-14.648,61.523
1685718668.379,82.520,-18.066,-30.762,31.738,-124.512
1685718668.383,19.531,-19.531,-24.902,6.348,-97.656
1685718668.387,-60.059,-12.207,-34.180,-40.527,-155.762
1685718668.389,-64.941,-29.297,-30.273,-46.387,-182.129
1685718668.393,21.484,-25.391,-26.855,-13.672,-104.492
1685718668.397,74.219,-12.207,-28.809,24.414,160.156
1685718668.401,4.883,-17.090,-40.527,5.859,362.793
1685718668.405,-83.984,-26.855,-55.664,-43.945,-9.277
1685718668.409,-71.777,-28.320,-46.875,-37.109,-234.375
1685718668.413,6.348,-27.832,-26.855,6.348,97.168
1685718668.416,75.195,-24.902,-16.602,32.715,398.926
1685718668.420,41.504,-19.531,-9.766,7.812,13.672
1685718668.424,-72.754,-30.762,-7.812,-42.969,-253.906
1685718668.428,-105.469,-24.414,-26.855,-60.059,-243.164
1685718668.432,-25.879,-29.785,-51.270,-29.297,-237.793
1685718668.435,57.129,-36.621,-26.855,11.230,-179.688
1685718668.439,31.738,-26.855,-8.789,2.441,-74.219
1685718668.443,-71.777,-26.855,-20.020,-46.875,-41.992
1685718668.447,-108.887,-26.367,-17.090,-63.965,-192.871
1685718668.451,-15.625,-18.066,-19.531,-15.137,-215.332
1685718668.455,74.707,-12.207,-34.180,30.273,-25.391
1685718668.459,47.363,-25.391,-27.832,12.695,496.094
1685718668.462,-71.289,-21.484,-35.156,-50.293,403.320
1685718668.466,-117.188,-7.324,-33.203,-85.449,-207.520
1685718668.470,-41.504,-26.367,-26.855,-40.527,-266.602
1685718668.474,48.828,-35.156,-43.457,20.996,-130.859
1685718668.478,48.340,-28.320,-28.320,16.602,-125.000
1685718668.479,-37.598,-27.832,0.977,-22.949,-207.031
1685718668.483,-90.820,1.465,13.672,-30.273,-231.934
1685718668.487,-69.824,-5.371,-11.230,-36.133,-74.219
1685718668.491,13.184,-28.320,-40.039,-6.836,95.703
1685718668.495,40.527,-28.320,-37.598,8.789,-39.062
1685718668.499,-42.480,-24.414,-19.531,-31.250,16.602
1685718668.503,-115.723,-26.855,-36.621,-61.035,353.027
1685718668.506,-67.871,-23.926,-28.809,-33.691,67.383
1685718668.510,47.363,-12.695,-2.930,7.324,-193.848
1685718668.514,67.871,-20.996,-20.508,6.836,49.316
1685718668.518,-19.531,-24.902,-31.738,-27.344,60.059
1685718668.522,-96.680,-28.809,-22.461,-64.941,-214.355
1685718668.538,-80.566,-32.227,-28.320,-45.898,-228.027
1685718668.542,23.926,-14.648,-25.391,14.160,-42.969
1685718668.546,68.359,-15.137,-14.648,27.344,-30.762
1685718668.550,-19.043,-24.414,-27.344,-25.879,-115.723
1685718668.554,-103.516,-27.344,-30.273,-66.406,-165.527
1685718668.558,-75.684,-19.531,-23.926,-50.293,-45.898
1685718668.562,28.320,-15.625,-31.250,2.441,46.387
1685718668.565,89.844,-39.551,-49.316,34.668,-38.086
1685718668.569,1.465,-33.691,-58.105,-18.066,-92.773
1685718668.573,-116.211,-0.977,-21.484,-73.242,167.969
1685718668.577,-110.840,0.977,-11.719,-71.289,33.203
1685718668.581,-12.207,-24.902,-22.949,-28.320,-220.215
1685718668.583,55.176,-35.156,-25.879,2.930,-92.285
1685718668.587,6.836,-32.227,-38.086,-14.648,-61.523
1685718668.591,-74.219,-17.578,-24.414,-43.945,-170.898
1685718668.595,-90.820,-31.250,-19.043,-56.641,-169.434
1685718668.599,-29.297,-39.062,-39.062,-30.762,-22.949
1685718668.603,46.875,-19.043,-47.852,1.953,204.590
1685718668.607,17.578,-13.672,-58.594,-14.648,135.254
1685718668.610,-95.703,-24.414,-37.109,-67.871,-144.043
1685718668.614,-121.582,-22.949,-5.859,-82.031,-76.660
1685718668.618,-17.578,-11.719,-0.977,-25.391,170.410
1685718668.622,78.125,-16.602,-19.043,26.367,12.695
1685718668.626,36.621,-43.457,-31.738,4.395,45.898
1685718668.628,-80.566,-44.922,-34.180,-55.664,146.484
1685718668.632,-124.023,-25.879,-41.504,-85.449,-121.094
1685718668.636,-58.105,-11.719,-46.875,-56.641,-213.379
1685718668.640,39.551,-15.625,-30.273,-4.395,-104.004
1685718668.644,50.781,-16.602,-10.742,4.395,-26.367
1685718668.648,-55.176,-19.531,-13.184,-52.246,22.949
1685718668.652,-96.680,-19.531,1.465,-71.777,-110.840
1685718668.655,-23.438,-17.578,-12.695,-33.203,-180.176
1685718668.659,41.016,-32.227,-59.082,1.465,199.707
1685718668.663,40.039,-32.227,-54.688,-1.465,125.488
1685718668.667,-38.574,-28.320,-31.738,-41.504,-151.367
1685718668.671,-110.840,-37.109,-21.973,-73.730,-108.398
1685718668.674,-71.777,-33.203,-24.902,-49.316,-146.484
1685718668.678,23.926,-26.855,-20.020,-0.488,-43.457
1685718668.682,50.781,-33.203,-8.789,14.648,88.867
1685718668.686,-32.227,-30.762,-24.902,-14.648,87.891
1685718668.690,-126.465,-16.602,-44.434,-72.754,156.738
1685718668.694,-115.234,-18.066,-32.227,-82.031,13.184
1685718668.698,-1.953,-22.949,-27.344,-21.484,-111.328
1685718668.701,54.688,-24.414,-27.832,9.277,46.387
1685718668.705,-23.926,-37.109,-21.484,-28.809,208.496
1685718668.709,-124.023,-43.945,-29.785,-85.449,-160.645
1685718668.713,-104.492,-27.832,-17.578,-75.684,-289.551
1685718668.717,8.301,-22.949,-11.230,-14.160,-89.355
1685718668.734,62.012,-24.902,-44.434,12.207,-66.895
1685718668.738,13.672,-14.648,-45.898,-12.695,-122.070
1685718668.742,-79.102,-25.391,-26.855,-62.500,-160.645
1685718668.746,-100.098,-37.109,-36.133,-61.523,-116.699
1685718668.750,-24.902,-28.320,-30.762,-22.949,-72.754
1685718668.754,44.434,-16.113,-32.715,6.836,41.504
1685718668.758,8.789,-17.090,-25.391,0.000,144.043
1685718668.761,-87.891,-11.230,-13.184,-46.875,257.812
1685718668.765,-94.238,-11.719,-25.879,-69.336,117.676
1685718668.769,-27.344,-29.297,-38.574,-41.504,-192.871
1685718668.773,29.785,-36.133,-44.922,0.977,-115.723
1685718668.777,-2.441,-27.344,-25.391,-8.301,-23.926
1685718668.763,-92.285,-17.090,-6.836,-58.105,-122.559
1685718668.767,-117.188,-15.137,-23.926,-78.125,-213.379
1685718668.771,-25.391,-11.230,-39.551,-22.949,-108.398
1685718668.775,64.453,-9.277,-33.203,23.438,83.984
1685718668.779,45.898,-23.926,-42.480,-2.441,-22.461
1685718668.783,-23.926,-22.461,-27.832,-23.438,-120.117
1685718668.787,-97.168,-16.602,-7.324,-62.988,11.719
1685718668.790,-68.359,-29.785,-11.719,-63.965,77.148
1685718668.794,13.184,-35.645,-20.020,-24.414,-8.789
1685718668.798,-5.859,-36.621,-21.973,-33.203,-46.875
1685718668.802,-88.867,-46.387,-19.043,-63.477,52.734
1685718668.806,-150.391,-57.617,-13.184,-88.379,275.391
1685718668.810,-104.980,-61.523,-3.418,-68.848,1.953
1685718668.814,-14.648,-83.008,-6.348,-12.695,-192.383
1685718668.818,1.465,-83.984,19.043,-3.418,-53.711
1685718668.822,-80.566,-61.523,32.227,-41.016,-107.422
1685718668.826,-164.062,-74.219,17.578,-99.121,-227.051
1685718668.830,-127.441,-80.566,7.324,-90.332,-91.797
1685718668.834,-21.973,-81.543,1.465,-19.531,238.281
1685718668.837,14.160,-82.031,-17.578,0.000,100.098
1685718668.841,-53.223,-63.477,-13.184,-33.691,-172.852
1685718668.845,-123.047,-39.551,6.348,-60.059,-134.766
1685718668.849,-89.844,-31.250,6.348,-35.645,39.551
1685718668.853,17.090,-23.926,-7.324,19.043,-28.809
1685718668.853,54.688,-19.043,-23.926,36.133,-139.160
1685718668.857,-30.273,-18.066,-27.344,-23.438,-148.926
1685718668.861,-134.277,-36.133,-32.715,-84.961,-145.020
1685718668.865,-120.605,-60.059,-24.902,-85.938,-110.352
1685718668.869,-11.719,-62.988,-8.789,-36.133,-130.859
1685718668.873,44.922,-51.758,3.906,7.324,159.668
1685718668.877,-24.902,-41.016,-0.977,-14.160,603.027
1685718668.880,-122.070,-33.203,-21.973,-62.988,166.016
1685718668.884,-114.258,-31.250,-35.645,-64.453,-279.297
1685718668.888,-15.137,-35.645,-40.039,-10.742,-141.113
1685718668.892,63.965,-27.344,-17.578,36.621,-100.586
1685718668.896,13.672,-25.879,-14.160,-1.953,-111.816
1685718668.901,-98.145,-27.344,-11.719,-64.453,-113.281
1685718668.905,-109.375,-17.578,2.441,-62.500,-39.062
1685718668.909,-23.438,-35.156,-18.066,-18.555,-31.738
1685718668.913,57.617,-26.855,-31.250,15.625,-98.633
1685718668.917,11.230,-17.578,-17.578,-1.465,-41.016
1685718668.921,-88.379,-44.922,-16.113,-49.805,59.570
1685718668.925,-103.516,-27.344,-18.066,-59.082,9.766
1685718668.928,-28.320,-9.277,-10.254,-11.719,-114.746
1685718668.932,53.711,-7.324,-27.344,32.715,-91.797
1685718668.936,26.855,-6.348,-49.316,23.438,204.590
1685718668.940,-71.289,-11.719,-31.738,-34.668,26.367
1685718668.944,-114.258,-20.508,-19.531,-69.336,-258.301
1685718668.959,-47.363,-32.227,-18.066,-37.109,-179.199
1685718668.963,44.434,-24.902,-13.672,7.812,-59.082
1685718668.967,37.598,-20.508,-24.414,4.395,20.508
1685718668.971,-49.316,-28.809,-35.156,-36.133,-84.473
1685718668.975,-108.887,-32.227,-31.250,-54.688,-121.094
1685718668.979,-62.012,-47.852,-32.227,-32.227,313.965
1685718668.983,43.945,-49.805,-46.875,15.137,262.695
1685718668.986,54.688,-28.809,-40.039,8.789,-23.926
1685718668.990,-53.711,-28.809,-29.785,-60.547,15.625
1685718668.994,-109.863,-30.762,-31.738,-78.613,-73.730
1685718668.998,-50.781,-26.855,-33.691,-37.109,-241.211
1685718669.002,40.527,-12.695,-30.762,12.695,-157.715
1685718669.018,53.711,-9.766,-26.367,10.254,7.324
1685718669.022,-19.531,-11.719,-27.344,-27.832,-53.223
1685718669.026,-86.914,-9.766,-29.297,-46.387,-221.191
1685718669.030,-68.848,-23.438,-40.527,-39.551,-244.141
1685718669.034,29.785,-28.320,-57.617,1.465,-32.715
1685718669.038,64.941,-38.086,-49.805,21.973,103.027
1685718669.042,-12.695,-41.504,-24.902,-20.508,10.742
1685718669.045,-98.145,-29.297,-33.203,-63.477,-25.879
1685718669.049,-95.215,-39.062,-45.898,-52.246,249.512
1685718669.053,22.949,-21.973,-44.922,-2.930,181.152
1685718669.057,80.078,-2.930,-18.555,26.367,-85.938
1685718669.061,0.977,-11.230,-6.836,-10.254,-32.227
1685718669.048,-76.172,-7.812,-14.160,-64.453,41.992
1685718669.052,-64.453,-1.953,-22.461,-52.734,-197.266
1685718669.056,15.625,-8.789,-33.691,0.000,-206.055
1685718669.060,63.477,-15.137,-25.879,17.578,83.496
1685718669.064,5.371,-29.785,-16.113,-23.926,162.598
1685718669.068,-95.215,-49.316,-21.973,-68.848,-58.105
1685718669.072,-107.910,-41.992,-41.016,-66.406,-173.340
1685718669.075,-12.207,-19.531,-57.129,-18.555,30.273
1685718669.079,56.641,-6.836,-31.250,12.695,58.594
1685718669.083,12.695,-7.812,-22.949,-13.184,-100.586
1685718669.087,-90.332,-15.137,-48.828,-61.035,-190.918
1685718669.091,-119.629,-26.367,-43.945,-69.824,-19.043
1685718669.094,-40.527,-36.133,-29.785,-30.273,253.906
1685718669.098,42.969,-28.320,-15.625,14.160,26.855
1685718669.102,29.785,-24.414,-23.926,3.906,-80.078
1685718669.106,-61.035,-22.461,-40.039,-53.223,-88.379
1685718669.110,-108.398,-11.719,-15.137,-71.777,-177.246
1685718669.114,-43.457,-23.438,-22.461,-28.809,-169.922
1685718669.118,52.246,-36.133,-56.152,17.090,-19.531
1685718669.121,41.504,-23.926,-32.227,12.207,309.570
1685718669.125,-68.848,-20.508,-22.949,-45.410,91.309
1685718669.129,-122.070,-23.926,-40.039,-76.660,-246.094
1685718669.133,-58.105,-29.785,-32.715,-37.109,-104.492
1685718669.137,30.273,-38.086,-18.066,6.348,48.340
1685718669.138,33.203,-29.297,-14.648,1.465,-5.371
1685718669.142,-53.711,-12.695,-19.531,-32.715,-140.625
1685718669.146,-104.492,-24.902,-31.738,-63.477,-93.262
1685718669.150,-56.641,-23.926,-44.434,-43.945,-23.438
1685718669.154,29.785,-8.301,-38.086,4.883,-85.449
1685718669.158,57.617,-13.184,-35.156,-1.465,-8.301
1685718669.162,-29.785,-15.137,-38.086,-41.992,119.629
1685718669.165,-114.746,-25.391,-28.320,-56.152,293.457
1685718669.169,-66.895,-47.852,-20.996,-30.273,-48.340
1685718669.173,34.180,-26.367,-22.461,5.371,-232.422
1685718669.177,39.551,-3.418,-33.203,-12.695,-103.516
1685718669.181,-54.688,-15.137,-26.855,-59.570,-160.645
1685718669.214,-125.488,-42.480,-20.508,-90.332,-233.398
1685718669.218,-115.723,-56.152,-56.152,-97.656,-242.676
1685718669.222,-55.176,-19.043,-74.219,-77.637,-7.324
1685718669.226,-11.230,16.113,-59.082,-65.918,-18.066
1685718669.230,-75.195,3.906,-40.527,-104.492,-215.820
1685718669.234,-179.688,-9.277,-43.457,-165.039,-128.906
1685718669.238,-184.082,-12.207,-41.992,-167.969,155.762
1685718669.241,-68.359,-20.508,-40.039,-95.215,30.762
1685718669.245,10.742,-15.137,-52.734,-51.270,-172.852
1685718669.249,-52.734,-10.254,-43.945,-90.820,-87.402
1685718669.253,-146.973,-18.066,-27.832,-133.301,-143.066
1685718669.257,-141.602,-18.555,-23.926,-123.535,-261.719
1685718669.244,-47.363,-15.137,-26.855,-68.848,-150.879
1685718669.248,22.949,-18.066,-32.715,-31.738,-66.406
1685718669.252,-1.953,-23.926,-37.109,-36.621,-32.227
1685718669.256,-99.121,-33.691,-44.922,-74.219,-25.879
1685718669.260,-105.469,-25.391,-34.180,-87.402,-134.277
1685718669.264,-8.301,-9.277,-29.297,-39.062,41.992
1685718669.268,59.570,-13.672,-32.227,-1.953,371.094
1685718669.271,34.180,-22.949,-28.809,-14.648,68.359
1685718669.275,-66.406,-25.879,-30.273,-58.105,-248.535
1685718669.279,-119.629,-25.879,-40.527,-93.750,-145.020
1685718669.283,-52.734,-18.066,-55.176,-60.547,-52.734
1685718669.287,43.945,-18.555,-30.762,2.441,-36.133
1685718669.275,34.668,-21.484,-15.137,11.230,-49.316
1685718669.279,-67.383,-23.438,-17.578,-39.551,103.027
1685718669.283,-113.770,-21.973,-18.066,-61.035,194.336
1685718669.287,-47.852,-19.531,-17.090,-27.344,-164.551
1685718669.291,42.969,-15.137,-13.184,12.695,-153.320
1685718669.295,34.668,-20.020,-30.762,0.488,151.855
1685718669.299,-66.406,-33.203,-48.340,-59.082,91.797
1685718669.302,-127.441,-32.715,-40.527,-88.379,-150.879
1685718669.306,-63.477,-33.203,-20.020,-50.293,-146.484
1685718669.310,33.691,-29.785,-9.766,-4.395,188.477
1685718669.314,45.410,-21.484,-33.203,-3.418,142.578
1685718669.318,-31.738,-7.812,-19.531,-31.738,-185.547
1685718669.334,-101.562,-9.766,-1.465,-68.359,-200.195
1685718669.338,-72.754,-14.648,-15.137,-58.105,-180.664
1685718669.342,9.277,-20.508,-36.133,-17.578,-69.824
1685718669.346,40.039,-34.668,-36.621,-1.465,57.617
1685718669.350,-34.180,-32.227,-35.156,-30.762,59.082
1685718669.354,-119.141,-27.832,-41.016,-77.637,181.641
1685718669.358,-86.914,-35.645,-39.551,-74.219,-46.387
1685718669.361,21.484,-22.461,-20.508,-15.137,-194.336
1685718669.365,64.453,-22.949,-10.254,13.184,125.488
1685718669.369,-20.996,-36.621,-17.578,-28.809,350.586
1685718669.373,-104.980,-33.203,-27.344,-77.148,-62.500
1685718669.377,-81.543,-24.414,-25.391,-56.641,-287.598
1685718669.378,0.488,-21.973,-23.438,-8.789,-107.910
1685718669.382,60.059,-19.531,-17.578,14.160,-30.762
1685718669.386,0.000,-25.879,-20.508,-18.066,-102.539
1685718669.390,-103.027,-31.250,-39.551,-62.988,-195.312
1685718669.394,-104.492,-20.508,-12.207,-62.500,-109.863
1685718669.398,-12.695,-30.273,-2.930,-18.555,-74.219
1685718669.402,55.664,-33.691,-43.945,16.602,-27.344
1685718669.405,1.953,-15.625,-53.223,-19.043,31.250
1685718669.409,-97.656,-16.602,-21.484,-66.406,175.293
1685718669.413,-112.793,-17.090,-11.230,-73.242,-10.254
1685718669.417,-24.902,-20.996,-21.973,-35.156,-105.469
1685718669.421,69.824,-28.809,-16.113,20.996,35.645
1685718669.423,45.410,-20.996,-13.672,9.766,31.738
1685718669.427,-73.730,-13.184,-30.762,-61.523,-162.109
1685718669.431,-113.770,-25.391,-43.457,-85.938,-226.562
1685718669.435,-45.410,-35.156,-46.875,-42.480,-45.898
1685718669.439,38.086,-35.156,-42.480,7.812,40.039
1685718669.443,21.973,-45.898,-30.273,4.883,77.637
1685718669.447,-73.242,-35.156,-22.949,-47.363,-26.855
1685718669.450,-122.559,-20.020,-22.461,-77.148,-90.332
1685718669.454,-68.359,-26.855,-34.180,-55.176,116.699
1685718669.458,38.086,-32.715,-33.203,1.465,0.977
1685718669.462,49.316,-20.508,-12.207,10.254,-92.773
1685718669.466,-70.312,-22.461,-17.090,-59.570,-79.102
1685718669.471,-140.625,-36.621,-32.715,-95.703,-137.695
1685718669.475,-72.266,-31.738,-39.062,-53.711,-178.223
1685718669.479,42.480,-25.391,-41.016,1.953,-51.758
1685718669.483,58.594,-38.086,-41.992,20.996,203.125
1685718669.487,-29.297,-37.109,-37.598,-14.160,3.418
1685718669.491,-97.656,-17.090,-32.715,-58.105,-232.910
1685718669.495,-60.059,0.000,-17.578,-42.969,-121.094
1685718669.498,36.133,-12.695,-23.438,2.441,220.215
1685718669.502,53.223,-50.293,-37.598,3.906,177.246
1685718669.506,-15.625,-43.457,-26.855,-33.691,-138.184
1685718669.510,-99.609,-20.020,-16.602,-72.754,-171.875
1685718669.514,-81.055,-5.859,-19.531,-50.293,-90.820
1685718669.514,27.344,-17.578,-16.113,4.395,-29.297
1685718669.518,67.383,-32.715,-14.160,17.090,40.527
1685718669.522,-7.324,-36.133,-9.277,-17.578,52.734
1685718669.526,-103.027,-41.016,-26.367,-64.453,16.602
1685718669.530,-96.191,-33.691,-45.898,-60.547,-10.742
1685718669.534,-1.953,-25.879,-49.805,-17.578,-46.387
1685718669.538,52.734,-19.043,-43.457,9.277,121.582
1685718669.541,-8.301,-12.207,-24.414,0.488,494.629
1685718669.545,-99.121,-17.578,-6.836,-57.129,221.680
1685718669.549,-104.492,-34.668,-14.648,-73.730,-152.832
1685718669.553,-16.602,-35.645,-27.832,-13.184,-56.641
1685718669.557,57.129,-52.734,-9.766,13.672,-29.785
1685718669.560,8.789,-50.781,-16.113,-27.832,-139.648
1685718669.564,-94.238,-26.367,-33.203,-73.242,-203.613
1685718669.568,-113.281,-47.852,-28.320,-75.684,-143.555
1685718669.572,-28.320,-28.809,-50.781,-33.203,-142.090
1685718669.576,51.270,5.371,-60.059,11.230,-96.191
1685718669.580,15.625,-0.977,-13.672,-0.488,32.715
1685718669.584,-83.008,-4.883,11.230,-46.387,287.109
1685718669.587,-110.352,-9.277,-16.602,-65.918,127.441
1685718669.591,-34.668,-27.344,-11.719,-30.273,-206.543
1685718669.595,37.109,-29.297,-12.695,1.953,-96.191
1685718669.599,7.812,-31.738,-29.297,-14.648,141.602
1685718669.603,-94.727,-40.527,-33.203,-68.848,-85.938
1685718669.604,-132.812,-34.668,-40.039,-92.285,-263.672
1685718669.608,-53.223,-38.086,-35.645,-46.387,-125.977
1685718669.612,43.945,-42.969,-28.320,2.930,-25.879
1685718669.616,33.691,-25.879,-36.133,1.953,4.883
1685718669.620,-59.570,-14.648,-39.551,-34.180,-107.910
1685718669.624,-104.980,-39.062,-23.438,-52.734,-34.180
1685718669.628,-52.246,-35.645,-22.949,-22.949,395.020
1685718669.631,36.621,-26.367,-20.020,14.160,174.316
1685718669.635,35.156,-50.293,-29.297,6.348,-92.773
1685718669.639,-68.848,-31.250,-36.133,-42.480,54.199
1685718669.643,-135.742,-16.602,-17.578,-70.801,-23.438
1685718669.647,-71.777,-25.391,-14.648,-46.875,-250.977
1685718669.663,29.297,-30.273,-19.531,2.441,-166.504
1685718669.667,50.293,-32.715,-24.902,18.066,22.949
1685718669.671,-20.996,-25.391,-31.738,-12.695,-70.312
1685718669.675,-109.863,-26.855,-33.203,-64.453,-233.887
1685718669.679,-95.215,-35.645,-23.438,-61.523,-213.379
1685718669.683,2.930,-39.062,-18.066,-17.578,41.504
1685718669.687,62.012,-38.574,-27.832,6.836,123.535
1685718669.690,-8.301,-34.180,-30.762,-19.043,-69.824
1685718669.694,-121.094,-34.180,-27.344,-71.777,-136.719
1685718669.698,-98.145,-27.832,-34.668,-59.570,61.035
1685718669.702,2.930,-40.039,-38.086,-12.695,11.719
1685718669.706,56.641,-37.109,-3.906,20.020,-99.121
1685718669.708,-18.066,-37.598,-13.184,-11.230,-54.199
1685718669.712,-120.605,-61.523,-53.711,-74.219,-73.242
1685718669.716,-109.863,-54.688,-33.691,-69.824,-137.695
1685718669.720,-19.043,-42.480,-18.555,-24.902,-77.637
1685718669.724,53.223,-32.227,-8.301,11.230,88.379
1685718669.728,-6.836,-33.203,-15.137,-19.043,208.984
1685718669.732,-106.445,-32.715,-32.227,-76.172,-5.859
1685718669.735,-101.562,-29.785,-12.207,-74.707,-199.219
1685718669.739,-28.320,-51.758,-23.438,-29.297,16.113
1685718669.743,32.227,-47.852,-33.203,0.488,258.789
1685718669.747,10.254,-33.203,-19.531,-22.461,-20.996
1685718669.751,-72.266,-31.738,-15.625,-66.895,-170.410
1685718669.754,-96.191,-33.203,-27.344,-73.730,-137.695
1685718669.758,-27.344,-37.598,-40.527,-33.203,-99.121
1685718669.762,56.152,-27.344,-50.293,1.953,-58.594
1685718669.766,38.086,-18.066,-30.273,-4.395,5.859
1685718669.770,-71.777,-17.090,-20.996,-38.086,77.637
1685718669.774,-116.211,-34.180,-30.273,-64.941,-80.078
1685718669.778,-53.223,-33.203,-17.090,-42.480,-128.418
1685718669.781,38.086,-28.320,-14.648,15.625,29.297
1685718669.785,28.809,-26.855,-22.461,14.160,338.867
1685718669.789,-71.777,-12.695,-23.438,-49.805,131.348
1685718669.793,-118.164,-14.648,-17.090,-72.266,-227.051
1685718669.797,-62.988,-43.457,-19.043,-40.527,-185.059
1685718669.798,47.363,-27.832,-20.508,6.836,-62.988
1685718669.802,59.570,-0.488,-17.578,15.625,-45.410
1685718669.806,-51.270,-12.207,-20.996,-32.715,-161.621
1685718669.810,-116.211,-30.762,-40.527,-67.383,-49.805
1685718669.814,-70.312,-31.738,-55.176,-54.199,130.371
1685718669.818,25.879,-4.395,-40.039,-7.324,57.129
1685718669.822,48.340,-3.418,-26.855,7.324,23.438
1685718669.825,-35.156,-19.531,-17.578,-36.133,124.023
1685718669.829,-110.840,-17.090,-2.441,-71.777,264.648
1685718669.833,-91.797,-27.344,-27.344,-68.359,-20.508
1685718669.837,4.395,-34.180,-37.109,-17.090,-176.270
1685718669.841,41.504,-19.531,-30.273,12.207,-49.316
1685718669.844,-18.555,-20.020,-34.668,-19.043,-79.102
1685718669.848,-94.238,-32.715,-33.691,-63.477,-241.211
1685718669.852,-78.125,-25.391,-24.902,-49.316,-262.695
1685718669.856,19.531,-20.020,-29.297,0.488,-72.754
1685718669.860,57.617,-34.668,-33.691,11.719,13.184
1685718669.864,-10.254,-33.203,-19.043,-19.043,-7.324
1685718669.868,-88.379,-20.996,-16.113,-63.477,-72.754
1685718669.871,-92.285,-32.715,-35.645,-62.500,269.531
1685718669.875,-9.277,-22.461,-34.180,-17.578,287.109
1685718669.879,52.246,-4.883,-22.949,4.395,-51.270
1685718669.883,10.254,-1.953,-26.367,-16.602,-77.637
1685718669.887,-91.797,-2.930,-33.203,-61.035,-119.141
1685718669.888,-121.582,-10.742,-17.090,-70.312,-238.281
1685718669.892,-20.508,-23.926,-6.836,-20.996,-249.512
1685718669.896,62.988,-29.785,-12.207,7.324,-70.801
1685718669.900,22.461,-29.785,-24.902,-26.367,122.559
1685718669.904,-79.102,-46.387,-37.109,-81.543,7.324
1685718669.908,-113.281,-41.504,-28.809,-91.797,-184.082
1685718669.912,-36.133,-30.762,-19.531,-48.828,-40.527
1685718669.915,48.828,-25.391,-33.691,2.930,342.285
1685718669.919,19.531,-20.996,-44.922,-7.812,171.387
1685718669.923,-80.566,-20.996,-30.273,-60.547,-149.414
1685718669.927,-110.352,-22.949,-7.324,-70.801,-41.992
1685718669.931,-54.199,-37.598,-11.230,-47.852,88.379
1685718669.935,26.367,-42.969,-42.969,-18.555,-104.492
1685718669.939,25.391,-37.109,-47.852,-18.555,-132.324
1685718669.943,-51.758,-31.738,-24.414,-55.176,-103.516
1685718669.947,-92.285,-21.973,-22.949,-68.359,-238.281
1685718669.951,-36.133,-10.254,-24.414,-52.246,-306.152
1685718669.955,43.945,-20.996,-21.973,-8.301,-26.367
1685718669.959,30.762,-32.715,-19.531,8.789,422.852
1685718669.962,-64.941,-21.973,-26.367,-50.781,140.137
1685718669.966,-126.953,-23.926,-47.852,-90.332,-283.203
1685718669.970,-65.918,-38.086,-44.922,-44.922,-218.262
1685718669.974,33.203,-42.480,-23.926,13.184,-50.293
1685718669.978,32.715,-38.086,-19.043,5.371,27.832
1685718669.979,-62.500,-35.645,-25.391,-40.527,-129.883
1685718669.983,-126.953,-21.973,-44.434,-82.031,-205.078
1685718669.987,-79.102,-11.230,-41.504,-60.059,-41.016
1685718669.991,20.996,-11.719,-17.578,-11.230,12.207
1685718669.995,48.828,-18.555,-19.531,-4.395,-49.805
1685718669.999,-34.180,-43.945,-37.109,-48.340,93.750
1685718670.003,-127.441,-45.410,-33.691,-78.125,389.160
1685718670.006,-96.680,-23.438,-29.785,-59.570,15.625
1685718670.010,14.648,-12.695,-34.180,-3.418,-227.051
1685718670.014,51.270,-20.020,-23.438,14.160,4.883
1685718670.018,-20.020,-24.902,-16.602,-36.621,-60.547
1685718670.022,-91.309,-7.324,-14.160,-62.012,-271.484
1685718670.040,-82.031,-3.418,-22.461,-40.039,-294.434
1685718670.044,-22.461,-24.414,-40.039,-25.391,-44.434
1685718670.048,25.391,-34.180,-46.387,-0.977,34.180
1685718670.052,-16.602,-37.598,-22.949,2.930,-102.051
1685718670.056,-124.023,-44.434,-4.883,-52.734,-103.027
1685718670.060,-142.578,-38.086,-31.738,-70.312,219.238
1685718670.064,-30.762,-36.133,-13.184,-16.602,142.090
1685718670.067,44.434,-32.227,6.836,22.949,-131.836
1685718670.071,6.348,-22.461,-3.418,4.883,-73.242
1685718670.075,-86.914,-22.949,-6.348,-48.340,-26.367
1685718670.079,-129.395,-37.109,-22.461,-69.824,-133.301
1685718670.083,-50.293,-41.992,-29.297,-27.832,-169.434
1685718670.083,33.203,-39.062,-28.320,16.602,-14.160
1685718670.087,1.465,-42.480,-35.645,-10.742,184.570
1685718670.091,-84.473,-39.551,-47.363,-56.641,-44.434
1685718670.095,-120.605,-44.434,-65.430,-62.500,-206.055
1685718670.099,-42.480,-30.762,-46.387,-27.832,-14.648
1685718670.103,62.500,-10.254,-0.488,22.461,201.660
1685718670.107,44.922,-18.555,5.371,2.930,144.531
1685718670.110,-60.547,-48.828,-9.277,-60.059,-107.422
1685718670.114,-131.836,-64.941,-27.344,-90.332,-110.352
1685718670.118,-80.078,-38.574,-48.828,-62.012,259.766
1685718670.122,16.602,-20.996,-29.297,-13.184,122.559
1685718670.126,20.508,-25.391,-12.207,-5.371,-103.516
1685718670.128,-73.242,-31.250,-35.645,-56.152,-72.266
1685718670.132,-108.398,-14.648,-40.039,-65.430,-189.941
1685718670.136,-37.109,-1.465,-16.602,-20.020,-250.977
1685718670.140,36.133,-30.762,-24.414,-0.488,-164.062
1685718670.144,30.762,-37.109,-31.250,-12.207,-22.949
1685718670.148,-52.734,-28.809,-16.113,-53.711,7.812
1685718670.152,-117.188,-29.785,-8.789,-81.543,-136.230
1685718670.155,-79.590,-39.062,-23.438,-66.406,-74.219
1685718670.159,21.973,-34.668,-33.691,-12.207,349.609
1685718670.163,66.895,-19.043,-17.090,22.949,335.449
1685718670.167,-3.418,-24.414,-27.832,-13.184,-70.801
1685718670.171,-104.980,-40.527,-61.523,-74.707,-211.914
1685718670.173,-93.750,-33.691,-35.156,-73.730,-214.355
1685718670.177,23.438,-0.977,1.953,-5.371,-156.738
1685718670.181,69.336,-1.953,-21.484,19.043,-58.105
1685718670.185,-12.695,-29.785,-33.203,-18.555,37.109
1685718670.189,-99.121,-30.273,-27.832,-61.035,35.645
1685718670.193,-82.520,-23.926,-20.020,-65.430,-5.371
1685718670.197,14.160,-27.832,-6.348,-14.648,-5.859
1685718670.200,66.406,-42.480,-25.391,24.414,76.172
1685718670.204,-7.324,-51.270,-28.809,-5.859,276.855
1685718670.208,-108.398,-35.156,-18.555,-62.012,-43.945
1685718670.212,-104.492,-35.645,-26.855,-70.801,-324.219
1685718670.216,-19.043,-29.297,-38.086,-24.414,-58.105
1685718670.219,44.434,-26.367,-31.738,13.184,25.879
1685718670.223,15.137,-30.762,-32.227,-6.348,-103.516
1685718670.227,-87.402,-17.090,-34.668,-62.500,-130.371
1685718670.231,-123.535,-25.391,-11.719,-75.684,-6.348
1685718670.235,-27.344,-29.297,-21.973,-20.508,-35.156
1685718670.239,45.410,-34.180,-23.926,14.648,-23.926
1685718670.243,10.254,-52.246,-25.879,-4.395,60.059
1685718670.246,-85.449,-45.898,-54.688,-59.082,184.082
1685718670.250,-123.047,-20.508,-37.109,-79.102,-14.648
1685718670.254,-28.320,-12.207,-13.672,-28.320,-242.188
1685718670.258,74.707,-7.324,-15.625,28.809,-107.422
1685718670.262,45.410,-2.441,-22.949,7.324,21.484
1685718670.263,-60.547,-12.207,-43.945,-46.387,-87.891
1685718670.267,-111.328,-15.137,-31.250,-63.965,-263.184
1685718670.271,-46.875,-22.949,-18.555,-26.855,-97.656
1685718670.275,46.875,-36.133,-28.809,28.809,263.672
1685718670.279,43.945,-25.391,-8.301,25.879,56.152
1685718670.283,-42.480,-29.297,-5.859,-23.438,-89.844
1685718670.287,-108.398,-43.945,-27.344,-56.152,76.172
1685718670.290,-58.105,-28.320,-15.625,-27.832,195.312
1685718670.294,42.969,-8.301,-25.391,15.625,-24.414
1685718670.298,46.875,-5.371,-25.879,16.602,-112.305
1685718670.302,-50.781,-22.949,-27.832,-31.250,-6.348
1685718670.306,-115.234,-26.855,-45.410,-65.918,-137.695
1685718670.311,-69.336,-30.273,-51.270,-40.527,-293.945
1685718670.315,25.391,-47.852,-38.086,5.859,-107.422
1685718670.319,63.477,-30.762,-7.324,28.320,268.066
1685718670.323,-15.625,-13.184,-8.301,-13.672,64.453
1685718670.327,-110.840,-16.602,-30.273,-75.195,-270.020
1685718670.331,-94.238,-36.621,-31.250,-67.871,-82.031
1685718670.335,0.488,-43.945,-40.039,-7.324,312.012
1685718670.338,42.969,-20.996,-39.551,16.602,186.523
1685718670.342,-19.531,-27.832,-19.043,-15.625,-178.223
1685718670.346,-104.492,-36.133,-31.250,-76.172,-253.906
1685718670.350,-97.656,-25.879,-46.387,-83.984,-174.316
1685718670.354,-7.812,-29.785,-30.273,-27.344,-128.906
1685718670.354,70.312,-20.020,-13.184,25.391,-112.793
1685718670.358,13.672,-11.719,-9.277,-0.977,-74.707
1685718670.362,-116.699,-33.203,-47.852,-73.730,-86.914
1685718670.366,-115.234,-41.504,-49.805,-72.754,-37.598
1685718670.370,-13.184,-24.414,-12.207,-18.555,5.859
1685718670.374,48.828,-18.555,-19.531,20.508,93.750
1685718670.378,1.953,-23.438,-26.855,1.465,533.691
1685718670.381,-89.844,-23.438,-15.625,-47.363,349.121
1685718670.385,-102.539,-18.066,-30.762,-59.570,-210.938
1685718670.389,-19.043,-13.672,-36.133,-14.648,-176.270
1685718670.393,53.223,-30.762,-20.508,8.301,-69.336
1685718670.397,22.949,-36.133,-12.695,-15.625,-106.934
1685718670.400,-67.383,-30.762,-18.555,-52.734,-186.035
1685718670.404,-102.539,-32.227,-20.996,-62.012,-197.754
1685718670.408,-21.973,-18.555,-32.715,-25.879,-199.219
1685718670.412,78.125,-1.953,-21.973,25.879,-90.820
1685718670.416,32.227,-23.926,-4.883,12.207,22.949
1685718670.420,-102.051,-26.855,-20.996,-58.105,21.484
1685718670.424,-145.020,-29.297,-29.297,-84.473,-70.801
1685718670.427,-69.336,-41.016,-28.809,-33.203,-69.824
1685718670.431,17.578,-44.434,-33.691,3.906,-1.953
1685718670.435,14.648,-45.410,-1.953,2.930,264.160
1685718670.439,-69.336,-41.992,10.742,-41.992,124.512
1685718670.443,-112.793,-41.504,-18.555,-75.684,-268.066
1685718670.459,-55.176,-41.504,-29.785,-34.180,-250.000
1685718670.463,44.922,-39.062,-15.625,19.043,-93.262
1685718670.467,62.500,-31.250,-23.926,12.695,22.461
1685718670.471,-49.805,-26.367,-48.828,-44.922,8.301
1685718670.475,-123.535,-27.344,-43.945,-78.125,-72.266
1685718670.479,-82.031,-26.855,-31.250,-45.898,158.691
1685718670.483,18.066,-17.578,-32.715,12.695,162.598
1685718670.486,65.430,-19.043,-35.645,36.133,-55.176
1685718670.490,-21.484,-39.551,-31.250,-18.066,-8.789
1685718670.494,-115.234,-45.410,-9.766,-79.590,96.680
1685718670.498,-88.867,-51.758,-8.301,-65.918,-145.020
1685718670.502,2.441,-42.480,-12.695,-19.531,-155.762
1685718670.503,47.852,-29.297,-20.508,-8.301,140.625
1685718670.507,-10.254,-29.297,-41.504,-41.504,48.340
1685718670.511,-100.098,-26.367,-47.852,-83.008,-258.789
1685718670.515,-84.473,-17.090,-32.227,-69.824,-256.348
1685718670.519,23.926,-10.254,-13.184,-7.324,-121.094
1685718670.523,65.430,-32.227,-13.672,17.578,-14.160
1685718670.527,-29.297,-41.504,-39.062,-41.016,46.387
1685718670.530,-127.441,-37.109,-49.316,-102.051,-101.562
1685718670.534,-107.422,-39.551,-46.387,-87.891,52.734
1685718670.538,-6.836,-35.645,-27.344,-31.738,111.328
1685718670.542,53.223,-20.020,-14.648,3.418,-70.801
1685718670.546,4.883,-19.043,-14.648,-14.160,-16.113
1685718670.548,-95.215,-29.297,-22.949,-63.477,-45.898
1685718670.552,-120.605,-38.086,-26.855,-81.543,-237.793
1685718670.556,-6.836,-26.855,-11.719,-21.973,-181.152
1685718670.560,78.125,-7.324,-20.996,33.203,138.184
1685718670.564,16.113,-12.207,-30.762,10.742,273.926
1685718670.568,-88.867,-29.297,-17.090,-54.688,14.648
1685718670.572,-126.953,-29.297,-36.133,-93.750,-134.766
1685718670.575,-49.316,-31.250,-45.410,-46.875,0.977
1685718670.579,43.457,-42.969,-20.508,5.859,237.793
1685718670.583,23.438,-23.926,-8.789,2.441,-13.184
1685718670.587,-67.871,-9.277,-13.184,-38.574,-252.930
1685718670.591,-124.023,-38.086,-15.137,-80.566,-225.586
1685718670.596,-60.059,-54.199,-16.602,-50.293,-178.711
1685718670.600,34.668,-49.316,-21.973,0.977,-100.586
1685718670.604,30.273,-34.668,-20.996,-5.371,-24.414
1685718670.608,-72.266,-25.879,-35.156,-61.035,14.160
1685718670.612,-135.742,-25.391,-48.340,-95.703,-129.395
1685718670.616,-59.570,-28.809,-24.902,-61.523,-101.074
1685718670.620,41.016,-30.762,-21.973,-9.766,53.223
1685718670.623,36.621,-13.672,-32.715,14.160,307.129
1685718670.627,-50.293,-19.531,-24.414,-19.531,144.531
1685718670.631,-125.977,-37.109,-33.691,-70.312,-224.121
1685718670.635,-76.660,-21.973,-21.484,-44.434,-214.355
1685718670.639,24.902,-23.926,-20.996,6.836,-104.004
1685718670.639,38.086,-37.109,-38.086,5.859,-63.965
1685718670.643,-44.922,-32.715,-35.156,-39.551,-110.352
1685718670.647,-120.605,-33.691,-17.578,-73.730,-57.129
1685718670.651,-78.125,-25.879,-20.508,-41.992,40.527
1685718670.655,31.738,-1.465,-30.762,20.508,-18.555
1685718670.659,65.918,-4.883,-12.695,20.020,-36.621
1685718670.663,-27.832,-33.203,-29.297,-56.641,135.742
1685718670.666,-133.789,-38.086,-51.270,-114.746,387.695
1685718670.670,-107.910,-35.156,-50.781,-92.773,60.059
1685718670.674,17.578,-44.922,-37.598,-21.484,-219.238
1685718670.678,62.012,-34.668,-28.809,3.906,-76.172
1685718670.682,-13.184,-31.738,-19.531,-31.250,-112.305
1685718670.685,-108.887,-39.062,-12.207,-79.590,-260.742
1685718670.689,-107.422,-15.137,-13.184,-62.012,-282.227
1685718670.693,1.953,-0.977,-24.414,-1.953,-125.000
1685718670.697,55.664,-17.090,-46.387,13.672,-8.789
1685718670.701,-34.668,-33.203,-56.152,-40.039,-82.520
1685718670.705,-123.047,-38.574,-41.504,-80.566,-98.145
1685718670.709,-108.887,-39.062,-23.438,-61.523,224.121
1685718670.712,-16.113,-32.227,-17.578,-5.371,170.898
1685718670.716,49.805,-29.297,-23.926,34.180,-85.938
1685718670.720,2.930,-36.133,-19.531,11.230,-58.105
1685718670.724,-87.402,-43.457,2.441,-39.551,-10.742
1685718670.728,-101.562,-61.523,15.137,-56.152,-147.461
1685718670.728,-21.484,-57.129,-5.371,-27.344,-164.551
1685718670.732,52.734,-32.715,-22.949,8.789,-80.566
1685718670.736,11.230,-21.484,-28.320,-21.484,-29.297
1685718670.740,-93.262,-13.184,-27.832,-70.801,-38.574
1685718670.744,-127.441,-19.531,-25.879,-77.148,-148.926
1685718670.748,-43.945,-28.320,-26.367,-43.945,36.621
1685718670.752,45.410,-24.414,-32.227,-0.488,447.266
1685718670.755,13.184,-24.902,-30.762,-4.395,208.984
1685718670.759,-77.637,-31.250,-19.531,-49.316,-180.176
1685718670.763,-112.305,-27.344,-11.719,-64.453,-117.188
1685718670.767,-62.012,-21.973,-17.578,-39.062,-69.336
1685718670.771,19.043,-20.508,-20.020,-7.324,-83.984
1685718670.775,25.879,-29.297,-7.812,-11.719,-55.664
1685718670.779,-75.195,-41.016,-29.297,-72.754,10.742
1685718670.783,-138.184,-41.504,-35.645,-102.051,-125.488
1685718670.787,-81.543,-39.062,-19.531,-61.523,-256.348
1685718670.791,15.137,-29.785,-18.555,-13.672,-80.566
1685718670.795,40.039,-12.695,-16.602,4.395,199.219
1685718670.799,-52.734,-9.277,-14.160,-42.480,87.891
1685718670.802,-135.254,-19.043,-27.344,-91.309,-220.703
1685718670.806,-93.262,-17.090,-20.508,-75.195,-183.594
1685718670.810,13.672,-3.906,3.906,-24.414,186.035
1685718670.814,21.973,-7.324,-8.301,-36.133,88.867
1685718670.818,-92.773,-20.508,-18.555,-113.281,-145.996
1685718670.833,-196.289,-21.973,-17.578,-166.504,-112.305
1685718670.837,-196.289,1.953,-13.672,-175.293,-97.168
1685718670.841,-126.953,7.324,1.465,-146.484,-83.496
1685718670.845,-87.891,0.488,27.832,-118.164,-72.266
1685718670.849,-174.805,18.066,15.625,-189.453,-18.066
1685718670.853,-314.453,-1.465,1.953,-291.016,126.953
1685718670.857,-326.172,-3.418,7.812,-296.387,-60.547
1685718670.860,-206.543,8.301,-1.465,-237.793,-169.434
1685718670.864,-132.324,2.930,-5.859,-197.754,69.824
1685718670.868,-170.898,16.113,2.441,-204.102,220.215
1685718670.872,-239.258,22.461,9.277,-228.516,-84.473
1685718670.876,-226.562,9.277,12.207,-201.172,-219.238
1685718670.879,-116.699,-31.250,19.531,-138.184,36.133
1685718670.883,-23.926,-39.062,6.348,-91.797,40.039
1685718670.887,-63.965,-23.926,-0.977,-95.703,-109.375
1685718670.891,-147.949,-28.320,2.441,-125.000,-126.953
1685718670.895,-138.672,-37.109,-24.902,-118.164,-8.789
1685718670.899,-47.363,-43.945,-21.973,-58.105,17.090
1685718670.903,58.594,-47.363,3.906,18.066,25.391
1685718670.906,52.734,-40.527,-2.930,28.809,57.617
1685718670.910,-50.781,-56.152,-39.551,-13.184,170.410
1685718670.914,-87.402,-73.242,-55.176,-30.762,39.551
1685718670.918,-2.930,-64.453,-44.922,4.395,-212.402
1685718670.922,93.262,-61.523,-38.574,56.152,-93.750
1685718670.923,87.891,-71.777,-33.203,54.688,1.465
1685718670.927,1.953,-49.316,-24.902,20.020,-128.418
1685718670.931,-50.293,-34.180,-44.434,0.977,-224.121
1685718670.935,2.441,-43.457,-79.102,23.926,-64.941
1685718670.939,103.516,-40.039,-63.965,74.219,110.840
1685718670.943,104.492,-41.504,-52.246,76.660,72.754
1685718670.947,6.348,-42.480,-46.875,24.414,-1.465
1685718670.950,-54.688,-39.551,-25.879,2.441,23.926
1685718670.954,2.441,-41.992,-29.785,40.039,297.363
1685718670.958,103.027,-45.410,-29.297,74.219,81.055
1685718670.962,110.352,-48.340,-50.781,71.289,-118.652
1685718670.966,22.949,-49.805,-49.316,30.762,-44.434
1685718670.984,-48.828,-32.227,-36.133,-1.465,-192.383
1685718670.988,-23.926,-31.250,-54.688,17.578,-266.602
1685718670.992,71.289,-46.875,-52.246,59.570,-133.301
1685718670.996,105.957,-49.316,-45.410,72.266,-37.109
1685718671.000,24.414,-49.805,-41.016,21.973,-132.812
1685718671.004,-61.035,-40.039,-39.551,-21.484,-157.715
1685718671.008,-31.250,-28.320,-47.363,3.906,-62.012
1685718671.011,62.988,-21.484,-27.832,57.617,326.172
1685718671.015,83.984,-28.809,-23.926,67.871,283.691
1685718671.019,18.066,-45.410,-36.133,21.973,-121.094
1685718671.023,-66.406,-40.039,-22.949,-16.113,-184.570
1685718671.027,-76.172,-43.457,-20.996,-20.020,-132.812
1685718671.013,32.227,-41.504,-32.227,23.926,-82.031
1685718671.017,83.984,-32.715,-40.527,46.387,-49.316
1685718671.021,4.883,-31.738,-41.992,8.789,-50.781
1685718671.025,-91.797,-46.387,-23.926,-30.273,-120.605
1685718671.029,-83.496,-57.129,-8.301,-25.391,-223.633
1685718671.033,21.973,-35.645,-0.977,35.156,-62.012
1685718671.037,86.426,-22.461,-9.277,71.289,191.895
1685718671.040,26.855,-34.668,-23.926,27.832,166.992
1685718671.044,-72.754,-39.551,-40.527,-26.855,-126.465
1685718671.048,-84.473,-38.086,-45.898,-41.504,-260.254
1685718671.052,14.648,-24.902,-31.738,8.301,100.098
1685718671.056,106.934,-7.324,-38.086,71.777,506.836
1685718671.061,60.059,-20.508,-28.809,38.574,145.508
1685718671.065,-61.035,-42.480,-11.230,-33.203,-204.102
1685718671.069,-99.121,-36.133,-14.648,-55.664,-199.219
1685718671.073,-18.555,-30.762,-17.090,-11.719,-172.852
1685718671.077,74.707,-32.715,-20.996,40.527,-158.691
1685718671.081,43.457,-31.738,-30.273,22.461,-24.902
1685718671.085,-66.895,-29.785,-32.715,-27.832,259.277
1685718671.088,-107.910,-28.320,-42.969,-65.430,-5.371
1685718671.092,-26.855,-23.926,-30.273,-33.203,-255.371
1685718671.096,63.477,-30.762,-19.043,18.066,-70.312
1685718671.100,41.992,-40.039,-34.668,2.930,21.484
1685718671.104,-50.781,-42.969,-38.086,-30.762,-121.094
1685718671.104,-92.285,-37.109,-39.551,-43.457,-230.469
1685718671.108,-46.875,-26.367,-33.203,-18.066,-175.781
1685718671.112,33.203,-23.926,-11.719,25.879,-49.805
1685718671.116,37.598,-20.508,-23.438,19.043,54.688
1685718671.120,-55.664,-29.297,-36.621,-43.457,-60.547
1685718671.124,-105.469,-34.180,-36.621,-62.988,-42.969
1685718671.128,-61.523,-41.504,-49.316,-30.273,383.301
1685718671.131,13.672,-36.621,-47.363,-7.324,371.094
1685718671.135,38.574,-16.602,-27.832,-0.977,-33.203
1685718671.139,-41.016,-25.879,-28.320,-45.898,-120.117
1685718671.143,-108.398,-27.344,-24.902,-90.820,-186.523
1685718671.147,-62.012,-18.066,-11.719,-49.316,-299.316
1685718671.150,32.227,-25.391,-26.367,6.348,-167.480
1685718671.154,57.617,-35.645,-45.410,8.789,67.383
1685718671.158,-30.762,-35.645,-48.828,-27.344,-18.066
1685718671.162,-110.840,-33.691,-42.969,-68.359,-140.137
1685718671.166,-76.172,-23.438,-39.062,-64.453,-199.219
1685718671.170,26.855,-16.602,-40.039,-7.812,179.199
1685718671.174,62.988,-20.020,-25.391,27.832,341.797
1685718671.177,1.953,-27.344,-29.785,2.441,-65.430
1685718671.181,-92.285,-36.621,-25.879,-51.270,-168.457
1685718671.185,-113.770,-25.391,-7.812,-69.824,34.180
1685718671.189,-24.902,-20.508,-24.414,-30.273,-18.066
1685718671.193,41.992,-26.855,-44.922,5.859,-74.707
1685718671.224,-3.906,-28.320,-34.180,-15.137,-53.223
1685718671.228,-96.680,-33.203,-23.926,-67.383,-150.879
1685718671.232,-104.004,-30.273,-23.438,-72.754,-181.641
1685718671.236,-7.812,-32.227,-18.066,-28.809,-83.984
1685718671.240,62.988,-45.410,-11.230,16.602,78.613
1685718671.244,18.066,-41.992,-17.090,9.766,266.602
1685718671.248,-74.219,-23.926,-30.273,-42.969,45.410
1685718671.251,-98.633,-24.414,-37.109,-49.805,-156.250
1685718671.255,-30.273,-24.902,-33.691,-11.719,-28.809
1685718671.259,24.414,-18.066,-31.250,-6.348,288.574
1685718671.263,-10.254,-18.555,-26.367,-40.039,-3.418
1685718671.267,-96.680,-25.879,-28.320,-81.543,-263.184
1685718671.253,-120.117,-19.531,-48.828,-85.938,-185.059
1685718671.257,-20.020,-2.930,-39.551,-32.715,-171.387
1685718671.261,70.801,-8.789,-36.133,18.066,-105.469
1685718671.265,53.223,-24.414,-58.594,2.441,-64.941
1685718671.269,-46.387,-34.180,-55.176,-48.340,-71.289
1685718671.273,-113.770,-28.809,-33.203,-76.172,-75.684
1685718671.277,-40.527,-20.020,-11.719,-37.598,-60.547
1685718671.280,64.453,-23.926,-9.277,18.066,123.047
1685718671.284,61.035,-20.508,-16.602,21.484,267.578
1685718671.288,-37.109,-26.855,-32.715,-36.133,-8.789
1685718671.292,-115.723,-21.484,-49.316,-75.684,-239.746
1685718671.296,-77.637,-14.160,-39.551,-41.016,-175.293
1685718671.298,30.273,-20.508,-35.156,23.438,247.559
1685718671.302,58.105,-22.461,-33.203,27.832,246.094
1685718671.306,-32.715,-36.621,-29.785,-36.133,-99.121
1685718671.310,-108.398,-42.480,-32.715,-89.844,-38.574
1685718671.314,-70.312,-32.715,-43.945,-66.895,-14.648
1685718671.318,37.109,-22.461,-47.363,-1.953,-78.125
1685718671.322,60.059,-26.367,-27.344,4.395,-7.812
1685718671.325,-19.043,-23.438,-27.344,-46.387,50.293
1685718671.329,-97.656,-16.113,-30.762,-76.172,108.887
1685718671.333,-88.867,-20.508,-31.250,-73.730,-206.055
1685718671.337,22.461,-21.973,-30.762,-13.672,-218.750
1685718671.341,76.172,-15.137,-43.945,19.043,101.074
1685718671.343,-8.301,-23.926,-43.457,-35.645,32.715
1685718671.347,-104.492,-41.504,-27.832,-82.031,-196.777
1685718671.351,-100.098,-40.527,-17.090,-65.918,-220.215
1685718671.355,-2.441,-31.250,-8.789,-5.371,-83.496
1685718671.359,60.547,-30.273,-26.855,31.738,-18.555
1685718671.363,6.836,-27.832,-39.062,-12.695,-10.254
1685718671.367,-91.309,-32.227,-30.273,-66.406,-61.035
1685718671.370,-83.496,-12.207,-17.090,-43.945,104.980
1685718671.374,-0.488,2.441,-28.809,-0.488,73.242
1685718671.378,41.504,-25.879,-32.715,22.461,-82.031
1685718671.382,6.348,-45.898,-23.438,-9.766,-68.848
1685718671.386,-77.637,-41.016,-24.414,-62.012,-157.715
1685718671.389,-97.656,-31.738,-23.926,-69.336,-216.309
1685718671.393,-25.879,-32.715,-27.832,-34.668,-135.254
1685718671.397,54.199,-31.250,-40.039,15.625,16.602
1685718671.401,38.574,-13.184,-27.832,14.160,356.934
1685718671.405,-67.383,-6.348,-29.785,-48.828,69.336
1685718671.409,-110.352,-32.227,-46.387,-80.078,-220.703
1685718671.413,-22.949,-23.926,-30.273,-27.832,54.199
1685718671.416,62.012,-6.836,-12.695,27.344,357.422
1685718671.420,33.203,-25.391,-19.531,1.465,29.785
1685718671.424,-80.566,-27.832,-39.551,-54.688,-231.934
1685718671.428,-127.930,-27.832,-52.246,-71.289,-187.012
1685718671.432,-47.852,-36.621,-35.645,-28.320,-165.527
1685718671.435,68.848,-15.625,0.977,38.086,-84.961
1685718671.439,63.477,-9.766,2.930,33.691,-70.801
1685718671.443,-60.547,-28.809,-31.250,-42.480,-85.449
1685718671.447,-116.211,-29.297,-57.617,-89.844,-86.426
1685718671.451,-63.965,-28.809,-42.969,-58.594,-90.820
1685718671.455,29.785,-33.203,-19.531,-6.836,40.039
1685718671.459,56.152,-20.996,-19.531,0.977,478.516
1685718671.462,-35.156,-11.719,-12.695,-23.438,387.207
1685718671.466,-108.398,-26.367,-23.438,-61.035,-190.430
1685718671.470,-81.543,-36.621,-33.691,-53.223,-272.949
1685718671.474,14.160,-38.574,-26.855,0.977,-120.605
1685718671.478,52.734,-39.551,-20.996,32.227,-84.961
1685718671.479,-42.969,-35.156,-19.531,-9.766,-105.469
1685718671.483,-142.090,-40.527,-37.109,-80.566,-147.949
1685718671.487,-106.934,-36.133,-41.016,-70.801,-116.211
1685718671.491,5.371,-27.832,-26.855,-12.695,-0.488
1685718671.495,51.270,-27.832,-32.227,8.301,-37.109
1685718671.499,-26.367,-31.738,-26.855,-19.043,59.570
1685718671.503,-112.305,-26.367,-20.996,-57.617,393.066
1685718671.506,-68.848,-18.066,-7.812,-36.133,134.277
1685718671.510,23.438,-20.508,-9.277,7.812,-234.863
1685718671.514,46.875,-31.738,-43.457,19.043,-10.742
1685718671.518,-9.766,-44.922,-57.617,-22.461,233.398
1685718671.522,-95.215,-33.691,-31.738,-92.285,-137.695
1685718671.539,-101.074,-13.184,-11.230,-96.680,-268.555
1685718671.543,-16.113,-22.461,-27.344,-43.945,-48.340
1685718671.547,45.410,-26.855,-32.715,-3.418,-26.855
1685718671.551,1.953,-29.785,-49.316,-20.508,-109.863
1685718671.555,-88.379,-27.344,-45.410,-56.641,-109.375
1685718671.559,-96.680,-23.926,-16.602,-55.176,78.125
1685718671.563,-17.090,-22.949,-31.738,-24.902,39.062
1685718671.566,52.734,-22.461,-43.457,9.766,-109.375
1685718671.570,34.180,-31.250,-38.086,3.418,-35.645
1685718671.574,-66.406,-28.320,-33.691,-48.828,198.730
1685718671.578,-124.023,-29.297,-22.461,-82.031,54.199
1685718671.582,-56.152,-37.598,-31.738,-54.199,-206.055
1685718671.583,31.250,-44.922,-28.320,0.488,-72.266
1685718671.587,2.930,-57.129,-21.484,-3.906,8.301
1685718671.591,-88.379,-50.293,-8.301,-43.457,-65.430
1685718671.595,-123.535,-44.922,5.371,-67.383,-189.941
1685718671.599,-76.172,-64.453,-7.812,-52.246,-158.203
1685718671.603,3.906,-78.613,-4.883,-2.930,162.109
1685718671.607,11.719,-78.613,11.230,12.695,174.805
1685718671.610,-74.219,-77.148,0.000,-42.969,-157.227
1685718671.614,-130.859,-81.055,-19.531,-71.777,-157.715
1685718671.618,-68.359,-70.801,-0.488,-21.484,198.242
1685718671.622,21.973,-48.340,12.695,9.277,38.086
1685718671.626,25.879,-45.410,-5.859,0.977,-4.883
1685718671.643,-59.082,-38.574,-15.137,-41.992,93.750
1685718671.647,-120.605,-20.996,-6.348,-68.848,-117.676
1685718671.651,-79.102,-22.949,-8.789,-40.039,-260.742
1685718671.655,5.371,-41.504,-17.090,2.930,-150.391
1685718671.659,35.156,-45.410,-20.020,26.367,-12.207
1685718671.663,-33.203,-46.875,-23.438,-1.465,-0.488
1685718671.667,-107.422,-37.598,-29.297,-59.082,-100.586
1685718671.670,-74.219,-31.738,-52.734,-52.734,-158.691
1685718671.674,15.137,-50.781,-29.297,13.672,190.430
1685718671.678,67.871,-36.621,5.859,36.133,187.988
1685718671.682,13.672,1.465,10.742,-0.488,-77.148
1685718671.686,-91.309,-18.066,-5.371,-54.688,-146.973
1685718671.674,-94.727,-37.109,-29.297,-60.059,-132.812
1685718671.678,15.625,-30.762,-28.320,2.930,-46.875
1685718671.682,79.590,-29.785,-31.738,39.551,-18.066
1685718671.686,-1.953,-31.250,-33.203,-0.977,47.363
1685718671.690,-97.656,-38.086,-27.832,-50.293,196.289
1685718671.694,-86.426,-34.180,-22.949,-52.734,64.941
1685718671.698,-4.883,-38.574,-14.160,-11.719,-18.066
1685718671.701,60.547,-42.480,-13.672,21.973,71.777
1685718671.705,24.414,-23.926,-11.230,6.836,-19.531
1685718671.709,-84.473,-26.367,-29.785,-47.852,-217.773
1685718671.713,-116.699,-34.180,-53.223,-75.684,-294.922
1685718671.717,-32.715,-35.645,-39.062,-27.832,-55.176
1685718671.719,49.316,-28.320,-25.391,23.438,141.113
1685718671.723,12.207,-32.715,-33.691,5.371,-133.301
1685718671.727,-95.215,-56.641,-39.062,-53.711,-247.559
1685718671.731,-126.953,-35.156,-23.926,-65.430,-175.293
1685718671.735,-32.227,-6.836,-20.020,-9.766,-93.262
1685718671.739,44.434,-31.250,-32.715,22.949,15.625
1685718671.743,9.277,-36.621,-29.297,0.000,60.547
1685718671.746,-77.637,-18.555,-20.020,-43.457,181.641
1685718671.750,-123.535,-23.926,-31.738,-72.266,82.031
1685718671.754,-40.527,-19.531,-21.484,-42.969,-271.973
1685718671.758,62.988,-20.508,-24.902,14.648,-229.980
1685718671.762,35.645,-35.156,-41.504,4.883,-70.801
1685718671.764,-67.383,-45.410,-25.391,-58.105,-86.426
1685718671.768,-125.000,-44.434,-20.020,-84.473,-259.766
1685718671.772,-64.453,-31.738,-29.297,-49.316,-179.199
1685718671.776,44.922,-21.973,-21.973,10.254,93.750
1685718671.780,56.152,-21.973,-16.602,14.648,16.602
1685718671.784,-54.199,-25.879,-34.668,-45.410,-100.586
1685718671.788,-124.023,-25.391,-32.715,-78.125,-45.410
1685718671.791,-71.777,-33.691,-26.367,-54.199,298.828
1685718671.795,12.695,-41.992,-38.574,-8.789,226.074
1685718671.799,37.109,-49.316,-38.574,5.371,-78.125
1685718671.803,-39.551,-39.062,-30.762,-31.738,-31.250
1685718671.807,-113.281,-17.090,-30.762,-74.707,-155.273
1685718671.810,-73.242,-18.555,-22.461,-48.340,-299.805
1685718671.814,14.648,-34.180,-9.766,10.254,-186.035
1685718671.818,33.691,-37.598,-37.598,13.184,-23.926
1685718671.822,-42.480,-33.203,-61.035,-33.691,-11.719
1685718671.826,-130.859,-35.156,-30.762,-80.566,-111.816
1685718671.830,-109.375,-44.922,-14.160,-77.148,-12.695
1685718671.834,-3.906,-49.316,-24.902,-22.461,379.395
1685718671.837,44.434,-30.762,-26.367,10.742,329.590
1685718671.841,-25.391,-24.414,-20.020,-15.625,-45.898
1685718671.845,-113.770,-23.438,-22.461,-58.594,-115.723
1685718671.849,-101.074,-6.348,-20.508,-47.852,-25.879
1685718671.853,-10.254,-18.066,-28.320,-7.324,-43.945
1685718671.868,62.988,-30.762,-35.645,22.461,-35.156
1685718671.872,27.344,-27.832,-34.668,5.371,-17.578
1685718671.876,-103.027,-33.203,-35.645,-74.219,-101.562
1685718671.880,-128.906,-35.156,-28.320,-91.309,-114.746
1685718671.884,-26.855,-34.668,-25.391,-32.715,-151.855
1685718671.888,42.480,-36.133,-25.391,8.301,84.961
1685718671.892,4.883,-28.809,-35.645,-3.418,574.219
1685718671.895,-83.496,-20.508,-41.016,-50.781,164.551
1685718671.899,-103.516,-22.461,-11.719,-65.918,-316.895
1685718671.903,-8.301,-31.250,-10.742,-21.484,-185.547
1685718671.907,62.500,-41.992,-34.668,17.090,-57.129
1685718671.911,3.418,-57.129,-53.711,-14.648,-9.277
1685718671.901,-104.004,-53.223,-55.176,-73.730,-92.285
1685718671.905,-127.441,-30.273,-36.621,-79.590,-51.758
1685718671.909,-47.363,-26.367,-22.949,-35.645,-70.312
1685718671.913,40.527,-19.531,-15.625,8.789,-158.203
