timestamps,TP9,AF7,AF8,TP10,Right AUX
1685714582.086,-15.137,-23.926,-23.926,-18.555,-141.113
1685714582.090,-16.602,-29.297,-36.621,-24.902,-88.867
1685714582.094,-35.156,-32.227,-36.133,-30.273,-143.066
1685714582.098,-26.367,-28.809,-25.879,-21.484,-129.883
1685714582.102,-26.367,-32.715,-27.344,-30.273,38.574
1685714582.106,-42.480,-36.621,-34.668,-46.875,103.027
1685714582.110,-37.109,-34.668,-33.203,-35.645,-8.789
1685714582.113,-35.645,-30.273,-27.832,-25.391,-138.184
1685714582.117,-29.297,-22.949,-23.926,-24.902,-15.137
1685714582.121,-25.391,-26.855,-23.438,-24.902,169.922
1685714582.125,-16.602,-21.484,-26.855,-13.672,-104.980
1685714582.129,-2.441,-20.508,-32.227,-13.184,-186.523
1685714582.131,-9.766,-26.855,-34.180,-28.809,-64.941
1685714582.135,-10.742,-21.484,-36.621,-30.762,26.855
1685714582.139,-7.324,-24.414,-37.109,-21.973,5.859
1685714582.143,-8.301,-25.879,-40.039,-20.508,43.457
1685714582.147,-7.812,-25.391,-37.109,-25.391,109.863
1685714582.151,-17.090,-24.902,-33.203,-20.508,125.000
1685714582.155,-32.227,-18.066,-35.156,-25.391,82.520
1685714582.158,-38.086,-21.973,-38.574,-41.016,69.336
1685714582.162,-34.180,-17.578,-37.598,-32.227,395.020
1685714582.166,-32.227,-17.578,-37.109,-28.809,251.953
1685714582.170,-35.156,-29.297,-38.574,-35.156,-170.410
1685714582.174,-37.598,-25.391,-37.109,-38.086,-166.992
1685714582.176,-32.227,-19.531,-31.738,-25.391,224.121
1685714582.180,-24.902,-21.484,-27.344,-16.113,233.398
1685714582.184,-29.785,-23.926,-29.297,-36.133,-127.441
1685714582.188,-35.156,-23.926,-31.250,-39.062,-116.699
1685714582.192,-35.645,-23.926,-27.832,-26.855,-130.371
1685714582.196,-21.484,-23.926,-28.809,-21.484,-86.426
1685714582.200,-9.277,-19.043,-24.902,-21.973,-81.055
1685714582.203,-22.949,-21.973,-19.531,-25.879,29.785
1685714582.207,-47.852,-23.438,-22.461,-28.320,342.773
1685714582.211,-52.734,-24.902,-25.391,-38.086,28.809
1685714582.215,-47.363,-25.879,-25.879,-36.133,-189.453
1685714582.219,-35.645,-23.926,-26.855,-25.879,-30.762
1685714582.221,-23.926,-26.367,-35.156,-28.809,-18.555
1685714582.225,-18.066,-24.902,-37.598,-23.926,-106.445
1685714582.229,-22.461,-21.484,-30.762,-18.066,-141.113
1685714582.233,-35.156,-18.555,-28.320,-14.648,-89.844
1685714582.237,-36.621,-20.996,-32.715,-19.043,-81.543
1685714582.241,-38.574,-26.855,-40.527,-36.133,36.133
1685714582.245,-38.574,-24.902,-41.992,-39.062,116.211
1685714582.248,-27.344,-18.066,-40.527,-26.367,227.539
1685714582.252,-21.484,-22.461,-36.621,-30.762,175.293
1685714582.256,-20.996,-24.414,-38.086,-34.668,-157.715
1685714582.260,-29.297,-25.879,-43.457,-24.902,-57.129
1685714582.264,-37.109,-29.297,-41.992,-27.832,133.301
1685714582.266,-34.668,-33.203,-43.457,-32.227,-83.008
1685714582.270,-34.668,-30.273,-42.969,-26.855,-198.242
1685714582.274,-20.508,-22.949,-30.273,-13.672,4.883
1685714582.278,-13.672,-20.508,-28.320,-10.742,247.559
1685714582.282,-29.297,-24.414,-32.715,-30.273,45.898
1685714582.286,-40.527,-28.320,-31.738,-42.969,-101.074
1685714582.290,-34.180,-24.414,-29.785,-22.949,115.234
1685714582.293,-24.902,-24.902,-28.809,-16.602,212.402
1685714582.297,-27.344,-31.250,-30.273,-27.344,-79.590
1685714582.301,-39.551,-36.621,-30.762,-23.926,-159.180
1685714582.305,-44.434,-33.203,-32.227,-24.414,-90.332
1685714582.309,-41.504,-26.855,-35.645,-34.180,-95.703
1685714582.312,-32.227,-26.367,-38.086,-28.320,-152.832
1685714582.316,-20.508,-30.273,-39.062,-24.414,-149.902
1685714582.320,-21.484,-31.250,-34.180,-29.297,-0.488
1685714582.324,-25.391,-29.297,-28.809,-17.578,7.324
1685714582.328,-30.762,-27.832,-31.250,-24.902,-145.020
1685714582.332,-22.461,-24.902,-33.691,-40.039,-85.449
1685714582.336,-12.695,-23.926,-30.762,-29.297,270.508
1685714582.339,-13.184,-23.926,-26.855,-19.043,161.621
1685714582.343,-15.137,-19.531,-27.832,-30.762,-99.609
1685714582.347,-22.461,-22.461,-28.809,-36.133,-34.180
1685714582.351,-21.484,-26.367,-26.855,-17.578,125.977
1685714582.355,-26.855,-30.762,-32.715,-21.973,0.977
1685714582.357,-34.668,-34.668,-35.156,-35.645,-235.840
1685714582.361,-38.574,-32.715,-29.785,-37.598,-152.344
1685714582.365,-33.691,-32.715,-24.414,-34.180,-119.141
1685714582.369,-19.531,-26.855,-20.996,-30.762,-186.523
1685714582.373,-12.207,-20.020,-26.855,-36.621,-142.578
1685714582.377,-4.883,-19.531,-31.738,-31.738,167.480
1685714582.381,-8.301,-22.949,-32.227,-34.180,373.047
1685714582.384,-15.137,-21.973,-30.762,-34.180,0.488
1685714582.388,-16.113,-19.043,-27.832,-28.320,-254.883
1685714582.392,-9.766,-20.020,-29.297,-22.461,-153.320
1685714582.396,-11.230,-26.367,-31.738,-14.160,-72.754
1685714582.400,-20.996,-29.785,-31.250,-8.301,-151.367
1685714582.416,-21.484,-25.391,-35.156,-11.719,-197.754
1685714582.420,-20.020,-21.484,-38.574,-28.320,-109.375
1685714582.424,-9.766,-16.602,-31.738,-21.484,-11.230
1685714582.428,-7.324,-21.484,-33.203,-14.160,-37.598
1685714582.432,-24.902,-31.250,-40.527,-32.227,-40.527
1685714582.436,-33.691,-27.832,-37.109,-35.645,105.957
1685714582.440,-25.391,-26.855,-32.715,-31.738,66.406
1685714582.443,-18.555,-27.832,-35.645,-26.367,20.020
1685714582.447,-17.578,-26.855,-40.527,-24.902,-8.789
1685714582.451,-15.625,-25.879,-39.062,-20.020,213.867
1685714582.455,-23.438,-27.344,-36.621,-12.695,343.262
1685714582.459,-22.461,-32.227,-42.480,-30.762,-61.035
1685714582.462,-14.160,-28.809,-40.039,-39.551,-155.273
1685714582.466,-17.090,-25.879,-34.668,-21.484,-86.426
1685714582.470,-28.320,-28.809,-36.621,-16.602,-119.629
1685714582.474,-36.133,-30.273,-40.039,-23.926,-165.039
1685714582.478,-32.227,-29.297,-33.691,-20.996,-127.441
1685714582.482,-21.973,-24.414,-28.320,-21.484,-11.230
1685714582.486,-17.578,-18.555,-31.738,-23.438,35.645
1685714582.489,-21.484,-18.555,-31.738,-23.926,-10.254
1685714582.493,-35.156,-22.949,-36.621,-12.207,91.797
1685714582.497,-36.621,-22.461,-40.039,-14.160,318.848
1685714582.501,-19.043,-18.066,-31.738,-26.855,-43.457
1685714582.505,-12.695,-20.020,-28.320,-19.531,-240.723
1685714582.506,-17.578,-26.367,-30.273,-23.926,-109.863
1685714582.510,-20.996,-28.320,-29.297,-39.551,-156.738
1685714582.514,-25.391,-29.785,-27.832,-35.156,-242.188
1685714582.518,-26.855,-28.809,-26.367,-28.809,-197.754
1685714582.522,-20.508,-24.902,-24.414,-23.926,-101.562
1685714582.526,-28.809,-22.949,-22.461,-26.367,-44.922
1685714582.530,-34.180,-22.949,-22.949,-18.555,59.082
1685714582.533,-36.621,-24.414,-26.855,-20.508,-19.043
1685714582.537,-35.645,-23.438,-35.645,-30.762,345.703
1685714582.541,-28.809,-19.043,-41.016,-32.227,469.727
1685714582.545,-34.668,-20.508,-42.969,-40.039,-137.695
1685714582.549,-41.992,-20.508,-34.668,-33.691,-120.117
1685714582.551,-39.551,-19.043,-28.320,-27.832,-12.695
1685714582.555,-36.133,-21.484,-30.273,-31.738,-147.461
1685714582.559,-37.109,-23.926,-31.250,-41.504,-166.992
1685714582.563,-41.016,-26.855,-30.273,-36.133,-61.035
1685714582.567,-35.156,-27.344,-33.691,-25.391,-29.297
1685714582.571,-29.785,-20.996,-36.621,-25.391,-39.551
1685714582.575,-24.902,-23.438,-36.621,-31.250,-83.984
1685714582.578,-15.137,-27.344,-35.156,-28.809,47.852
1685714582.582,-21.973,-27.832,-32.227,-27.344,223.633
1685714582.586,-29.297,-26.367,-32.227,-36.133,-18.555
1685714582.590,-27.832,-20.020,-30.273,-41.016,-158.203
1685714582.594,-28.320,-19.043,-30.273,-37.109,-100.586
1685714582.597,-20.996,-23.926,-37.598,-34.180,-91.309
1685714582.601,-25.879,-28.320,-40.527,-35.156,-109.863
1685714582.605,-41.504,-23.926,-35.645,-35.645,-49.316
1685714582.609,-40.527,-18.555,-27.832,-25.391,52.246
1685714582.613,-41.992,-28.320,-30.273,-29.297,-8.301
1685714582.617,-46.875,-32.227,-36.133,-36.133,-63.477
1685714582.621,-33.203,-26.367,-35.156,-31.250,-34.668
1685714582.624,-35.645,-27.344,-33.691,-24.414,174.316
1685714582.628,-47.852,-25.879,-31.250,-25.879,161.621
1685714582.632,-39.551,-28.809,-25.879,-24.902,-190.918
1685714582.636,-33.691,-35.645,-28.809,-22.461,-133.789
1685714582.640,-22.949,-36.133,-31.250,-23.438,21.484
1685714582.642,-16.113,-36.621,-27.344,-29.785,-51.758
1685714582.646,-34.668,-41.504,-36.621,-42.969,-153.320
1685714582.650,-37.598,-41.992,-43.945,-39.551,-111.328
1685714582.654,-20.996,-36.133,-39.551,-26.855,-94.727
1685714582.658,-16.113,-38.086,-39.551,-22.949,-69.824
1685714582.662,-17.090,-34.180,-33.203,-29.297,-9.766
1685714582.666,-30.273,-29.297,-32.227,-32.227,157.227
1685714582.669,-44.922,-34.180,-36.133,-30.762,365.723
1685714582.673,-38.574,-35.156,-33.203,-34.668,103.027
1685714582.677,-30.273,-32.227,-33.203,-32.227,-119.629
1685714582.681,-29.297,-35.156,-34.668,-30.762,-24.902
1685714582.685,-27.344,-31.738,-35.156,-32.227,-43.945
1685714582.686,-30.762,-27.344,-40.527,-33.691,-181.152
1685714582.690,-20.020,-25.391,-41.992,-27.832,-202.637
1685714582.694,-11.719,-29.297,-36.621,-20.996,-104.492
1685714582.698,-20.020,-28.809,-36.133,-20.020,-63.477
1685714582.702,-28.320,-26.855,-37.109,-26.367,-109.863
1685714582.706,-34.180,-30.273,-33.691,-26.367,-107.910
1685714582.710,-30.273,-29.785,-31.250,-19.531,194.824
1685714582.713,-22.461,-30.762,-34.180,-32.227,217.773
1685714582.717,-28.320,-31.738,-37.598,-50.293,-85.449
1685714582.721,-41.016,-34.180,-38.086,-54.199,-85.938
1685714582.725,-44.922,-30.273,-33.203,-35.156,230.469
1685714582.729,-45.410,-26.367,-30.762,-30.762,178.223
1685714582.731,-37.598,-27.344,-38.574,-42.480,-152.832
1685714582.735,-25.879,-25.391,-41.504,-31.738,-83.496
1685714582.739,-22.949,-23.926,-35.645,-21.973,-38.086
1685714582.743,-27.344,-22.949,-39.062,-20.020,-128.906
1685714582.747,-26.367,-22.949,-38.574,-23.926,-204.590
1685714582.751,-13.184,-21.973,-31.250,-14.160,159.180
1685714582.755,-19.043,-23.926,-32.227,-19.043,299.805
1685714582.758,-34.180,-28.809,-32.715,-28.320,-88.867
1685714582.762,-36.133,-29.785,-34.180,-21.484,-264.160
1685714582.766,-35.645,-25.879,-32.227,-23.438,11.230
1685714582.770,-28.809,-24.902,-29.297,-27.832,202.637
1685714582.774,-22.461,-21.484,-34.668,-31.250,-75.684
1685714582.806,-31.250,-19.043,-33.691,-34.180,-132.324
1685714582.810,-37.598,-26.367,-26.855,-40.527,-88.867
1685714582.814,-28.320,-30.273,-26.367,-33.691,-147.949
1685714582.818,-12.695,-22.949,-28.809,-23.926,-127.930
1685714582.822,-11.230,-14.648,-30.762,-23.926,-44.434
1685714582.826,-25.391,-14.160,-26.367,-28.809,66.406
1685714582.830,-42.480,-24.414,-28.809,-33.203,77.637
1685714582.833,-41.992,-34.180,-41.504,-34.668,-86.914
1685714582.837,-34.180,-26.855,-48.340,-34.668,-101.562
1685714582.841,-26.855,-19.531,-46.875,-44.922,318.848
1685714582.845,-24.902,-18.555,-41.504,-48.828,317.871
1685714582.849,-23.926,-21.973,-38.574,-44.922,-75.195
1685714582.837,-13.672,-21.973,-35.645,-37.109,-24.902
1685714582.841,-13.184,-23.926,-32.715,-29.785,60.547
1685714582.845,-20.996,-24.414,-34.180,-32.227,-62.988
1685714582.849,-17.578,-18.555,-29.785,-25.391,-141.602
1685714582.853,-22.949,-23.926,-27.344,-28.809,-90.820
1685714582.857,-39.551,-25.879,-30.273,-40.527,41.504
1685714582.861,-31.738,-21.973,-27.344,-30.273,9.277
1685714582.864,-19.043,-23.438,-26.367,-23.926,-104.004
1685714582.868,-19.043,-25.391,-21.973,-19.043,-28.320
1685714582.872,-26.367,-22.949,-22.949,-9.277,-60.547
1685714582.876,-38.574,-24.414,-30.762,-15.137,-217.773
1685714582.880,-32.227,-25.391,-29.297,-17.090,-211.914
1685714582.883,-19.043,-20.020,-27.344,-12.207,113.281
1685714582.887,-16.113,-23.926,-29.785,-18.555,231.445
1685714582.891,-19.043,-33.203,-33.691,-25.391,-59.082
1685714582.895,-25.391,-27.344,-32.715,-20.508,-167.480
1685714582.899,-27.344,-25.391,-32.715,-22.461,-62.012
1685714582.903,-24.414,-29.785,-35.156,-30.273,64.941
1685714582.907,-21.973,-24.414,-33.203,-25.391,-0.488
1685714582.910,-27.344,-23.926,-30.273,-27.344,-100.098
1685714582.914,-28.809,-28.809,-34.668,-20.996,162.109
1685714582.918,-23.926,-32.227,-35.645,-24.902,352.051
1685714582.922,-19.043,-33.691,-30.273,-39.062,-36.133
1685714582.926,-16.602,-33.691,-31.250,-33.691,-107.910
1685714582.927,-16.113,-27.832,-29.297,-29.785,-53.223
1685714582.931,-30.762,-23.926,-29.785,-33.203,-175.781
1685714582.935,-45.410,-30.762,-34.180,-28.809,-199.707
1685714582.939,-31.250,-30.273,-32.715,-15.137,-104.492
1685714582.943,-18.555,-21.484,-32.715,-14.648,9.277
1685714582.947,-27.832,-17.578,-31.738,-27.344,13.184
1685714582.951,-27.832,-15.625,-34.180,-27.344,-49.316
1685714582.954,-25.391,-16.602,-35.156,-28.320,62.988
1685714582.958,-19.531,-18.555,-29.297,-25.879,286.133
1685714582.962,-21.484,-23.438,-32.227,-26.367,45.410
1685714582.966,-39.551,-26.367,-29.297,-28.320,-131.836
1685714582.970,-41.992,-23.438,-26.855,-26.367,-86.426
1685714582.972,-29.785,-25.879,-32.227,-25.391,-168.457
1685714582.976,-20.508,-28.320,-34.668,-26.855,-159.180
1685714582.980,-16.602,-23.926,-34.180,-29.297,-80.566
1685714582.984,-18.555,-19.531,-30.762,-31.250,20.508
1685714582.988,-19.531,-18.066,-26.855,-30.762,-43.945
1685714582.992,-22.949,-18.066,-28.809,-20.508,-99.609
1685714582.996,-20.508,-25.879,-33.203,-18.555,-27.832
1685714582.999,-16.113,-26.367,-34.180,-21.484,293.945
1685714583.003,-15.625,-20.996,-32.715,-23.438,347.656
1685714583.007,-22.949,-23.438,-31.738,-29.785,-67.383
1685714583.011,-19.531,-18.066,-27.832,-30.762,-113.281
1685714583.015,-13.184,-18.555,-28.320,-27.832,62.500
1685714583.016,-19.043,-24.902,-34.668,-29.297,-41.992
1685714583.020,-22.949,-25.879,-35.156,-26.855,-189.453
1685714583.024,-23.926,-18.555,-32.715,-26.855,-130.859
1685714583.028,-18.555,-20.020,-34.668,-30.273,-87.891
1685714583.032,-6.348,-21.484,-32.227,-21.484,-98.633
1685714583.036,-4.395,-23.926,-34.180,-18.555,-23.926
1685714583.040,-18.066,-27.832,-34.668,-21.484,152.832
1685714583.043,-13.672,-21.973,-29.297,-13.672,246.582
1685714583.047,-15.625,-21.484,-31.250,-7.812,-19.043
1685714583.051,-17.090,-22.461,-31.738,-7.324,-185.059
1685714583.055,-8.789,-21.973,-33.203,-9.766,-20.020
1685714583.059,-5.371,-22.949,-33.691,-5.371,20.996
1685714583.062,-8.789,-18.066,-28.809,-3.418,-148.438
1685714583.066,-17.090,-13.672,-28.320,-17.578,-159.180
1685714583.070,-16.113,-14.648,-32.715,-16.113,-66.895
1685714583.074,-15.137,-19.043,-41.504,-15.137,-40.527
1685714583.078,-13.672,-26.367,-41.992,-28.809,-80.566
1685714583.082,-21.484,-29.785,-29.785,-35.645,-31.738
1685714583.086,-29.297,-27.344,-28.320,-30.762,314.453
1685714583.089,-29.297,-27.832,-29.785,-28.320,242.676
1685714583.093,-29.297,-27.832,-28.809,-35.645,-97.656
1685714583.097,-29.785,-23.438,-29.297,-33.203,-24.414
1685714583.101,-32.227,-21.973,-35.156,-30.273,62.500
1685714583.105,-26.367,-21.484,-34.180,-31.738,0.977
1685714583.107,-19.531,-16.602,-29.785,-37.109,-135.254
1685714583.111,-14.648,-17.090,-31.738,-44.434,-41.992
1685714583.115,-3.906,-22.461,-34.668,-41.504,55.176
1685714583.119,-17.578,-25.879,-34.668,-33.203,-107.422
1685714583.123,-35.156,-28.320,-26.855,-24.902,-185.547
1685714583.127,-36.133,-28.320,-25.391,-21.973,58.594
1685714583.131,-37.598,-24.414,-31.250,-20.996,163.086
1685714583.134,-28.809,-17.090,-32.227,-31.250,-78.613
1685714583.138,-22.461,-13.184,-27.832,-30.762,-165.527
1685714583.142,-26.855,-13.184,-26.367,-18.555,-19.043
1685714583.146,-28.809,-16.113,-32.227,-21.484,-3.906
1685714583.150,-28.320,-22.461,-34.668,-25.391,-138.672
1685714583.167,-20.508,-25.879,-35.645,-25.391,-107.422
1685714583.171,-26.855,-26.855,-33.203,-30.273,-69.824
1685714583.175,-30.273,-23.926,-24.902,-23.926,-46.387
1685714583.179,-35.156,-25.879,-34.668,-28.320,-83.984
1685714583.183,-39.551,-32.227,-40.039,-39.551,-151.367
1685714583.187,-22.461,-28.320,-30.273,-25.879,220.703
1685714583.191,-16.602,-24.902,-29.297,-16.602,291.504
1685714583.194,-34.668,-26.367,-30.273,-24.902,-114.746
1685714583.198,-37.109,-29.785,-28.809,-28.809,-49.316
1685714583.202,-28.320,-34.668,-27.832,-29.297,220.703
1685714583.206,-29.785,-31.738,-30.762,-34.180,100.586
1685714583.210,-31.738,-34.180,-35.156,-26.367,-164.551
1685714583.211,-34.180,-32.227,-31.738,-18.066,-82.520
1685714583.215,-45.410,-29.297,-31.250,-25.391,48.340
1685714583.219,-45.410,-35.156,-33.691,-29.297,-83.984
1685714583.223,-32.227,-36.621,-37.598,-26.855,-86.914
1685714583.227,-24.902,-34.668,-41.016,-35.156,69.824
1685714583.231,-30.273,-34.668,-42.969,-41.992,75.195
1685714583.235,-36.621,-32.715,-47.363,-38.086,26.855
1685714583.238,-39.062,-29.785,-43.457,-40.527,-11.719
1685714583.242,-29.297,-30.273,-38.574,-33.203,119.629
1685714583.246,-23.926,-27.344,-37.109,-23.438,369.629
1685714583.250,-35.156,-24.414,-40.039,-31.738,39.062
1685714583.254,-30.762,-25.391,-43.457,-36.621,-243.164
1685714583.256,-18.555,-28.320,-40.527,-33.691,-174.316
1685714583.260,-10.742,-25.391,-37.109,-36.133,-172.852
1685714583.264,-6.836,-23.438,-35.645,-37.109,-164.551
1685714583.268,-15.625,-27.344,-39.551,-40.527,-123.047
1685714583.272,-27.344,-32.227,-40.527,-36.133,-80.566
1685714583.276,-26.855,-30.273,-40.527,-33.691,31.738
1685714583.280,-26.855,-29.785,-39.062,-45.410,51.758
1685714583.283,-14.648,-25.879,-28.320,-38.086,0.977
1685714583.287,-30.762,-26.855,-26.367,-25.879,367.676
1685714583.291,-53.223,-35.645,-28.809,-30.273,507.324
1685714583.295,-35.645,-34.180,-26.855,-34.668,-48.340
1685714583.299,-20.996,-26.855,-26.367,-33.691,-211.426
1685714583.301,-19.043,-26.855,-33.203,-37.109,-75.195
1685714583.305,-27.832,-32.227,-33.203,-37.109,-125.000
1685714583.309,-32.227,-30.273,-31.738,-28.809,-175.293
1685714583.313,-26.367,-23.926,-33.203,-22.461,-145.020
1685714583.317,-25.391,-24.902,-33.691,-24.414,-96.191
1685714583.321,-26.367,-25.879,-36.621,-33.691,-38.574
1685714583.325,-23.926,-21.484,-36.621,-43.945,37.109
1685714583.328,-18.555,-24.414,-28.809,-32.227,153.320
1685714583.332,-25.879,-28.809,-28.809,-21.973,183.594
1685714583.336,-38.574,-30.273,-40.527,-33.691,-80.566
1685714583.340,-36.133,-28.320,-38.086,-31.250,-120.605
1685714583.344,-31.738,-21.973,-30.273,-25.391,45.410
1685714583.346,-31.738,-20.996,-31.738,-27.344,-27.832
1685714583.350,-34.180,-20.996,-32.715,-33.203,-217.773
1685714583.354,-33.203,-21.484,-30.273,-29.785,-185.547
1685714583.358,-28.320,-22.949,-32.227,-29.297,-116.211
1685714583.362,-31.738,-23.926,-32.715,-41.992,-97.656
1685714583.366,-30.762,-25.391,-31.250,-40.039,-48.828
1685714583.370,-34.180,-24.902,-28.809,-36.133,10.742
1685714583.373,-41.504,-24.414,-26.367,-38.086,248.047
1685714583.377,-39.551,-27.832,-33.691,-38.086,208.984
1685714583.381,-29.785,-27.832,-37.109,-41.504,-122.559
1685714583.385,-31.738,-22.461,-31.738,-36.133,-83.008
1685714583.389,-41.504,-21.484,-35.156,-28.320,61.035
1685714583.392,-35.645,-21.484,-39.551,-34.180,35.156
1685714583.396,-25.879,-22.461,-35.645,-36.133,-96.191
1685714583.400,-20.020,-26.367,-35.645,-35.645,-51.270
1685714583.404,-23.926,-23.438,-39.551,-35.645,29.785
1685714583.408,-31.250,-24.414,-38.086,-35.156,-131.836
1685714583.412,-34.180,-26.855,-34.180,-31.250,-160.645
1685714583.416,-32.715,-24.902,-33.203,-24.902,176.270
1685714583.419,-32.227,-23.438,-37.109,-32.227,320.801
1685714583.423,-31.738,-22.949,-36.621,-32.227,-67.871
1685714583.427,-28.809,-27.832,-26.855,-25.879,-222.656
1685714583.431,-30.273,-27.344,-26.855,-35.645,-157.715
1685714583.435,-25.879,-26.855,-30.273,-31.738,-86.914
1685714583.436,-22.461,-27.832,-37.109,-31.738,-83.496
1685714583.440,-30.273,-24.902,-40.527,-34.180,-132.324
1685714583.444,-30.273,-30.762,-35.645,-29.785,-54.199
1685714583.448,-25.879,-33.203,-35.645,-32.715,-10.742
1685714583.452,-25.879,-24.902,-33.203,-28.809,-86.426
1685714583.456,-23.438,-19.531,-31.738,-22.949,4.395
1685714583.460,-23.438,-19.531,-33.203,-27.344,327.637
1685714583.463,-27.344,-22.461,-27.344,-34.180,294.922
1685714583.467,-25.879,-25.391,-29.297,-34.180,-43.945
1685714583.471,-24.902,-23.438,-30.762,-34.668,-81.055
1685714583.475,-30.762,-24.414,-28.320,-35.645,0.488
1685714583.479,-26.367,-26.855,-30.762,-42.969,-63.477
1685714583.481,-31.738,-32.227,-33.691,-50.781,-167.480
1685714583.485,-41.016,-32.227,-30.762,-42.969,-96.680
1685714583.489,-28.320,-30.762,-26.855,-36.133,-68.848
1685714583.493,-22.949,-30.762,-28.320,-40.527,-78.613
1685714583.497,-31.250,-35.156,-30.762,-38.574,-86.426
1685714583.501,-36.621,-33.691,-33.691,-32.715,55.176
1685714583.505,-28.809,-29.297,-39.062,-31.738,114.258
1685714583.508,-23.438,-30.762,-34.668,-28.809,5.859
1685714583.512,-32.715,-36.133,-29.785,-35.645,-96.680
1685714583.516,-36.133,-39.062,-34.668,-29.785,31.738
1685714583.520,-49.316,-41.504,-29.297,-22.461,222.168
1685714583.524,-52.734,-43.945,-22.949,-32.227,-83.008
1685714583.541,-41.016,-42.480,-30.273,-34.180,-213.379
1685714583.545,-40.527,-36.621,-37.109,-38.574,-102.539
1685714583.549,-47.363,-32.227,-41.992,-41.504,-75.195
1685714583.553,-56.152,-29.785,-39.551,-47.363,-141.602
1685714583.557,-41.016,-28.320,-30.762,-50.781,-156.250
1685714583.561,-26.855,-29.785,-30.273,-39.551,-13.184
1685714583.565,-36.133,-34.668,-28.320,-37.109,7.324
1685714583.568,-34.668,-35.156,-30.273,-29.785,-66.895
1685714583.572,-37.109,-31.738,-29.297,-27.832,-44.434
1685714583.576,-41.992,-31.738,-22.461,-21.973,311.035
1685714583.580,-34.180,-37.598,-25.879,-18.555,319.824
1685714583.584,-25.391,-41.016,-30.273,-30.273,-155.762
1685714583.586,-30.273,-39.062,-30.273,-28.809,-117.188
1685714583.590,-32.715,-33.203,-25.879,-24.414,116.699
1685714583.594,-32.227,-29.785,-21.484,-20.508,-59.082
1685714583.598,-38.574,-31.738,-18.555,-24.414,-222.168
1685714583.602,-34.668,-28.320,-22.949,-29.297,-92.285
1685714583.606,-27.344,-25.391,-29.785,-25.391,-59.570
1685714583.610,-21.973,-27.344,-31.738,-27.344,-41.504
1685714583.613,-22.949,-25.879,-29.297,-27.832,-99.609
1685714583.617,-25.879,-21.484,-29.297,-17.578,0.000
1685714583.621,-16.602,-26.367,-33.691,-9.766,210.938
1685714583.625,-14.160,-30.273,-35.156,-15.137,58.105
1685714583.629,-22.461,-21.484,-38.086,-17.090,-80.078
1685714583.631,-27.344,-21.484,-36.133,-13.184,58.594
1685714583.635,-27.832,-30.273,-33.203,-14.160,65.918
1685714583.639,-28.320,-34.668,-35.156,-20.508,-165.039
1685714583.643,-32.227,-33.203,-36.133,-25.879,-134.766
1685714583.647,-32.227,-23.438,-33.691,-18.066,-83.008
1685714583.651,-30.762,-20.020,-32.715,-24.902,-69.336
1685714583.655,-33.691,-23.438,-32.715,-34.668,-48.340
1685714583.658,-22.949,-26.367,-30.273,-29.785,-110.352
1685714583.662,-10.254,-28.809,-30.762,-24.414,243.652
1685714583.666,-25.391,-30.273,-34.668,-24.902,385.742
1685714583.670,-47.852,-30.762,-34.668,-30.273,-83.496
1685714583.674,-38.086,-33.203,-33.691,-28.320,-131.836
1685714583.676,-22.461,-28.320,-28.320,-27.344,-10.254
1685714583.680,-25.879,-22.461,-23.926,-30.273,-15.137
1685714583.684,-31.738,-25.879,-26.855,-31.738,-151.367
1685714583.688,-43.457,-30.273,-30.273,-35.156,-84.473
1685714583.692,-40.039,-29.297,-35.156,-30.762,30.273
1685714583.696,-32.715,-22.949,-44.922,-37.109,-48.340
1685714583.700,-36.133,-17.578,-49.316,-44.922,-66.895
1685714583.703,-37.598,-17.578,-49.316,-42.969,76.660
1685714583.707,-38.086,-19.043,-50.293,-46.875,196.777
1685714583.711,-29.297,-15.137,-52.734,-49.805,-104.492
1685714583.715,-19.043,-9.277,-49.805,-41.504,-202.148
1685714583.719,-21.973,-10.742,-51.270,-35.156,-70.801
1685714583.722,-33.691,-15.625,-50.781,-35.156,-31.738
1685714583.726,-38.574,-14.160,-38.086,-30.273,-114.746
1685714583.730,-25.879,-12.207,-35.156,-25.391,-125.977
1685714583.734,-16.113,-12.695,-40.039,-27.344,-52.246
1685714583.738,-10.254,-13.672,-37.598,-26.367,-43.457
1685714583.742,-8.789,-18.555,-35.645,-29.297,20.996
1685714583.746,-9.277,-21.484,-36.133,-36.621,49.805
1685714583.749,-10.742,-19.531,-33.691,-27.344,301.270
1685714583.753,-23.438,-23.926,-34.180,-25.879,403.809
1685714583.757,-25.391,-29.297,-35.156,-26.855,-27.832
1685714583.761,-23.438,-27.832,-29.297,-32.227,-88.867
1685714583.765,-27.832,-22.461,-28.320,-40.039,47.363
1685714583.766,-23.438,-14.648,-32.227,-26.855,-105.469
1685714583.770,-19.531,-18.066,-31.250,-24.414,-233.887
1685714583.774,-15.137,-20.020,-29.297,-19.043,-123.047
1685714583.778,-10.742,-16.602,-27.832,-16.113,-70.801
1685714583.782,-17.578,-17.090,-27.344,-20.996,-154.297
1685714583.786,-21.973,-19.043,-30.762,-27.344,-192.871
1685714583.790,-12.695,-20.020,-32.715,-22.949,116.211
1685714583.793,-10.254,-21.484,-33.691,-17.090,440.430
1685714583.797,-11.230,-27.832,-37.598,-24.414,84.961
1685714583.801,-13.672,-23.926,-32.715,-23.438,-190.430
1685714583.805,-21.973,-20.020,-33.203,-24.902,-58.594
1685714583.809,-27.344,-21.484,-34.668,-23.926,-68.359
1685714583.811,-23.438,-20.996,-33.691,-16.602,-174.805
1685714583.815,-15.625,-26.367,-36.133,-25.391,-134.766
1685714583.819,-23.438,-27.344,-39.062,-32.227,-56.641
1685714583.823,-33.203,-18.555,-38.086,-32.715,-112.305
1685714583.827,-30.762,-20.996,-35.645,-27.832,-183.105
1685714583.831,-21.484,-26.367,-39.062,-27.344,-66.406
1685714583.835,-21.484,-26.367,-40.527,-31.738,278.809
1685714583.838,-37.109,-26.367,-36.621,-34.668,175.293
1685714583.842,-35.156,-21.484,-30.273,-34.668,-68.359
1685714583.846,-31.738,-25.879,-26.367,-27.344,-43.457
1685714583.850,-29.785,-31.250,-29.297,-24.902,218.750
1685714583.854,-20.508,-28.809,-29.297,-30.762,242.188
1685714583.856,-17.578,-28.809,-28.320,-33.203,-133.301
1685714583.860,-27.832,-32.227,-32.715,-38.086,-103.027
1685714583.864,-34.668,-32.715,-31.250,-28.320,-53.223
1685714583.868,-31.738,-32.227,-30.762,-24.414,-155.762
1685714583.872,-28.320,-31.250,-40.039,-34.668,-165.039
1685714583.876,-27.832,-33.203,-40.039,-38.086,71.289
1685714583.880,-31.738,-33.691,-39.062,-36.621,137.695
1685714583.883,-29.297,-27.344,-38.574,-32.227,-85.938
1685714583.887,-23.438,-25.879,-38.086,-24.902,-137.207
1685714583.891,-17.090,-29.785,-33.691,-17.090,101.074
1685714583.895,-15.137,-24.902,-25.391,-16.113,213.379
1685714583.899,-21.973,-21.484,-30.273,-22.949,-38.574
1685714583.916,-25.391,-25.879,-33.203,-22.461,-208.496
1685714583.920,-20.020,-23.926,-32.715,-19.531,-101.074
1685714583.924,-20.020,-24.414,-32.715,-25.879,-34.668
1685714583.928,-21.484,-32.227,-31.738,-28.320,-130.371
1685714583.932,-30.273,-31.250,-30.273,-22.461,-79.102
1685714583.936,-33.691,-23.438,-30.762,-25.391,87.402
1685714583.940,-32.715,-25.879,-32.715,-31.250,57.617
1685714583.943,-33.203,-32.227,-31.250,-17.578,-95.215
1685714583.947,-32.715,-34.180,-30.762,-21.484,-56.152
1685714583.951,-39.551,-36.621,-29.297,-38.574,307.617
1685714583.955,-42.480,-31.250,-24.414,-35.645,288.574
1685714583.959,-36.621,-31.738,-24.902,-40.527,-149.902
1685714583.961,-35.156,-36.133,-32.227,-43.945,-123.535
1685714583.965,-22.461,-33.691,-36.133,-36.133,53.223
1685714583.969,-17.578,-30.762,-38.086,-32.715,-57.129
1685714583.973,-24.902,-31.250,-39.062,-33.203,-222.168
1685714583.977,-29.785,-33.203,-32.227,-32.715,-50.781
1685714583.981,-27.344,-35.645,-33.203,-28.320,149.902
1685714583.985,-17.578,-35.645,-41.992,-24.902,41.504
1685714583.988,-27.832,-28.320,-45.410,-27.344,-124.023
1685714583.992,-31.738,-30.273,-40.039,-29.785,-72.266
1685714583.996,-27.344,-35.156,-40.039,-26.855,114.258
1685714584.000,-22.461,-23.926,-39.551,-23.926,-91.797
1685714584.004,-19.531,-21.973,-36.621,-31.738,-113.281
1685714584.006,-24.902,-27.344,-34.180,-34.180,-34.180
1685714584.010,-30.273,-26.367,-30.762,-41.016,-59.082
1685714584.014,-29.785,-27.344,-32.227,-39.551,-104.980
1685714584.018,-27.344,-29.297,-31.250,-31.738,-93.262
1685714584.022,-23.926,-31.738,-28.320,-36.133,83.984
1685714584.026,-31.738,-32.227,-35.645,-39.062,141.113
1685714584.030,-41.504,-28.809,-44.434,-40.527,-9.766
1685714584.033,-39.551,-29.785,-43.945,-38.574,-170.410
1685714584.037,-37.109,-35.156,-42.969,-34.180,211.914
1685714584.041,-23.926,-34.180,-39.551,-28.320,389.160
1685714584.045,-22.461,-33.203,-38.086,-39.062,-101.074
1685714584.049,-28.809,-28.809,-34.668,-36.621,-159.180
1685714584.051,-25.879,-20.508,-31.738,-26.855,-19.043
1685714584.055,-27.344,-23.438,-34.668,-32.227,-104.980
1685714584.059,-18.066,-31.250,-36.133,-38.574,-139.160
1685714584.063,-13.672,-31.250,-29.297,-39.551,-64.453
1685714584.067,-29.785,-28.320,-26.367,-28.809,-26.367
1685714584.071,-25.391,-28.320,-29.297,-22.461,73.730
1685714584.075,-8.301,-25.391,-28.809,-20.996,61.035
1685714584.078,-20.996,-24.902,-25.879,-9.277,171.387
1685714584.082,-27.832,-28.320,-24.414,-5.859,420.898
1685714584.086,-24.414,-27.832,-26.855,-13.672,50.293
1685714584.090,-33.203,-29.297,-30.273,-16.113,-243.652
1685714584.094,-34.180,-32.227,-32.227,-19.531,-165.039
1685714584.096,-29.785,-31.250,-31.738,-26.367,-126.465
1685714584.100,-28.320,-27.344,-29.297,-33.203,-138.672
1685714584.104,-30.273,-25.879,-32.227,-29.297,-186.523
1685714584.108,-31.250,-27.832,-35.156,-29.785,-126.953
1685714584.112,-23.438,-28.809,-28.809,-26.855,-84.473
1685714584.116,-20.020,-24.902,-23.926,-23.926,-70.312
1685714584.120,-29.297,-24.902,-28.320,-24.902,-71.289
1685714584.123,-32.227,-24.902,-31.250,-18.555,130.371
1685714584.127,-34.180,-24.902,-32.227,-23.438,257.324
1685714584.131,-31.738,-26.855,-34.180,-26.855,7.324
1685714584.135,-24.414,-28.320,-32.715,-21.484,-90.820
1685714584.139,-24.902,-33.691,-31.738,-21.484,156.738
1685714584.141,-32.227,-38.574,-32.715,-26.855,148.438
1685714584.145,-37.598,-38.574,-31.738,-34.180,-181.152
1685714584.149,-31.250,-29.785,-22.949,-27.344,-189.941
1685714584.153,-19.043,-24.414,-17.090,-20.996,-135.742
1685714584.157,-20.020,-25.391,-23.438,-22.461,-161.621
1685714584.161,-26.855,-23.926,-26.367,-29.785,-130.859
1685714584.165,-27.344,-26.367,-26.367,-27.832,129.395
1685714584.168,-23.926,-30.273,-30.762,-25.391,303.711
1685714584.172,-28.809,-29.297,-33.691,-23.438,20.508
1685714584.176,-29.297,-25.879,-31.738,-21.973,-118.652
1685714584.180,-28.320,-26.855,-33.203,-20.020,-74.219
1685714584.184,-37.109,-30.273,-34.668,-16.113,-19.531
1685714584.187,-37.109,-29.297,-34.180,-15.137,-87.402
1685714584.191,-20.020,-27.344,-35.156,-11.230,-169.434
1685714584.195,-10.742,-30.762,-39.062,-16.113,-53.711
1685714584.199,-27.344,-29.785,-33.691,-20.508,-53.223
1685714584.203,-38.574,-34.668,-29.785,-25.391,-115.723
1685714584.207,-39.062,-34.180,-31.250,-33.203,-63.965
1685714584.211,-28.809,-26.855,-24.902,-31.738,209.473
1685714584.214,-24.414,-23.926,-24.902,-29.297,208.008
1685714584.218,-31.250,-23.926,-26.855,-30.273,-62.500
1685714584.222,-30.762,-21.973,-24.902,-29.785,-29.297
1685714584.226,-27.344,-21.973,-27.344,-20.508,39.551
1685714584.230,-20.996,-27.832,-28.320,-17.090,-4.883
1685714584.232,-17.578,-24.902,-25.879,-31.738,-128.906
1685714584.236,-21.973,-24.902,-20.020,-34.180,5.859
1685714584.240,-30.762,-28.320,-17.090,-25.879,129.395
1685714584.244,-40.039,-27.832,-23.438,-32.715,-72.754
1685714584.248,-31.738,-29.297,-31.250,-36.621,-160.156
1685714584.252,-23.438,-29.785,-34.180,-34.668,118.164
1685714584.256,-35.645,-31.250,-32.227,-39.551,374.512
1685714584.259,-37.598,-31.250,-29.785,-31.738,16.602
1685714584.263,-39.551,-33.691,-27.832,-23.438,-216.309
1685714584.267,-37.598,-37.598,-33.203,-29.297,-9.277
1685714584.271,-26.367,-35.156,-37.598,-30.762,19.531
1685714584.275,-19.531,-31.250,-35.156,-31.738,-136.230
1685714584.292,-16.113,-31.250,-29.785,-35.645,-83.496
1685714584.296,-20.020,-31.738,-30.273,-39.551,-68.359
1685714584.300,-25.391,-35.156,-33.691,-45.898,-153.320
1685714584.304,-24.414,-31.250,-34.180,-36.621,-190.430
1685714584.308,-26.367,-31.250,-33.203,-31.250,-51.758
1685714584.312,-32.715,-29.785,-27.344,-29.297,306.641
1685714584.316,-39.551,-24.414,-26.855,-25.391,292.480
1685714584.319,-34.668,-22.461,-26.367,-31.738,-159.668
1685714584.323,-20.508,-19.043,-23.438,-25.879,-186.035
1685714584.327,-18.066,-16.113,-20.020,-23.926,229.004
1685714584.331,-25.879,-20.508,-22.949,-42.480,145.020
1685714584.335,-41.016,-25.391,-28.320,-47.852,-226.562
1685714584.336,-46.387,-31.738,-30.273,-42.480,-148.438
1685714584.340,-31.738,-33.203,-36.621,-34.180,-22.461
1685714584.344,-22.461,-28.809,-38.574,-30.273,-133.301
1685714584.348,-29.785,-27.344,-34.668,-37.109,-194.336
1685714584.352,-39.062,-23.926,-32.227,-28.809,-127.930
1685714584.356,-34.668,-22.949,-31.250,-25.879,-66.895
1685714584.360,-24.414,-25.879,-31.250,-33.203,-64.453
1685714584.363,-28.320,-29.297,-30.273,-35.156,-96.191
1685714584.367,-29.297,-29.297,-29.297,-31.738,57.617
1685714584.371,-29.785,-22.461,-30.762,-25.879,327.637
1685714584.375,-35.645,-24.414,-29.297,-29.785,49.316
1685714584.379,-35.645,-33.691,-27.832,-34.180,-173.828
1685714584.382,-25.879,-28.809,-25.391,-32.715,-86.426
1685714584.386,-19.531,-23.926,-28.320,-41.504,-104.980
1685714584.390,-18.555,-28.809,-30.273,-39.062,-143.066
1685714584.394,-13.184,-29.297,-31.738,-30.762,-129.883
1685714584.398,-4.883,-25.879,-33.691,-31.738,-113.770
1685714584.402,-8.301,-25.879,-30.762,-24.902,2.441
1685714584.406,-26.855,-26.367,-31.250,-25.391,69.336
1685714584.409,-34.180,-29.297,-30.762,-27.344,-136.719
1685714584.413,-29.785,-28.809,-31.250,-19.531,183.105
1685714584.417,-30.762,-30.762,-34.668,-14.648,499.023
1685714584.421,-24.902,-25.879,-34.180,-20.020,-0.488
1685714584.425,-22.461,-19.043,-28.320,-27.344,-173.828
1685714584.426,-25.879,-24.902,-31.738,-25.391,-39.551
1685714584.430,-31.738,-29.297,-35.645,-24.902,-155.762
1685714584.434,-29.785,-27.832,-31.738,-23.926,-168.457
1685714584.438,-23.926,-24.414,-29.297,-18.066,-29.297
1685714584.442,-28.320,-20.020,-29.785,-14.648,30.762
1685714584.446,-31.738,-22.461,-31.738,-21.484,-17.578
1685714584.450,-31.250,-25.879,-28.809,-21.973,-43.945
1685714584.453,-25.879,-25.391,-23.438,-21.973,120.117
1685714584.457,-8.789,-27.344,-21.973,-20.996,264.648
1685714584.461,-14.160,-28.809,-28.320,-20.996,8.301
1685714584.465,-20.508,-27.344,-27.344,-26.367,-135.742
1685714584.469,-23.438,-24.414,-26.367,-30.762,-10.254
1685714584.472,-33.691,-23.438,-32.715,-31.738,17.578
1685714584.476,-32.715,-26.855,-30.762,-27.832,-104.980
1685714584.480,-38.574,-37.109,-35.645,-30.762,-121.582
1685714584.484,-37.109,-37.109,-43.945,-37.598,5.371
1685714584.488,-27.344,-33.203,-43.457,-32.227,22.949
1685714584.492,-28.320,-33.691,-41.016,-24.414,-90.332
1685714584.496,-27.344,-31.738,-43.457,-22.949,-96.680
1685714584.499,-21.484,-31.250,-37.598,-14.160,152.832
1685714584.503,-25.879,-27.832,-31.250,-18.066,236.816
1685714584.507,-36.621,-30.273,-40.039,-31.738,-32.715
1685714584.511,-36.621,-37.109,-40.039,-33.691,-113.770
1685714584.515,-22.461,-36.133,-34.668,-27.832,33.691
1685714584.517,-23.438,-34.668,-38.086,-30.762,12.207
1685714584.521,-30.273,-31.250,-38.574,-32.715,-149.414
1685714584.525,-34.180,-29.785,-40.039,-32.715,1.465
1685714584.529,-30.273,-26.367,-42.480,-35.645,67.871
1685714584.533,-21.484,-27.344,-38.086,-32.715,-134.766
1685714584.537,-23.438,-30.273,-35.156,-28.320,-120.605
1685714584.541,-23.438,-22.949,-30.762,-33.203,100.586
1685714584.544,-22.461,-18.555,-25.391,-30.762,239.746
1685714584.548,-25.391,-27.344,-28.320,-35.645,-63.965
1685714584.552,-17.578,-26.367,-38.574,-41.504,-180.176
1685714584.556,-15.625,-19.531,-40.039,-29.785,-34.180
1685714584.560,-24.414,-20.508,-37.109,-31.250,-36.133
1685714584.561,-31.250,-27.832,-40.039,-39.062,-143.066
1685714584.565,-19.531,-26.855,-34.668,-34.180,-166.504
1685714584.569,-14.160,-18.066,-33.203,-32.227,-128.418
1685714584.573,-28.320,-29.297,-40.039,-32.715,-95.703
1685714584.577,-32.227,-36.621,-41.016,-36.133,-52.734
1685714584.581,-29.785,-35.156,-41.504,-40.527,-88.867
1685714584.585,-32.715,-33.203,-42.480,-42.969,191.406
1685714584.588,-34.668,-33.691,-40.527,-36.133,370.605
1685714584.592,-19.043,-32.715,-40.527,-35.645,-42.969
1685714584.596,-18.066,-31.250,-40.527,-33.691,-128.418
1685714584.600,-24.902,-31.738,-37.109,-31.738,42.480
1685714584.604,-23.438,-26.855,-34.668,-39.062,-75.684
1685714584.607,-33.203,-24.414,-36.621,-37.598,-247.070
1685714584.611,-32.715,-24.902,-38.574,-30.273,-133.789
1685714584.615,-24.414,-23.926,-32.715,-34.180,-53.223
1685714584.619,-28.809,-21.973,-37.109,-40.527,-101.562
1685714584.623,-33.203,-21.973,-45.410,-40.039,-178.711
1685714584.627,-27.832,-27.344,-39.551,-39.062,12.695
1685714584.631,-18.555,-30.273,-39.551,-30.762,244.629
1685714584.634,-16.602,-28.809,-39.551,-35.156,78.613
1685714584.638,-20.996,-27.832,-32.715,-37.598,-98.633
1685714584.642,-21.973,-31.250,-31.738,-42.480,-47.363
1685714584.646,-19.531,-29.297,-27.344,-37.598,1.465
1685714584.650,-12.695,-21.973,-25.391,-25.879,-128.418
1685714584.667,-15.625,-22.461,-28.320,-32.227,-179.688
1685714584.671,-35.156,-26.367,-27.832,-32.227,57.129
1685714584.675,-38.086,-26.367,-27.832,-30.273,130.371
1685714584.679,-26.855,-29.297,-29.297,-28.320,-120.117
1685714584.683,-12.695,-28.809,-25.879,-17.578,-51.758
1685714584.687,-11.230,-28.320,-29.297,-20.020,78.613
1685714584.691,-17.090,-26.855,-27.832,-23.438,97.656
1685714584.694,-25.391,-24.414,-24.902,-22.461,15.625
1685714584.698,-29.785,-21.484,-25.391,-26.367,-148.438
1685714584.702,-21.973,-24.414,-23.926,-26.855,185.059
1685714584.706,-21.973,-29.297,-26.855,-32.715,407.227
1685714584.710,-29.297,-37.598,-30.273,-34.668,-18.066
1685714584.711,-35.156,-43.945,-33.691,-36.133,-176.270
1685714584.715,-34.668,-34.180,-29.785,-42.969,-149.414
1685714584.719,-34.668,-32.715,-27.832,-46.387,-189.453
1685714584.723,-26.855,-32.715,-32.715,-41.992,-203.613
1685714584.727,-21.484,-26.367,-30.273,-35.156,-90.820
1685714584.731,-23.926,-24.414,-32.227,-28.809,10.254
1685714584.735,-25.391,-25.879,-36.133,-27.344,-18.555
1685714584.738,-22.461,-27.344,-35.156,-32.227,-87.891
1685714584.742,-27.832,-27.344,-33.691,-30.762,83.496
1685714584.746,-33.691,-27.344,-33.691,-18.066,305.664
1685714584.750,-38.574,-31.250,-36.133,-22.461,6.836
1685714584.754,-50.781,-33.203,-32.715,-28.809,-153.320
1685714584.756,-46.875,-25.879,-33.691,-22.949,6.836
1685714584.760,-31.738,-20.020,-36.133,-21.973,-10.254
1685714584.764,-23.438,-20.020,-30.273,-22.949,-99.121
1685714584.768,-26.855,-21.484,-36.621,-27.832,-136.230
1685714584.772,-33.203,-25.879,-37.598,-25.879,-73.242
1685714584.776,-23.926,-27.344,-34.180,-19.531,34.668
1685714584.780,-8.789,-24.414,-33.691,-23.926,-20.508
1685714584.783,-8.789,-30.762,-34.180,-33.203,-117.676
1685714584.787,-22.949,-31.250,-35.645,-18.555,235.352
1685714584.791,-26.367,-19.043,-28.320,-8.301,410.156
1685714584.795,-19.531,-20.020,-23.926,-20.020,-65.918
1685714584.799,-26.855,-27.832,-23.926,-18.555,-127.930
1685714584.817,-30.273,-28.320,-30.273,-14.160,-52.246
1685714584.821,-29.297,-26.367,-33.203,-20.508,-111.328
1685714584.825,-25.879,-21.973,-30.273,-27.832,-98.633
1685714584.829,-20.020,-25.391,-32.715,-32.227,29.785
1685714584.833,-21.484,-35.156,-39.062,-27.832,28.320
1685714584.837,-15.625,-26.367,-38.574,-26.367,-15.137
1685714584.841,-25.879,-23.926,-39.551,-29.297,-12.207
1685714584.844,-49.805,-28.320,-41.504,-34.668,28.809
1685714584.848,-49.316,-23.926,-36.133,-31.250,185.547
1685714584.852,-28.809,-18.555,-33.691,-31.738,-46.875
1685714584.856,-26.367,-19.531,-32.227,-39.551,-180.176
1685714584.860,-30.273,-20.508,-31.250,-36.621,-88.867
1685714584.846,-28.320,-17.578,-31.738,-31.250,-106.445
1685714584.850,-25.391,-24.902,-34.180,-31.250,-191.895
1685714584.854,-14.160,-27.832,-32.715,-26.367,-189.941
1685714584.858,-15.625,-24.902,-32.227,-26.367,-29.785
1685714584.862,-22.949,-23.926,-33.203,-29.297,24.902
1685714584.866,-25.391,-28.809,-38.574,-39.062,-30.273
1685714584.870,-26.855,-35.156,-41.992,-39.551,-37.598
1685714584.873,-26.855,-35.156,-41.992,-38.574,-33.203
1685714584.877,-24.414,-31.250,-41.504,-34.180,-22.949
1685714584.881,-25.879,-28.809,-35.156,-26.855,-93.262
1685714584.885,-32.227,-31.738,-31.738,-30.762,-161.621
1685714584.889,-41.016,-34.180,-37.109,-29.785,199.219
1685714584.891,-33.691,-31.250,-41.992,-32.227,421.875
1685714584.895,-28.809,-31.738,-38.574,-35.156,-11.719
1685714584.899,-34.180,-31.738,-32.715,-31.250,-187.500
1685714584.903,-38.574,-28.320,-36.133,-28.809,-164.062
1685714584.907,-40.039,-25.391,-40.039,-33.203,-196.777
1685714584.911,-43.945,-31.738,-40.039,-39.551,-116.211
1685714584.915,-42.969,-29.297,-38.574,-34.180,65.430
1685714584.918,-34.668,-27.344,-31.738,-32.715,328.125
1685714584.922,-29.297,-27.832,-30.762,-24.414,66.895
1685714584.926,-30.273,-21.484,-32.227,-17.090,-208.008
1685714584.930,-28.320,-21.484,-35.156,-27.344,-101.562
1685714584.934,-22.461,-24.414,-36.621,-35.156,-40.039
1685714584.936,-28.809,-27.344,-33.203,-38.086,-65.430
1685714584.940,-30.762,-27.344,-32.227,-40.527,-114.258
1685714584.944,-36.621,-25.879,-34.180,-40.527,-86.914
1685714584.948,-35.156,-30.762,-33.203,-38.086,-50.781
1685714584.952,-34.180,-37.109,-34.180,-40.039,-68.848
1685714584.956,-38.086,-39.551,-39.062,-45.410,1.465
1685714584.960,-43.945,-43.457,-38.086,-44.922,299.805
1685714584.963,-51.758,-39.062,-33.691,-43.457,240.234
1685714584.967,-40.039,-32.715,-33.203,-37.598,-74.707
1685714584.971,-30.273,-35.156,-36.621,-37.109,-6.836
1685714584.975,-34.180,-38.086,-33.691,-33.203,270.020
1685714584.979,-28.320,-29.297,-27.832,-20.020,124.023
1685714584.981,-23.926,-26.855,-23.926,-23.926,-272.949
1685714584.985,-23.926,-29.785,-20.996,-29.785,-140.625
1685714584.989,-23.438,-34.668,-28.809,-20.020,21.484
1685714584.993,-12.207,-33.203,-28.809,-3.418,-73.242
1685714584.997,-17.090,-28.809,-28.320,-18.555,-216.309
1685714585.001,-37.598,-29.297,-39.062,-39.062,-21.484
1685714585.005,-40.527,-28.320,-37.598,-34.668,135.742
1685714585.008,-34.180,-29.785,-32.227,-39.551,-20.996
1685714585.012,-31.738,-28.320,-32.715,-47.852,-126.465
1685714585.016,-42.480,-21.484,-28.809,-37.598,-19.531
1685714585.020,-47.363,-16.602,-28.320,-34.668,52.734
1685714585.024,-29.785,-16.602,-33.691,-41.016,-183.594
1685714585.041,-14.160,-14.160,-36.621,-36.133,-140.137
1685714585.045,-23.926,-23.438,-34.180,-39.062,3.418
1685714585.049,-24.902,-27.832,-30.762,-43.457,-10.742
1685714585.053,-22.949,-23.438,-34.180,-44.922,-148.438
1685714585.057,-28.809,-28.809,-36.133,-46.387,-184.082
1685714585.061,-21.484,-30.273,-31.738,-48.828,-19.043
1685714585.065,-20.020,-25.391,-29.297,-43.457,41.504
1685714585.068,-25.391,-24.902,-29.785,-32.227,-95.215
1685714585.072,-20.996,-24.414,-26.855,-25.391,-26.855
1685714585.076,-16.113,-29.297,-27.832,-25.391,128.906
1685714585.080,-10.742,-31.738,-33.691,-30.273,-31.250
1685714585.084,-10.254,-24.414,-32.227,-26.367,-161.133
1685714585.087,-17.578,-23.926,-26.367,-20.996,-38.574
1685714585.091,-30.273,-31.738,-30.762,-21.484,237.793
1685714585.095,-35.156,-35.645,-34.180,-20.020,119.141
1685714585.099,-30.273,-31.738,-31.738,-25.879,-166.016
1685714585.103,-28.809,-30.273,-32.227,-21.484,-51.270
1685714585.107,-28.320,-29.297,-32.227,-19.531,130.859
1685714585.111,-32.715,-30.762,-37.109,-27.832,27.344
1685714585.114,-35.156,-31.250,-35.645,-22.949,-147.461
1685714585.118,-30.762,-35.156,-33.691,-20.020,64.941
1685714585.122,-29.297,-34.180,-33.691,-25.391,292.969
1685714585.126,-29.297,-21.973,-30.273,-30.762,-31.250
1685714585.130,-32.227,-20.020,-31.250,-30.762,-194.336
1685714585.132,-29.785,-24.414,-30.273,-32.227,-115.234
1685714585.136,-17.578,-26.367,-28.320,-32.715,-107.422
1685714585.140,-8.789,-23.926,-31.250,-38.086,-152.832
1685714585.144,-12.207,-20.508,-27.832,-32.715,-148.926
1685714585.148,-29.785,-21.484,-30.273,-35.645,-53.711
1685714585.152,-42.969,-23.438,-34.180,-37.109,36.621
1685714585.156,-39.551,-30.762,-33.691,-33.203,-1.465
1685714585.159,-29.297,-32.715,-31.250,-40.039,-62.012
1685714585.163,-28.809,-30.762,-27.344,-32.227,204.590
1685714585.167,-37.109,-29.785,-30.273,-31.250,473.145
1685714585.171,-40.039,-25.391,-32.715,-35.156,48.828
1685714585.175,-33.203,-28.809,-29.785,-34.180,-198.730
1685714585.176,-26.855,-31.250,-28.320,-32.715,-110.840
1685714585.180,-31.250,-31.250,-24.414,-36.621,-154.785
1685714585.184,-31.738,-28.320,-25.391,-37.598,-199.219
1685714585.188,-24.414,-30.762,-30.273,-32.227,-110.352
1685714585.192,-28.320,-37.598,-34.668,-36.133,-80.566
1685714585.196,-39.551,-39.551,-35.156,-38.574,-81.055
1685714585.200,-35.645,-37.109,-32.715,-39.551,-0.488
1685714585.203,-39.551,-36.621,-33.691,-37.109,62.012
1685714585.207,-44.434,-32.715,-31.250,-25.391,338.379
1685714585.211,-29.785,-29.297,-28.320,-24.414,137.207
1685714585.215,-22.461,-30.762,-28.320,-29.297,-147.949
1685714585.219,-27.344,-28.809,-26.367,-23.926,-5.859
1685714585.221,-30.762,-22.949,-28.320,-19.043,-54.199
1685714585.225,-37.598,-28.320,-28.809,-22.949,-142.578
1685714585.229,-41.504,-33.203,-25.879,-26.855,-162.598
1685714585.233,-29.785,-29.297,-30.762,-24.902,-132.324
1685714585.237,-19.043,-26.367,-32.715,-22.461,-67.383
1685714585.241,-13.184,-26.855,-31.738,-16.602,16.602
1685714585.245,-18.555,-25.879,-29.297,-2.441,-31.738
1685714585.248,-26.367,-26.855,-29.785,-4.883,110.352
1685714585.252,-28.809,-24.414,-29.785,-23.926,225.586
1685714585.256,-31.738,-22.461,-26.855,-33.691,-41.992
1685714585.260,-40.527,-34.180,-29.297,-32.227,-74.707
1685714585.264,-49.316,-36.133,-32.227,-28.809,158.691
1685714585.266,-47.363,-28.320,-31.250,-37.109,49.316
1685714585.270,-40.039,-29.785,-30.762,-39.551,-247.070
1685714585.274,-30.762,-32.227,-35.156,-30.762,-60.547
1685714585.278,-23.926,-24.414,-36.133,-30.762,49.805
1685714585.282,-28.320,-30.273,-31.250,-34.668,-158.203
1685714585.286,-37.598,-38.574,-31.738,-37.598,-161.133
1685714585.290,-30.273,-34.180,-29.297,-35.645,64.941
1685714585.293,-24.414,-34.668,-28.320,-26.367,207.520
1685714585.297,-35.156,-34.180,-30.762,-32.227,-23.926
1685714585.301,-40.039,-31.250,-36.133,-36.133,-204.102
1685714585.305,-36.621,-24.902,-34.668,-34.668,-151.855
1685714585.309,-22.949,-29.297,-27.832,-37.598,-135.742
1685714585.327,-17.090,-34.668,-30.273,-37.598,-116.699
1685714585.331,-22.461,-31.250,-30.762,-30.273,-42.480
1685714585.335,-27.832,-31.250,-27.832,-27.344,42.480
1685714585.339,-28.320,-34.668,-31.250,-32.227,1.953
1685714585.343,-31.250,-32.227,-32.227,-28.809,-120.117
1685714585.347,-30.762,-26.367,-27.344,-22.461,-2.930
1685714585.351,-26.367,-24.414,-28.320,-22.461,318.848
1685714585.354,-35.645,-20.508,-24.414,-23.438,182.617
1685714585.358,-35.645,-20.996,-22.949,-22.461,-113.770
1685714585.362,-24.414,-21.484,-24.902,-25.391,-104.004
1685714585.366,-17.578,-23.926,-23.926,-27.832,55.664
1685714585.370,-13.672,-23.926,-25.391,-25.391,26.367
1685714585.356,-20.996,-26.367,-30.762,-31.738,-196.289
1685714585.360,-30.762,-30.762,-34.668,-38.086,-125.488
1685714585.364,-25.391,-31.738,-36.621,-35.645,-25.391
1685714585.368,-29.785,-34.180,-39.551,-38.574,-27.832
1685714585.372,-39.551,-36.621,-42.480,-48.340,-95.703
1685714585.376,-37.598,-37.109,-40.039,-44.922,33.203
1685714585.380,-33.203,-36.133,-38.574,-37.109,117.676
1685714585.383,-33.691,-36.133,-38.086,-34.668,-73.242
1685714585.387,-20.996,-33.203,-35.156,-32.715,-173.340
1685714585.391,-12.695,-26.367,-33.203,-31.738,15.137
1685714585.395,-28.320,-27.344,-29.785,-30.273,352.051
1685714585.399,-36.621,-23.438,-27.344,-37.598,101.074
1685714585.416,-31.738,-19.043,-26.367,-32.715,-173.828
1685714585.420,-29.785,-25.879,-27.344,-26.855,-84.473
1685714585.424,-20.996,-22.461,-31.250,-30.273,-31.250
1685714585.428,-13.672,-20.020,-31.738,-32.715,-117.188
1685714585.432,-19.043,-20.020,-29.785,-41.992,-132.812
1685714585.436,-22.461,-21.484,-27.832,-39.062,-0.977
1685714585.440,-20.996,-25.879,-31.738,-31.738,18.066
1685714585.443,-16.602,-24.414,-32.227,-22.949,-21.973
1685714585.447,-34.180,-33.203,-25.879,-21.973,-57.129
1685714585.451,-51.758,-39.551,-23.926,-32.227,253.906
1685714585.455,-42.480,-31.738,-21.484,-26.855,369.141
1685714585.459,-36.133,-28.809,-23.438,-32.227,-55.176
1685714585.462,-28.320,-35.645,-27.344,-39.551,-150.879
1685714585.466,-20.996,-36.133,-26.367,-37.598,-74.219
1685714585.470,-32.715,-37.109,-27.832,-38.086,-143.555
1685714585.474,-42.969,-37.109,-30.762,-38.086,-166.992
1685714585.478,-35.156,-28.320,-29.785,-35.645,-82.520
1685714585.482,-36.133,-32.227,-29.297,-32.715,63.477
1685714585.486,-37.109,-36.133,-36.621,-28.320,103.027
1685714585.489,-34.668,-33.691,-38.086,-30.273,-73.242
1685714585.493,-40.527,-35.645,-30.762,-33.691,12.695
1685714585.497,-32.227,-35.645,-30.273,-21.484,282.715
1685714585.501,-23.438,-36.621,-36.133,-16.113,38.086
1685714585.505,-16.113,-25.879,-34.180,-16.602,-162.598
1685714585.506,-17.090,-16.113,-27.832,-17.090,-3.906
1685714585.510,-26.367,-21.973,-32.715,-24.902,-45.410
1685714585.514,-17.578,-24.902,-36.621,-23.926,-203.125
1685714585.518,-9.766,-29.297,-38.574,-26.367,-142.090
1685714585.522,-13.672,-28.320,-42.480,-31.738,-74.707
1685714585.526,-15.625,-25.391,-39.551,-24.902,-13.672
1685714585.530,-22.949,-26.367,-36.621,-29.297,48.340
1685714585.533,-31.250,-28.320,-32.715,-29.785,-54.199
1685714585.537,-32.227,-30.273,-34.180,-25.391,244.141
1685714585.541,-20.020,-23.926,-35.156,-23.438,421.875
1685714585.545,-19.531,-21.484,-31.738,-19.531,-27.344
1685714585.549,-32.227,-24.902,-31.738,-24.414,-94.727
1685714585.551,-41.992,-22.461,-33.203,-30.273,18.555
1685714585.555,-40.527,-25.391,-28.809,-24.414,-68.848
1685714585.559,-28.809,-25.391,-31.738,-22.461,-130.859
1685714585.563,-28.809,-19.531,-35.645,-25.391,-38.086
1685714585.567,-35.645,-26.855,-35.156,-25.879,-81.055
1685714585.571,-35.645,-30.273,-40.527,-27.344,-93.262
1685714585.575,-34.668,-33.203,-41.016,-29.785,-29.297
1685714585.578,-36.621,-34.180,-38.086,-31.738,81.543
1685714585.582,-35.156,-29.297,-40.527,-38.574,154.297
1685714585.586,-35.645,-26.855,-41.016,-38.574,-80.078
1685714585.590,-36.621,-22.949,-43.945,-32.715,-204.590
1685714585.594,-39.062,-26.855,-49.805,-35.156,-41.504
1685714585.597,-31.738,-32.227,-39.551,-28.320,41.016
1685714585.601,-29.297,-35.645,-37.598,-28.320,-22.949
1685714585.605,-29.297,-30.762,-34.180,-27.344,-109.863
1685714585.609,-20.996,-23.926,-22.949,-21.973,-63.965
1685714585.613,-20.020,-26.855,-29.785,-24.414,-3.418
1685714585.617,-23.926,-22.461,-35.156,-24.414,-62.500
1685714585.621,-23.438,-27.344,-35.645,-25.879,-12.695
1685714585.624,-24.414,-35.645,-36.621,-32.715,238.281
1685714585.628,-33.203,-35.156,-41.504,-32.715,260.742
1685714585.632,-32.227,-31.250,-41.504,-35.645,-103.516
1685714585.636,-17.578,-33.203,-35.156,-20.996,-101.562
1685714585.640,-9.766,-35.645,-34.668,-5.371,101.074
1685714585.642,-26.855,-31.250,-35.156,-30.762,-11.719
1685714585.646,-29.785,-26.367,-30.762,-38.574,-175.781
1685714585.650,-17.090,-22.461,-27.832,-18.555,-134.766
1685714585.654,-12.695,-21.484,-27.832,-17.090,-14.160
1685714585.658,-19.043,-22.949,-31.738,-27.832,18.555
1685714585.662,-30.762,-24.414,-39.551,-32.715,-25.879
1685714585.666,-28.809,-20.508,-36.621,-27.832,85.449
1685714585.669,-32.227,-20.508,-34.668,-21.973,301.758
1685714585.673,-25.391,-26.367,-38.574,-30.273,79.102
1685714585.677,-15.137,-24.414,-40.039,-32.227,-201.660
1685714585.681,-20.508,-20.020,-38.574,-29.785,-140.625
1685714585.685,-31.250,-25.391,-34.668,-35.645,-111.816
1685714585.686,-31.738,-30.273,-33.203,-32.227,-162.109
1685714585.690,-21.973,-33.691,-35.645,-34.180,-198.730
1685714585.694,-21.973,-36.133,-33.203,-39.551,-103.516
1685714585.698,-29.297,-35.156,-27.832,-35.645,-94.238
1685714585.702,-35.645,-34.668,-28.320,-35.645,-158.691
1685714585.706,-29.297,-33.691,-34.668,-36.621,-97.656
1685714585.710,-20.508,-35.645,-41.504,-30.273,248.535
1685714585.713,-22.949,-40.527,-39.062,-33.203,331.055
1685714585.717,-14.648,-32.227,-39.062,-35.645,-42.480
1685714585.721,-19.531,-26.855,-37.598,-32.715,-192.871
1685714585.725,-36.621,-36.621,-32.227,-34.180,-11.230
1685714585.729,-31.738,-40.039,-35.645,-35.156,31.250
1685714585.732,-22.949,-37.598,-38.086,-35.645,-214.355
1685714585.736,-38.086,-38.574,-42.969,-37.598,-108.398
1685714585.740,-42.969,-36.621,-48.340,-43.945,-78.125
1685714585.744,-34.180,-29.297,-41.992,-42.969,-164.062
1685714585.748,-31.738,-21.973,-37.598,-33.691,-179.688
1685714585.752,-26.855,-25.879,-39.062,-25.879,79.590
1685714585.756,-22.461,-32.715,-38.574,-25.391,280.273
1685714585.759,-24.414,-29.297,-32.227,-25.879,-36.621
1685714585.763,-27.344,-31.250,-32.227,-31.738,-108.398
1685714585.767,-21.973,-34.668,-32.227,-28.809,163.086
1685714585.771,-15.625,-27.832,-27.832,-25.879,182.617
1685714585.775,-22.461,-22.461,-29.297,-22.949,-91.309
1685714585.792,-20.020,-17.090,-26.855,-22.949,-127.441
1685714585.796,-17.578,-17.578,-26.855,-31.250,-63.477
1685714585.800,-16.602,-23.926,-30.762,-25.391,-44.434
1685714585.804,-7.324,-21.973,-35.156,-16.113,-92.285
1685714585.808,-8.789,-20.508,-30.762,-6.836,-25.879
1685714585.812,-21.484,-24.902,-28.320,-14.648,56.152
1685714585.816,-31.250,-22.949,-31.250,-26.855,-3.906
1685714585.819,-29.297,-25.391,-31.250,-30.273,-62.012
1685714585.823,-23.438,-32.715,-32.227,-31.250,-72.754
1685714585.827,-19.043,-24.902,-27.832,-20.020,247.559
1685714585.831,-18.555,-23.438,-27.832,-16.113,293.457
1685714585.835,-24.414,-28.809,-30.762,-32.715,-75.195
1685714585.836,-28.809,-28.320,-31.738,-32.715,-112.793
1685714585.840,-27.344,-25.879,-38.086,-25.391,-6.836
1685714585.844,-21.973,-22.949,-33.203,-22.949,-84.961
1685714585.848,-19.531,-25.879,-26.855,-24.414,-165.039
1685714585.852,-28.320,-28.320,-27.832,-27.832,-100.098
1685714585.856,-30.762,-27.832,-25.391,-24.414,-23.438
1685714585.860,-26.855,-31.738,-22.949,-22.949,-78.125
1685714585.863,-25.879,-29.297,-26.855,-17.578,-98.633
1685714585.867,-28.320,-32.227,-27.832,-13.184,119.629
1685714585.871,-33.691,-36.133,-29.297,-19.531,250.488
1685714585.875,-35.645,-26.855,-35.156,-25.879,-61.035
1685714585.879,-25.391,-28.320,-35.156,-23.926,-151.367
1685714585.882,-18.555,-27.832,-38.574,-29.297,-74.707
1685714585.886,-27.344,-21.484,-39.551,-30.762,-44.922
1685714585.890,-41.016,-32.227,-39.062,-41.016,-103.516
1685714585.894,-36.133,-33.691,-41.504,-47.363,-204.102
1685714585.898,-32.715,-24.414,-35.645,-39.062,-10.254
1685714585.902,-38.574,-26.367,-29.785,-32.227,111.328
1685714585.906,-39.551,-33.691,-31.738,-25.879,-72.266
1685714585.909,-38.086,-34.180,-30.762,-30.273,-163.086
1685714585.913,-38.574,-28.809,-28.320,-27.344,76.172
1685714585.917,-38.086,-27.832,-34.668,-25.879,56.641
1685714585.921,-30.273,-29.785,-38.086,-31.250,-178.223
1685714585.925,-31.738,-31.738,-32.715,-35.645,-157.715
1685714585.927,-36.133,-29.297,-32.227,-32.715,142.090
1685714585.931,-41.016,-33.691,-31.738,-27.832,92.285
1685714585.935,-41.504,-43.457,-35.645,-36.133,-205.078
1685714585.939,-37.598,-42.969,-42.969,-42.969,-49.805
1685714585.943,-34.180,-40.039,-41.504,-41.016,175.781
1685714585.947,-35.156,-37.109,-33.691,-38.086,140.625
1685714585.951,-28.809,-31.250,-28.809,-34.180,9.277
1685714585.954,-19.531,-24.414,-31.738,-27.832,30.273
1685714585.958,-25.391,-26.367,-32.715,-22.949,308.594
1685714585.962,-30.273,-23.438,-27.832,-20.508,83.496
1685714585.966,-32.227,-26.855,-34.180,-27.832,-242.188
1685714585.970,-40.039,-32.227,-41.504,-34.180,-157.715
1685714585.971,-41.992,-31.738,-39.551,-29.297,-122.559
1685714585.975,-34.180,-31.738,-37.598,-24.414,-129.395
1685714585.979,-35.645,-22.949,-41.016,-31.250,-113.281
1685714585.983,-32.715,-18.066,-42.969,-35.156,-81.543
1685714585.987,-25.879,-18.066,-41.016,-23.926,-79.102
1685714585.991,-29.785,-12.695,-42.969,-28.320,-26.855
1685714585.995,-27.344,-15.137,-42.969,-34.668,-43.945
1685714585.998,-33.203,-20.996,-38.086,-32.227,289.551
1685714586.002,-43.457,-26.367,-33.691,-36.621,481.934
1685714586.006,-41.504,-31.738,-32.715,-40.039,-7.812
1685714586.010,-30.273,-27.344,-31.250,-34.180,-183.594
1685714586.014,-26.367,-22.949,-32.715,-28.809,-33.203
1685714586.016,-19.043,-26.367,-30.762,-21.484,-82.031
1685714586.020,-23.926,-30.762,-25.879,-20.020,-184.570
1685714586.024,-31.738,-28.809,-34.180,-29.785,-122.559
1685714586.028,-20.020,-22.949,-34.668,-29.785,-91.797
1685714586.032,-16.602,-23.926,-33.691,-30.273,-113.770
1685714586.036,-17.090,-25.391,-33.203,-26.855,-34.668
1685714586.040,-13.184,-20.508,-31.738,-20.508,120.117
1685714586.043,-15.625,-19.531,-28.320,-19.043,236.328
1685714586.047,-13.672,-23.438,-26.855,-22.949,-56.641
1685714586.051,-14.648,-20.996,-30.273,-28.809,-202.148
1685714586.055,-13.184,-21.973,-28.320,-22.461,19.531
1685714586.059,-15.625,-25.391,-30.273,-25.879,87.891
1685714586.061,-27.832,-23.438,-31.738,-31.250,-119.141
1685714586.065,-21.973,-16.113,-26.367,-18.555,-125.488
1685714586.069,-9.766,-12.695,-26.855,-12.695,-83.984
1685714586.073,-19.531,-25.391,-39.062,-25.879,-112.305
1685714586.077,-28.320,-29.297,-38.574,-23.926,-164.062
1685714586.081,-29.297,-21.484,-34.180,-21.973,-80.566
1685714586.085,-32.227,-22.461,-34.668,-26.367,171.387
1685714586.088,-31.250,-24.902,-34.180,-23.438,91.309
1685714586.092,-30.762,-20.508,-31.738,-26.367,-62.012
1685714586.096,-28.320,-25.879,-31.250,-30.273,-19.043
1685714586.100,-27.832,-31.250,-37.109,-32.715,104.004
1685714586.104,-36.133,-31.250,-36.133,-35.645,116.699
1685714586.107,-33.203,-34.180,-31.250,-40.039,-115.234
1685714586.111,-27.344,-33.691,-33.691,-38.574,-76.660
1685714586.115,-45.898,-29.785,-39.551,-41.992,36.621
1685714586.119,-57.617,-28.320,-39.551,-41.992,-76.660
1685714586.123,-59.082,-34.180,-41.016,-44.922,-157.227
1685714586.127,-54.688,-37.109,-39.551,-42.480,40.527
1685714586.131,-44.434,-34.668,-29.297,-24.902,229.492
1685714586.134,-44.922,-39.551,-27.344,-29.785,4.395
1685714586.138,-42.969,-38.086,-30.273,-41.504,-206.543
1685714586.142,-38.574,-34.180,-26.855,-37.598,-62.012
1685714586.146,-32.227,-36.133,-28.320,-32.227,40.527
1685714586.150,-20.020,-34.180,-30.273,-28.809,-70.801
1685714586.167,-19.043,-33.691,-24.902,-24.902,-72.754
1685714586.171,-22.949,-29.297,-23.926,-25.391,-29.785
1685714586.175,-33.691,-27.344,-28.809,-25.879,-10.742
1685714586.179,-31.738,-25.391,-24.902,-20.508,-20.508
1685714586.183,-20.508,-23.926,-20.996,-18.555,-41.016
1685714586.187,-19.531,-28.320,-26.855,-21.484,291.992
1685714586.191,-27.832,-28.320,-29.785,-21.484,378.906
1685714586.194,-26.367,-26.855,-26.855,-24.902,-54.199
1685714586.198,-15.137,-26.367,-29.297,-25.879,-139.648
1685714586.202,-16.602,-26.367,-31.738,-19.043,169.922
1685714586.206,-13.672,-26.367,-32.227,-20.508,148.438
1685714586.210,-18.555,-26.367,-30.762,-20.020,-173.340
1685714586.212,-23.926,-26.855,-30.273,-14.648,-142.578
1685714586.216,-21.973,-24.902,-32.227,-19.043,-87.402
1685714586.220,-31.738,-29.297,-37.109,-28.320,-81.055
1685714586.224,-33.203,-32.715,-34.180,-23.926,-84.961
1685714586.228,-29.785,-25.879,-27.344,-22.949,31.738
1685714586.232,-28.320,-19.043,-24.414,-28.809,144.531
1685714586.236,-28.809,-17.578,-21.484,-23.438,-4.883
1685714586.239,-22.461,-21.973,-22.461,-27.344,-138.184
1685714586.243,-15.625,-24.902,-25.391,-31.738,-4.395
1685714586.247,-17.090,-25.391,-25.879,-30.762,289.551
1685714586.251,-17.090,-25.391,-23.926,-33.691,35.645
1685714586.255,-13.672,-21.973,-22.949,-34.180,-227.539
1685714586.257,-13.184,-24.414,-25.879,-27.344,-163.086
1685714586.261,-15.137,-23.926,-30.273,-28.320,-136.230
1685714586.265,-26.855,-26.855,-37.109,-40.527,-154.297
1685714586.269,-33.203,-33.203,-33.691,-33.203,-168.457
1685714586.273,-31.738,-34.180,-28.809,-26.855,-133.789
1685714586.277,-28.320,-29.297,-33.203,-25.879,-46.875
1685714586.281,-24.414,-31.738,-35.645,-36.133,8.301
1685714586.284,-29.297,-33.203,-36.621,-48.340,-40.039
1685714586.288,-29.297,-29.297,-32.715,-36.621,217.773
1685714586.292,-17.090,-23.926,-35.645,-23.926,464.355
1685714586.296,-17.578,-22.461,-37.109,-36.133,1.465
1685714586.300,-24.902,-27.832,-27.832,-43.457,-234.375
1685714586.301,-20.020,-27.832,-28.809,-36.621,-41.016
1685714586.305,-24.902,-26.367,-28.320,-39.062,-130.371
1685714586.309,-23.438,-23.926,-22.949,-39.551,-264.160
1685714586.313,-17.578,-20.508,-24.902,-31.250,-181.641
1685714586.317,-27.832,-25.391,-25.879,-27.344,-51.758
1685714586.321,-19.531,-21.484,-26.855,-31.250,62.012
1685714586.325,-18.066,-17.090,-20.996,-29.297,36.621
1685714586.328,-26.855,-31.250,-23.438,-33.203,47.852
1685714586.332,-31.738,-37.109,-32.227,-37.598,203.125
1685714586.336,-32.227,-29.297,-34.180,-27.344,86.426
1685714586.340,-29.297,-30.762,-34.180,-20.996,-54.688
1685714586.344,-36.621,-32.227,-30.273,-29.297,35.156
1685714586.346,-41.016,-28.320,-34.180,-37.109,3.418
1685714586.350,-41.504,-27.344,-34.668,-34.668,-211.914
1685714586.354,-35.645,-23.438,-32.715,-26.855,-183.105
1685714586.358,-31.738,-20.996,-36.621,-31.250,-111.328
1685714586.362,-29.785,-25.879,-33.691,-37.598,-131.348
1685714586.366,-24.902,-27.344,-27.832,-33.691,-85.938
1685714586.370,-24.902,-24.414,-22.949,-24.902,-33.691
1685714586.373,-23.926,-25.391,-17.090,-18.066,196.777
1685714586.377,-24.414,-28.320,-21.484,-23.438,383.301
1685714586.381,-25.391,-30.762,-27.344,-29.297,52.246
1685714586.385,-31.250,-31.738,-23.926,-34.668,-101.562
1685714586.389,-26.855,-32.715,-23.926,-27.832,96.191
1685714586.392,-14.648,-30.273,-24.902,-13.184,81.543
1685714586.396,-13.184,-31.250,-22.461,-13.184,-133.301
1685714586.400,-21.973,-29.297,-19.531,-16.113,-85.449
1685714586.404,-28.809,-23.926,-21.973,-18.555,61.035
1685714586.408,-29.785,-24.414,-26.367,-26.367,-55.664
1685714586.412,-27.832,-21.973,-26.855,-25.879,-80.078
1685714586.416,-24.902,-27.832,-36.133,-26.367,194.336
1685714586.419,-26.855,-36.621,-40.039,-29.297,326.660
1685714586.423,-27.832,-37.598,-38.086,-27.832,9.277
1685714586.427,-21.484,-29.785,-38.086,-25.879,-211.426
1685714586.431,-12.207,-24.414,-36.133,-13.672,-153.809
1685714586.435,-16.602,-27.832,-37.598,-15.625,-107.422
1685714586.437,-29.297,-32.715,-37.109,-27.832,-125.977
1685714586.441,-24.414,-29.785,-41.992,-28.809,-141.602
1685714586.445,-21.484,-30.273,-45.898,-28.809,-25.879
1685714586.449,-22.949,-32.715,-38.086,-27.344,-16.602
1685714586.453,-22.949,-34.180,-35.156,-24.902,-114.258
1685714586.457,-24.414,-29.297,-35.645,-25.879,-73.242
1685714586.461,-17.578,-21.484,-29.785,-28.809,274.414
1685714586.464,-17.578,-22.949,-29.297,-23.926,338.867
1685714586.468,-18.066,-31.250,-34.180,-18.066,27.344
1685714586.472,-20.020,-29.297,-36.621,-17.578,-45.898
1685714586.476,-30.273,-27.344,-35.645,-19.531,62.012
1685714586.480,-32.227,-30.273,-41.504,-28.809,12.207
1685714586.482,-27.832,-34.180,-40.527,-33.691,-222.168
1685714586.486,-27.832,-34.180,-34.180,-30.273,-159.668
1685714586.490,-19.531,-30.762,-42.969,-37.598,-67.383
1685714586.494,-20.508,-30.762,-42.480,-37.109,-100.586
1685714586.498,-37.109,-31.738,-35.645,-33.203,-224.609
1685714586.502,-32.227,-34.668,-37.598,-39.551,-2.930
1685714586.506,-27.832,-35.156,-36.133,-41.504,239.258
1685714586.509,-23.438,-34.180,-34.668,-39.062,7.324
1685714586.513,-21.484,-33.691,-36.133,-39.551,-106.445
1685714586.517,-31.250,-34.180,-35.645,-41.992,32.227
1685714586.521,-39.551,-31.250,-35.156,-38.574,79.102
1685714586.525,-29.297,-27.832,-36.133,-30.762,-156.250
1685714586.541,-20.020,-24.414,-30.273,-20.996,-193.848
1685714586.545,-18.066,-23.438,-24.902,-27.344,-51.758
1685714586.549,-20.996,-20.508,-29.297,-28.809,-16.602
1685714586.553,-27.344,-17.090,-25.879,-18.555,-168.457
1685714586.557,-28.320,-27.344,-18.066,-19.531,-164.551
1685714586.561,-23.438,-30.273,-24.902,-16.602,6.836
1685714586.565,-22.461,-26.855,-31.738,-14.648,25.391
1685714586.568,-25.391,-28.809,-32.227,-22.461,-72.266
1685714586.572,-22.949,-26.855,-31.250,-12.695,-51.270
1685714586.576,-11.230,-26.367,-27.344,2.441,23.438
1685714586.580,-18.555,-30.273,-32.227,-10.742,-69.336
1685714586.584,-47.852,-32.715,-39.551,-38.574,-149.902
1685714586.586,-48.828,-22.949,-33.203,-35.645,-93.750
1685714586.590,-43.457,-23.926,-31.738,-30.762,238.770
1685714586.594,-62.012,-36.133,-35.156,-55.664,314.941
1685714586.598,-62.988,-34.668,-36.621,-62.988,-86.914
1685714586.602,-48.340,-32.227,-40.039,-55.664,-76.172
1685714586.606,-49.805,-26.855,-32.715,-66.406,59.082
1685714586.610,-56.641,-24.414,-27.344,-71.777,-25.879
1685714586.613,-61.035,-30.273,-24.902,-71.777,-194.824
1685714586.617,-58.594,-28.320,-20.508,-62.012,-77.637
1685714586.621,-46.875,-18.555,-20.020,-43.945,275.879
1685714586.625,-41.504,-22.461,-22.949,-46.387,87.891
1685714586.629,-35.156,-25.879,-21.484,-50.781,-226.562
1685714586.631,-32.715,-23.926,-21.973,-42.480,-83.008
1685714586.635,-32.227,-24.414,-25.879,-33.691,12.207
1685714586.639,-24.902,-20.508,-26.855,-33.203,-106.445
1685714586.643,-19.531,-19.531,-21.484,-38.086,-100.586
1685714586.647,-17.578,-18.555,-23.438,-39.062,-20.020
1685714586.651,-17.090,-21.973,-34.668,-39.062,4.883
1685714586.655,-16.602,-24.902,-33.203,-39.551,-71.289
1685714586.658,-12.207,-23.926,-27.832,-28.320,-44.922
1685714586.662,-20.508,-26.855,-35.645,-35.645,78.125
1685714586.666,-31.250,-25.879,-40.039,-47.852,-3.906
1685714586.670,-21.973,-21.973,-43.945,-42.480,-154.785
1685714586.674,-19.043,-17.090,-41.016,-41.992,-170.898
1685714586.676,-18.555,-17.090,-28.809,-34.180,271.973
1685714586.680,-18.066,-21.973,-26.367,-25.391,441.406
1685714586.684,-20.508,-19.531,-28.809,-21.484,-22.461
1685714586.688,-24.414,-21.973,-28.809,-27.832,-141.602
1685714586.692,-25.879,-22.949,-31.738,-29.785,-95.215
1685714586.696,-16.113,-23.438,-31.738,-20.508,-71.777
1685714586.700,-12.207,-29.297,-34.668,-24.902,-20.996
1685714586.703,-17.090,-22.461,-33.203,-19.531,96.680
1685714586.707,-20.508,-16.113,-25.879,0.977,178.711
1685714586.711,-21.484,-21.973,-25.879,-5.371,-59.082
1685714586.715,-20.996,-31.250,-36.621,-20.996,-175.781
1685714586.719,-20.020,-35.645,-34.668,-16.602,-132.812
1685714586.721,-15.625,-28.809,-31.250,-19.531,-151.367
1685714586.725,-21.484,-23.438,-39.062,-17.090,-205.566
1685714586.729,-26.367,-21.484,-36.621,-14.160,-157.227
1685714586.733,-14.648,-15.625,-25.391,-1.465,35.156
1685714586.737,-12.695,-18.555,-24.902,-6.348,-14.160
1685714586.741,-18.066,-24.902,-30.762,-26.855,-65.918
1685714586.745,-20.996,-22.949,-28.809,-19.531,-34.180
1685714586.748,-20.508,-21.484,-26.367,-8.789,136.719
1685714586.752,-13.672,-21.973,-30.762,-9.766,246.582
1685714586.756,-16.113,-25.879,-33.203,-23.438,-20.996
1685714586.760,-14.648,-26.367,-31.738,-25.391,-116.211
1685714586.764,-9.766,-24.902,-36.133,-14.648,-3.906
1685714586.766,-22.949,-31.250,-37.598,-26.367,-67.383
1685714586.770,-42.969,-33.691,-34.668,-51.270,-182.129
1685714586.774,-52.246,-29.785,-35.156,-67.383,-84.961
1685714586.778,-48.828,-28.320,-26.367,-67.383,-82.520
1685714586.782,-51.758,-27.832,-25.879,-50.781,-125.488
1685714586.786,-47.852,-25.879,-28.320,-41.992,-89.355
1685714586.790,-41.016,-26.855,-22.461,-41.504,63.965
1685714586.793,-41.992,-25.879,-26.367,-41.504,456.543
1685714586.797,-38.574,-25.879,-26.855,-41.504,227.051
1685714586.801,-31.250,-23.926,-22.461,-32.715,-206.055
1685714586.805,-24.902,-17.578,-22.461,-27.344,-110.840
1685714586.809,-23.926,-18.555,-28.320,-33.203,-83.496
1685714586.826,-12.207,-21.484,-26.855,-27.832,-133.301
1685714586.830,-8.789,-27.832,-29.785,-29.785,-93.262
1685714586.834,-21.484,-30.762,-39.062,-32.715,-61.523
1685714586.838,-25.879,-28.320,-38.574,-30.273,-85.449
1685714586.842,-13.184,-31.738,-36.621,-24.414,-123.047
1685714586.846,-14.648,-39.062,-37.598,-15.625,-88.379
1685714586.850,-22.949,-33.691,-36.133,-18.555,308.594
1685714586.853,-25.879,-22.461,-29.297,-21.973,324.219
1685714586.857,-14.648,-23.926,-24.414,-21.973,-48.828
1685714586.861,-8.301,-24.414,-29.785,-23.926,-57.129
1685714586.865,-6.836,-20.996,-35.645,-20.508,166.992
1685714586.869,-0.977,-21.484,-26.367,-11.230,153.320
1685714586.857,-14.160,-24.414,-21.484,-11.719,-176.758
1685714586.861,-21.484,-23.438,-26.855,-16.602,-188.477
1685714586.865,-20.508,-25.879,-28.809,-20.020,-137.695
1685714586.869,-16.113,-27.832,-31.250,-16.602,-170.898
1685714586.873,-1.465,-23.926,-33.203,-13.672,-165.039
1685714586.877,-9.277,-18.555,-26.855,-15.625,32.227
1685714586.881,-22.461,-23.926,-29.785,-21.973,127.441
1685714586.884,-10.254,-28.320,-38.574,-20.020,-52.246
1685714586.888,-7.324,-28.320,-37.109,-15.625,-146.484
1685714586.892,-7.812,-28.320,-30.762,-13.672,39.062
1685714586.896,-12.695,-28.809,-33.691,-14.648,363.281
1685714586.900,-26.855,-31.250,-46.387,-24.414,117.676
1685714586.916,-34.180,-34.668,-47.363,-28.809,-190.430
1685714586.920,-23.926,-31.250,-38.086,-30.273,-92.773
1685714586.924,-22.949,-27.344,-39.062,-33.691,-30.273
1685714586.928,-27.832,-27.832,-41.016,-32.227,-97.656
1685714586.932,-30.762,-28.320,-34.180,-27.344,-138.184
1685714586.936,-37.598,-31.738,-29.785,-24.902,-16.113
1685714586.940,-24.902,-28.809,-31.738,-19.043,51.270
1685714586.943,-14.160,-28.809,-31.738,-23.438,-77.148
1685714586.947,-21.973,-34.180,-32.715,-21.973,-85.938
1685714586.951,-26.367,-31.250,-35.156,-21.484,232.910
1685714586.955,-29.297,-27.832,-33.203,-31.738,302.246
1685714586.959,-35.645,-35.156,-33.691,-35.645,-87.402
1685714586.961,-29.297,-32.227,-31.250,-27.832,-123.535
1685714586.965,-22.461,-30.762,-25.391,-24.902,-8.301
1685714586.969,-16.602,-26.855,-23.438,-30.273,-80.078
1685714586.973,-16.113,-20.996,-26.855,-22.461,-213.867
1685714586.977,-20.020,-26.367,-29.297,-19.043,-90.332
1685714586.981,-10.742,-24.902,-22.949,-29.297,143.555
1685714586.985,-13.184,-26.367,-27.344,-29.785,114.746
1685714586.988,-27.344,-29.785,-36.621,-29.785,-83.008
1685714586.992,-36.133,-32.227,-38.574,-32.715,-64.453
1685714586.996,-30.273,-32.715,-37.109,-25.879,174.316
1685714587.000,-18.066,-26.855,-32.715,-20.996,-37.598
1685714587.004,-17.578,-22.949,-28.809,-16.602,-187.012
1685714587.022,-31.738,-27.344,-30.273,-18.555,-83.008
1685714587.026,-33.691,-29.297,-23.438,-24.902,-73.242
1685714587.030,-26.855,-31.250,-25.391,-30.273,-133.301
1685714587.034,-20.508,-28.809,-28.320,-32.227,-118.652
1685714587.038,-20.020,-26.855,-25.391,-28.320,40.527
1685714587.042,-29.785,-32.715,-25.391,-28.320,124.023
1685714587.046,-28.320,-28.320,-26.367,-20.508,90.332
1685714587.049,-27.344,-22.461,-33.691,-17.090,-71.777
1685714587.053,-25.879,-23.926,-33.203,-13.184,119.629
1685714587.057,-17.578,-26.367,-31.250,-13.672,324.219
1685714587.061,-21.973,-21.484,-32.715,-23.438,-66.406
1685714587.065,-32.227,-21.484,-33.691,-29.785,-191.406
1685714587.052,-29.297,-27.344,-28.809,-28.320,-165.527
1685714587.056,-24.902,-25.879,-26.367,-21.973,-179.199
1685714587.060,-27.832,-29.297,-28.320,-23.438,-175.293
1685714587.064,-33.203,-29.785,-24.414,-13.184,-150.391
1685714587.068,-31.738,-32.227,-22.461,-9.766,-114.258
1685714587.072,-30.273,-35.156,-22.949,-17.578,-83.496
1685714587.076,-30.762,-33.203,-21.973,-14.160,-116.699
1685714587.079,-26.855,-31.738,-24.902,-13.184,33.691
1685714587.083,-25.391,-31.250,-32.227,-25.391,134.766
1685714587.087,-32.227,-32.227,-39.551,-34.180,-41.016
1685714587.091,-33.691,-34.180,-39.062,-30.762,-132.812
1685714587.095,-21.484,-26.367,-29.785,-13.672,68.848
1685714587.096,-25.879,-23.926,-27.832,-14.160,410.156
1685714587.100,-39.551,-34.668,-38.574,-36.621,98.145
1685714587.104,-30.273,-28.320,-44.434,-33.691,-191.406
1685714587.108,-27.344,-25.391,-38.574,-27.832,-92.773
1685714587.112,-27.832,-29.297,-30.273,-23.438,-76.172
1685714587.116,-21.484,-26.855,-29.785,-16.602,-37.109
1685714587.120,-24.902,-24.902,-30.273,-30.762,12.695
1685714587.123,-34.668,-29.785,-27.832,-34.668,235.352
1685714587.127,-35.645,-31.738,-26.855,-29.785,302.734
1685714587.131,-28.320,-28.809,-25.391,-26.367,-1.465
1685714587.135,-27.832,-28.320,-25.391,-23.926,-82.520
1685714587.139,-23.438,-23.926,-24.414,-20.020,165.527
1685714587.142,-24.902,-24.414,-20.996,-20.996,111.328
1685714587.146,-30.762,-34.668,-25.391,-25.879,-222.656
1685714587.150,-32.715,-33.203,-27.344,-19.043,-131.836
1685714587.154,-32.715,-25.879,-30.273,-25.391,-48.828
1685714587.158,-30.762,-27.832,-37.598,-27.344,-112.305
1685714587.162,-32.715,-30.762,-30.273,-21.973,-132.812
1685714587.166,-33.203,-34.180,-29.297,-25.391,-4.883
1685714587.169,-33.203,-34.668,-40.527,-24.414,223.633
1685714587.173,-29.297,-27.832,-37.109,-24.414,3.418
1685714587.177,-31.250,-33.691,-32.227,-27.344,-148.926
1685714587.181,-34.668,-37.109,-34.180,-27.832,20.508
1685714587.185,-33.691,-33.203,-33.691,-28.320,4.883
1685714587.186,-28.320,-33.691,-32.227,-25.391,-174.805
1685714587.190,-34.180,-36.621,-39.551,-31.250,-152.344
1685714587.194,-32.715,-28.809,-37.598,-38.574,-16.113
1685714587.198,-30.762,-26.855,-34.668,-37.109,-22.461
1685714587.202,-36.133,-31.250,-36.621,-36.621,-139.160
1685714587.206,-31.250,-27.832,-32.715,-36.621,-87.402
1685714587.210,-27.832,-33.203,-30.762,-34.180,237.793
1685714587.213,-26.855,-29.297,-32.227,-33.203,246.582
1685714587.217,-29.785,-21.973,-37.109,-38.574,-72.266
1685714587.221,-37.109,-26.367,-36.133,-44.922,-97.656
1685714587.225,-31.250,-25.879,-33.691,-41.016,36.133
1685714587.229,-16.113,-20.508,-29.785,-29.297,-1.465
1685714587.232,-20.508,-21.484,-26.367,-25.391,-154.297
1685714587.236,-32.715,-28.809,-28.320,-24.902,-92.285
1685714587.240,-37.109,-29.297,-28.320,-29.785,-14.160
1685714587.244,-38.574,-22.461,-28.809,-34.668,-116.699
1685714587.248,-30.273,-22.461,-35.645,-26.855,-149.902
1685714587.252,-27.344,-21.484,-31.250,-24.414,85.938
1685714587.256,-30.273,-22.461,-24.414,-30.762,260.742
1685714587.259,-25.391,-27.832,-22.949,-32.227,1.953
1685714587.263,-23.926,-32.227,-25.391,-33.691,-178.223
1685714587.267,-27.832,-37.598,-31.738,-38.086,16.602
1685714587.271,-29.297,-33.203,-35.645,-41.016,91.309
1685714587.275,-25.391,-28.809,-38.574,-44.922,-96.680
1685714587.292,-37.109,-31.250,-31.250,-40.039,-143.066
1685714587.296,-37.109,-25.391,-27.344,-32.715,-93.262
1685714587.300,-26.855,-24.414,-35.645,-24.414,-54.688
1685714587.304,-29.785,-29.785,-36.621,-20.996,8.301
1685714587.308,-28.320,-27.832,-41.016,-21.484,-5.859
1685714587.312,-31.738,-24.414,-41.016,-22.949,212.891
1685714587.316,-29.785,-27.344,-28.809,-11.230,329.590
1685714587.319,-23.926,-27.344,-21.484,-17.578,-69.336
1685714587.323,-25.879,-19.043,-23.438,-35.645,-150.879
1685714587.327,-26.367,-15.625,-25.391,-36.133,182.617
1685714587.331,-31.250,-17.578,-23.926,-49.805,163.574
1685714587.335,-41.504,-19.531,-32.227,-59.082,-143.555
1685714587.337,-42.480,-18.555,-40.527,-63.965,-155.273
1685714587.341,-43.457,-15.625,-38.574,-76.660,-134.766
1685714587.345,-61.523,-22.949,-38.574,-85.449,-170.410
1685714587.349,-83.496,-32.227,-34.668,-90.820,-247.559
1685714587.353,-93.262,-33.203,-32.227,-96.680,-158.203
1685714587.357,-82.520,-30.273,-34.668,-94.238,65.918
1685714587.361,-76.172,-34.180,-36.133,-82.520,85.938
1685714587.364,-77.148,-35.156,-39.551,-76.660,38.574
1685714587.368,-66.895,-30.273,-36.621,-68.359,54.688
1685714587.372,-56.641,-26.855,-30.762,-54.199,262.207
1685714587.376,-45.898,-34.180,-29.785,-52.734,96.191
1685714587.380,-34.180,-39.551,-25.879,-51.270,-139.160
1685714587.382,-26.367,-34.668,-26.367,-43.945,-75.684
1685714587.386,-27.344,-32.715,-33.691,-42.969,-84.961
1685714587.390,-24.414,-31.738,-32.227,-25.879,-107.910
1685714587.394,-11.719,-25.879,-31.250,-16.602,-127.930
1685714587.398,-14.160,-31.250,-40.039,-28.809,-105.957
1685714587.402,-18.555,-33.203,-38.574,-31.738,23.438
1685714587.406,-21.973,-30.762,-35.645,-29.297,85.449
1685714587.409,-25.879,-33.691,-38.086,-21.973,-94.238
1685714587.413,-24.902,-32.715,-35.156,-12.695,151.367
1685714587.417,-13.184,-24.902,-23.438,-4.395,447.266
1685714587.421,-2.441,-21.973,-17.578,-2.930,21.484
1685714587.425,-1.953,-25.879,-28.320,-5.859,-137.207
1685714587.427,-6.836,-23.926,-27.832,-4.395,-9.766
1685714587.431,-11.230,-25.879,-21.973,-1.953,-109.863
1685714587.435,-3.418,-31.738,-22.461,-16.113,-168.457
1685714587.439,5.859,-29.297,-25.879,-13.184,-99.609
1685714587.443,1.953,-23.926,-24.902,-7.812,-63.477
1685714587.447,-17.090,-27.344,-26.855,-21.973,-67.871
1685714587.451,-30.273,-30.273,-31.738,-23.926,-22.949
1685714587.454,-22.949,-30.762,-35.156,-17.090,85.938
1685714587.458,-6.348,-27.344,-30.762,-16.113,204.102
1685714587.462,-10.742,-28.320,-26.367,-23.926,-14.648
1685714587.466,-33.691,-37.109,-39.551,-28.320,-149.414
1685714587.470,-38.086,-34.180,-47.363,-22.461,-21.973
1685714587.471,-30.762,-36.621,-37.109,-24.902,-53.223
1685714587.475,-32.227,-38.086,-33.203,-31.250,-127.441
1685714587.479,-36.621,-36.133,-31.738,-31.250,-116.699
1685714587.483,-42.480,-37.109,-28.320,-31.250,-54.688
1685714587.487,-42.480,-31.250,-30.762,-33.203,-64.941
1685714587.491,-33.691,-35.156,-32.227,-34.668,-30.762
1685714587.495,-28.320,-41.992,-33.203,-34.668,55.176
1685714587.498,-26.855,-36.621,-37.109,-38.086,238.281
1685714587.502,-32.227,-28.809,-36.621,-35.645,252.930
1685714587.506,-31.250,-22.949,-27.344,-23.438,-60.547
1685714587.510,-17.578,-19.531,-25.391,-23.438,-121.582
1685714587.514,-14.160,-22.461,-35.156,-23.438,56.152
1685714587.546,-22.461,-28.320,-33.203,-24.902,-27.832
1685714587.550,-34.180,-36.621,-28.809,-37.109,-129.883
1685714587.554,-38.086,-35.645,-33.691,-34.668,-0.488
1685714587.558,-22.949,-27.832,-30.762,-26.855,24.902
1685714587.562,-10.742,-26.367,-21.973,-24.414,-94.727
1685714587.566,-20.508,-25.879,-22.461,-21.484,-125.977
1685714587.570,-29.297,-24.414,-27.832,-19.043,59.082
1685714587.573,-33.203,-26.367,-26.367,-14.648,238.770
1685714587.577,-30.762,-21.484,-20.508,-13.672,23.926
1685714587.581,-16.113,-21.484,-23.438,-23.926,-159.180
1685714587.585,-17.090,-29.297,-28.320,-27.344,-90.332
1685714587.589,-19.531,-29.297,-31.250,-32.227,-87.402
1685714587.561,-21.973,-20.508,-27.344,-34.668,-200.684
1685714587.565,-31.738,-26.855,-30.273,-33.691,-196.289
1685714587.569,-31.738,-37.109,-37.598,-36.133,-72.754
1685714587.573,-23.438,-32.227,-35.645,-32.227,-27.832
1685714587.577,-29.785,-30.762,-35.645,-35.645,-64.941
1685714587.581,-29.785,-33.203,-38.086,-40.527,-81.055
1685714587.585,-22.461,-24.414,-34.180,-34.668,34.180
1685714587.588,-22.461,-24.902,-27.832,-28.320,-0.977
1685714587.592,-15.625,-32.227,-26.855,-29.785,-97.656
1685714587.596,-20.996,-34.180,-29.785,-34.180,-10.254
1685714587.600,-28.809,-32.227,-31.250,-36.133,3.906
1685714587.604,-22.949,-27.344,-30.762,-32.227,-112.793
1685714587.606,-27.832,-32.715,-32.715,-26.855,-157.227
1685714587.610,-30.273,-35.645,-33.203,-27.344,-117.676
1685714587.614,-18.555,-26.367,-29.297,-22.461,248.535
1685714587.618,-21.484,-27.344,-32.227,-22.949,378.906
1685714587.622,-23.926,-28.809,-33.203,-33.203,-50.293
1685714587.626,-19.531,-24.902,-24.414,-31.738,66.406
1685714587.630,-17.090,-28.809,-27.832,-32.715,317.383
1685714587.633,-14.160,-27.344,-37.598,-32.715,97.656
1685714587.637,-24.902,-27.344,-35.156,-30.762,-133.301
1685714587.641,-33.691,-29.297,-34.180,-32.227,-29.785
1685714587.645,-29.297,-24.414,-27.344,-27.344,135.742
1685714587.649,-18.555,-18.066,-18.066,-22.949,-100.098
1685714587.666,-25.391,-20.508,-23.438,-31.738,-199.707
1685714587.670,-31.250,-29.785,-27.832,-32.715,-158.691
1685714587.674,-24.902,-30.273,-31.250,-25.391,-176.270
1685714587.678,-21.973,-20.508,-30.762,-20.508,-203.613
1685714587.682,-16.113,-19.531,-27.344,-18.066,-159.668
1685714587.686,-13.184,-25.879,-32.227,-20.020,40.039
1685714587.690,-11.230,-24.414,-32.227,-19.043,96.680
1685714587.693,-23.926,-19.043,-27.832,-27.344,-56.152
1685714587.697,-50.293,-25.879,-31.250,-43.457,-159.668
1685714587.701,-46.875,-30.273,-30.762,-33.691,219.727
1685714587.705,-34.668,-26.367,-32.715,-30.762,480.469
1685714587.709,-55.176,-35.156,-42.480,-56.641,-27.832
1685714587.712,-78.613,-47.852,-43.945,-67.383,-230.957
1685714587.716,-74.219,-44.922,-28.809,-53.711,-143.555
1685714587.720,-66.895,-37.109,-18.066,-46.387,-152.832
1685714587.724,-54.688,-37.109,-16.113,-47.363,-109.375
1685714587.728,-44.922,-35.156,-12.695,-41.992,-77.637
1685714587.732,-47.363,-40.039,-20.996,-42.969,-32.715
1685714587.736,-45.898,-41.504,-25.879,-37.109,0.000
1685714587.739,-35.645,-34.180,-22.949,-28.809,-94.727
1685714587.743,-22.949,-31.250,-21.484,-24.414,-5.371
1685714587.747,-25.391,-26.855,-21.484,-25.391,221.191
1685714587.751,-25.391,-27.344,-26.855,-26.367,-12.695
1685714587.755,-16.113,-33.691,-25.879,-15.137,-173.828
1685714587.772,-21.484,-30.273,-24.414,-16.602,-7.324
1685714587.776,-27.344,-26.855,-28.320,-23.438,8.789
1685714587.780,-28.320,-33.203,-26.855,-35.156,-165.039
1685714587.784,-24.902,-34.180,-23.926,-35.156,-173.828
1685714587.788,-15.625,-32.227,-25.391,-25.391,-104.980
1685714587.792,-9.766,-23.926,-33.691,-27.344,53.711
1685714587.796,-5.371,-15.625,-31.738,-21.484,102.051
1685714587.799,-10.254,-22.461,-32.227,-19.531,-89.355
1685714587.803,-24.902,-28.320,-43.945,-27.832,252.930
1685714587.807,-20.508,-24.902,-39.062,-24.902,394.043
1685714587.811,-18.066,-21.484,-28.320,-21.973,-98.633
1685714587.815,-18.066,-19.043,-22.949,-24.902,-119.141
1685714587.802,-18.555,-24.414,-30.273,-27.832,14.648
1685714587.806,-29.297,-34.180,-37.598,-22.949,-50.781
1685714587.810,-37.109,-35.156,-35.156,-20.996,-165.527
1685714587.814,-32.715,-28.320,-31.250,-26.367,-109.863
1685714587.818,-29.297,-23.438,-29.785,-23.926,9.277
1685714587.822,-27.832,-28.320,-38.086,-20.020,1.953
1685714587.826,-23.926,-33.203,-41.016,-26.855,-48.828
1685714587.829,-27.832,-31.738,-37.598,-36.621,-27.832
1685714587.833,-34.668,-31.250,-40.039,-29.785,7.324
1685714587.837,-41.504,-32.227,-41.992,-24.902,-95.703
1685714587.841,-31.250,-31.738,-35.645,-25.879,-228.516
1685714587.845,-27.344,-34.668,-30.273,-21.484,-35.156
1685714587.847,-25.879,-33.691,-30.762,-16.602,155.762
1685714587.851,-13.672,-31.250,-30.762,-16.602,-122.070
1685714587.855,-24.414,-37.109,-33.691,-23.926,-178.223
1685714587.859,-30.762,-38.086,-32.715,-23.438,-100.098
1685714587.863,-27.344,-35.156,-33.203,-16.602,-15.625
1685714587.867,-29.785,-31.738,-30.273,-14.648,-6.836
1685714587.871,-25.391,-31.250,-30.273,-15.137,-28.320
1685714587.874,-21.484,-31.250,-32.227,-18.066,238.770
1685714587.878,-21.973,-23.438,-28.320,-20.508,460.938
1685714587.882,-21.973,-19.531,-31.250,-25.391,111.816
1685714587.886,-25.391,-27.344,-39.062,-31.250,-178.223
1685714587.890,-26.855,-29.785,-38.086,-34.668,-54.688
1685714587.892,-24.902,-27.832,-36.133,-28.809,-108.398
1685714587.896,-26.367,-28.809,-35.156,-31.250,-185.547
1685714587.900,-27.832,-28.320,-33.691,-33.203,-81.055
1685714587.904,-34.668,-21.973,-30.762,-34.668,-54.199
1685714587.908,-27.344,-19.043,-31.738,-34.180,-113.770
1685714587.912,-12.207,-20.508,-39.062,-22.949,-59.570
1685714587.916,-10.742,-24.902,-39.062,-21.484,98.633
1685714587.919,-26.367,-21.973,-36.621,-22.949,347.168
1685714587.923,-24.902,-13.672,-33.203,-22.949,117.188
1685714587.927,-17.090,-17.090,-32.227,-26.855,-208.496
1685714587.931,-25.391,-25.879,-34.180,-21.484,-70.801
1685714587.935,-22.949,-21.973,-33.203,-17.578,-23.926
1685714587.937,-21.973,-22.461,-31.738,-21.484,-123.047
1685714587.941,-29.785,-30.762,-36.133,-23.438,-128.906
1685714587.945,-22.949,-20.508,-25.391,-11.719,-90.332
1685714587.949,-16.113,-21.973,-19.043,-6.836,-92.285
1685714587.953,-20.996,-28.809,-23.926,-17.090,-104.980
1685714587.957,-20.020,-22.461,-23.438,-22.461,-31.250
1685714587.961,-20.020,-21.973,-19.043,-9.277,335.449
1685714587.964,-28.809,-26.367,-20.020,-8.789,345.215
1685714587.968,-35.645,-32.227,-32.227,-21.973,-40.527
1685714587.972,-27.344,-35.156,-38.574,-26.855,-21.973
1685714587.976,-16.113,-32.227,-38.086,-26.855,231.445
1685714587.980,-24.414,-28.320,-36.133,-25.391,109.863
1685714587.982,-26.367,-27.344,-38.086,-21.484,-238.770
1685714587.986,-17.090,-23.926,-39.062,-18.066,-194.336
1685714587.990,-9.766,-22.949,-37.598,-24.902,-98.145
1685714587.994,-17.090,-28.320,-36.621,-26.367,-119.141
1685714587.998,-30.273,-27.832,-38.086,-25.879,-182.617
1685714588.002,-31.738,-26.855,-40.527,-29.297,-80.566
1685714588.006,-24.414,-33.203,-39.551,-29.785,123.047
1685714588.009,-18.066,-33.691,-38.086,-32.715,36.133
1685714588.013,-18.066,-31.250,-40.039,-37.109,-135.254
1685714588.017,-25.879,-25.879,-38.574,-34.180,21.973
1685714588.021,-24.414,-20.508,-37.598,-34.180,122.559
1685714588.025,-18.555,-25.879,-40.039,-40.527,-90.332
1685714588.027,-15.137,-30.273,-37.598,-39.062,-136.230
1685714588.031,-19.043,-31.738,-41.016,-36.621,30.762
1685714588.035,-26.367,-33.203,-39.551,-37.598,40.527
1685714588.039,-30.762,-28.809,-36.621,-35.156,-142.578
1685714588.043,-35.156,-27.832,-39.062,-36.133,-113.281
1685714588.047,-32.227,-31.738,-39.062,-36.133,60.547
1685714588.051,-32.715,-34.180,-36.621,-28.809,145.996
1685714588.054,-37.598,-32.715,-34.180,-25.391,24.902
1685714588.058,-36.133,-29.785,-33.691,-29.785,-83.984
1685714588.062,-29.785,-32.227,-28.320,-29.785,234.863
1685714588.066,-22.949,-27.832,-20.996,-25.391,304.199
1685714588.070,-19.043,-28.809,-23.438,-31.738,-145.996
1685714588.087,-24.902,-25.879,-31.250,-27.344,-205.566
1685714588.091,-32.227,-24.902,-27.832,-21.973,-138.184
1685714588.095,-36.133,-30.273,-27.344,-23.926,-74.219
1685714588.099,-35.156,-27.832,-29.297,-20.508,-120.117
1685714588.103,-27.832,-25.879,-26.367,-20.020,-53.711
1685714588.107,-23.926,-27.832,-28.320,-14.160,218.262
1685714588.111,-18.555,-32.227,-22.949,-1.465,65.430
1685714588.114,-22.949,-22.949,-21.973,-12.695,-165.527
1685714588.118,-24.414,-21.973,-31.250,-30.273,-43.945
1685714588.122,-11.719,-22.461,-33.203,-20.996,153.809
1685714588.126,-15.625,-18.555,-37.109,-21.973,-58.105
1685714588.130,-21.484,-24.414,-42.969,-20.508,-166.992
1685714588.131,-20.508,-26.855,-45.410,-22.949,-71.777
1685714588.135,-17.090,-29.785,-42.969,-28.320,-55.664
1685714588.139,-23.438,-33.203,-46.387,-26.855,-80.566
1685714588.143,-35.156,-35.645,-49.805,-20.020,-77.148
1685714588.147,-35.645,-32.227,-42.969,-17.090,3.906
1685714588.151,-32.715,-29.297,-42.480,-21.484,51.270
1685714588.155,-23.438,-30.762,-44.434,-18.555,-61.035
1685714588.158,-16.113,-28.809,-39.062,-11.719,-116.699
1685714588.162,-15.625,-26.367,-35.156,-13.672,193.359
1685714588.166,-16.113,-22.949,-33.203,-18.555,500.000
1685714588.170,-20.996,-22.461,-38.086,-21.973,87.891
1685714588.174,-20.508,-28.809,-42.969,-15.137,-124.023
1685714588.176,-21.484,-32.715,-39.062,-14.648,-50.293
1685714588.180,-20.996,-25.879,-33.203,-18.066,-128.418
1685714588.184,-20.996,-23.438,-35.156,-17.090,-146.484
1685714588.188,-30.762,-32.715,-34.180,-23.926,-88.379
1685714588.192,-35.645,-32.715,-29.297,-23.438,-31.250
1685714588.196,-26.855,-26.855,-31.738,-19.531,18.555
1685714588.200,-24.902,-29.785,-37.598,-16.602,-41.992
1685714588.203,-25.879,-33.691,-39.551,-12.695,54.199
1685714588.207,-18.066,-31.250,-33.203,-12.207,262.695
1685714588.211,-16.602,-31.250,-34.180,-19.043,6.348
1685714588.215,-9.277,-29.297,-38.574,-16.113,-185.547
1685714588.219,-11.230,-22.949,-35.645,-21.973,-41.504
1685714588.221,-16.113,-25.879,-34.668,-30.762,-30.762
1685714588.225,-17.090,-28.809,-34.180,-18.066,-172.852
1685714588.229,-23.438,-30.273,-33.691,-14.648,-219.727
1685714588.233,-15.137,-30.762,-29.785,-22.461,-14.160
1685714588.237,-18.555,-34.180,-36.133,-29.297,56.641
1685714588.241,-29.297,-37.109,-41.016,-27.832,-31.738
1685714588.245,-22.461,-29.297,-30.762,-24.414,4.395
1685714588.248,-14.160,-24.414,-26.855,-24.902,197.754
1685714588.252,-14.648,-29.785,-33.691,-27.832,285.156
1685714588.256,-14.160,-37.109,-36.133,-37.598,-30.273
1685714588.260,-7.812,-31.250,-28.320,-28.320,-116.211
1685714588.264,-13.672,-21.484,-21.484,-12.695,115.723
1685714588.266,-18.555,-22.461,-25.391,-6.348,61.523
1685714588.270,-11.230,-25.391,-34.180,-9.277,-205.566
1685714588.274,-10.254,-24.902,-32.227,-12.207,-74.219
1685714588.278,-0.977,-22.949,-32.715,-11.230,-21.484
1685714588.282,3.906,-19.531,-32.227,-1.953,-119.141
1685714588.286,-20.020,-29.785,-21.973,-16.602,-109.863
1685714588.290,-41.016,-40.527,-16.602,-35.645,74.219
1685714588.293,-34.180,-37.598,-17.090,-24.902,267.090
1685714588.297,-41.016,-43.457,-16.113,-30.762,19.043
1685714588.301,-54.688,-49.805,-10.742,-38.086,-199.219
1685714588.305,-53.711,-50.293,-12.207,-29.785,-163.574
1685714588.309,-52.246,-59.082,-14.160,-42.969,-89.844
1685714588.312,-54.688,-61.523,-11.230,-53.223,-55.176
1685714588.316,-63.477,-59.082,-9.766,-47.852,-115.723
1685714588.320,-62.500,-56.152,-9.766,-49.316,-34.668
1685714588.324,-59.082,-47.363,-9.277,-54.199,-35.156
1685714588.328,-61.035,-47.852,-14.648,-39.551,-147.949
1685714588.332,-55.664,-49.805,-20.508,-36.621,-68.848
1685714588.336,-43.457,-49.316,-22.461,-41.992,309.570
1685714588.339,-32.715,-43.945,-27.344,-37.109,279.785
1685714588.343,-41.016,-38.086,-33.203,-35.156,-89.844
1685714588.347,-48.340,-42.480,-33.203,-28.809,-66.895
1685714588.351,-31.250,-41.992,-32.715,-16.113,67.871
1685714588.355,-22.949,-36.133,-34.180,-16.113,-6.348
1685714588.371,-28.809,-38.086,-35.645,-28.809,-204.102
1685714588.375,-33.691,-33.691,-36.133,-28.320,-158.691
1685714588.379,-25.391,-25.391,-33.691,-33.691,-113.770
1685714588.383,-20.508,-35.645,-34.180,-23.438,-116.699
1685714588.387,-26.367,-37.598,-28.320,-11.230,-108.398
1685714588.391,-20.508,-27.344,-20.508,-20.508,28.809
1685714588.395,-22.949,-21.973,-23.438,-17.090,429.688
1685714588.398,-32.227,-22.461,-30.273,-15.625,288.086
1685714588.402,-25.879,-21.484,-30.273,-14.160,-172.363
1685714588.406,-22.461,-23.438,-29.297,-25.879,-130.859
1685714588.410,-29.785,-26.367,-30.273,-34.180,-70.312
1685714588.414,-37.598,-29.785,-29.297,-28.320,-123.047
1685714588.417,-33.691,-30.762,-28.320,-33.203,-161.621
1685714588.421,-26.367,-23.926,-26.367,-32.227,-110.840
1685714588.425,-32.715,-26.367,-23.438,-22.949,-61.523
1685714588.429,-45.410,-29.297,-24.414,-27.832,-96.680
1685714588.433,-36.133,-20.996,-25.879,-34.180,-146.484
1685714588.437,-28.809,-16.602,-29.297,-38.574,-73.242
1685714588.441,-34.668,-22.949,-34.180,-43.457,78.125
1685714588.444,-23.926,-20.020,-30.762,-31.250,98.145
1685714588.448,-29.297,-8.301,-21.973,-20.508,-21.973
1685714588.452,-42.480,-14.648,-23.438,-21.973,108.887
1685714588.456,-38.574,-27.344,-36.133,-24.902,335.938
1685714588.460,-29.297,-20.996,-44.434,-41.504,-35.156
1685714588.476,-37.598,-19.531,-41.504,-42.480,-250.977
1685714588.480,-47.363,-24.902,-34.668,-22.949,-138.672
1685714588.484,-52.734,-27.832,-34.668,-18.066,-177.246
1685714588.488,-48.340,-24.414,-41.504,-27.344,-217.285
1685714588.492,-34.668,-26.367,-36.133,-32.227,-135.254
1685714588.496,-35.645,-29.785,-27.832,-31.250,54.688
1685714588.500,-37.109,-22.461,-31.738,-32.715,0.488
1685714588.503,-30.762,-23.438,-40.039,-51.270,-112.793
1685714588.507,-26.855,-23.438,-41.992,-68.848,6.836
1685714588.511,-29.785,-22.949,-40.527,-49.316,286.133
1685714588.515,-23.926,-17.090,-39.551,-42.969,131.348
1685714588.519,-21.484,-15.625,-42.480,-53.711,-150.391
1685714588.506,-16.113,-3.906,-24.902,-41.016,-148.438
1685714588.510,-24.414,-6.348,-16.113,-31.250,-207.031
1685714588.514,-20.508,-15.625,-12.695,-5.859,-219.727
1685714588.518,9.766,1.465,-14.160,-0.488,-192.871
1685714588.522,-21.973,-13.184,-50.293,-47.363,-131.836
1685714588.526,8.789,7.324,-38.086,-8.789,-35.645
1685714588.530,21.973,9.277,-30.273,-0.488,-48.828
1685714588.533,-28.809,-36.621,-60.547,-57.617,-111.816
1685714588.537,-21.973,-37.109,-41.992,-56.152,35.156
1685714588.541,-22.461,-22.461,-25.391,-17.578,51.270
1685714588.545,-34.180,-30.273,-50.293,-15.137,-18.555
1685714588.549,-30.273,-31.738,-49.805,-34.668,-107.910
1685714588.552,-18.555,-19.531,-36.133,-25.879,76.172
1685714588.556,-6.348,-18.555,-32.715,-3.418,399.902
1685714588.560,-9.277,-28.809,-37.598,-5.371,49.316
1685714588.564,-21.484,-32.715,-39.062,-21.484,-162.109
1685714588.568,-28.320,-28.809,-38.574,-23.438,-110.840
1685714588.572,10.742,-19.043,-36.621,2.930,-105.957
1685714588.576,18.555,-20.996,-32.715,12.207,-35.645
1685714588.579,-18.066,-24.414,-33.691,-19.531,50.781
1685714588.583,-36.621,-27.832,-36.133,-38.086,187.988
1685714588.587,-44.922,-33.691,-38.574,-45.410,-21.484
1685714588.591,-36.621,-27.832,-35.645,-52.246,-166.504
1685714588.595,-34.180,-20.020,-33.691,-46.875,-76.172
1685714588.597,-51.270,-30.762,-37.598,-55.664,-22.461
1685714588.601,-62.012,-41.504,-40.527,-73.730,-67.383
1685714588.605,-62.988,-39.551,-52.246,-84.961,-193.848
1685714588.609,-72.266,-36.621,-53.711,-82.520,-49.805
1685714588.613,-51.758,-33.691,-45.898,-60.547,-20.996
1685714588.617,-46.875,-30.273,-42.480,-56.641,-65.918
1685714588.621,-51.758,-29.297,-41.504,-62.012,-45.898
1685714588.624,-41.504,-34.668,-44.922,-55.664,93.262
1685714588.628,-34.668,-31.738,-43.945,-42.480,186.523
1685714588.632,-29.297,-23.438,-36.133,-33.203,-74.707
1685714588.636,-23.926,-23.926,-35.156,-24.414,-156.738
1685714588.640,-31.738,-28.320,-40.039,-25.391,161.133
1685714588.641,-46.387,-28.320,-39.062,-33.691,120.117
1685714588.645,-29.785,-26.367,-32.227,-31.250,-207.031
1685714588.649,-17.090,-26.855,-24.414,-20.996,-115.234
1685714588.653,-23.926,-28.320,-20.996,-20.996,18.066
1685714588.657,-18.066,-27.344,-22.949,-25.879,-88.379
1685714588.661,-21.973,-23.926,-23.926,-15.137,-123.047
1685714588.665,-28.320,-20.508,-21.484,-21.484,16.113
1685714588.668,-15.137,-19.531,-17.090,-14.160,302.734
1685714588.672,-10.254,-22.461,-18.555,-9.277,162.109
1685714588.676,-24.414,-23.926,-24.414,-26.855,-158.691
1685714588.680,-20.508,-21.484,-23.926,-21.973,-96.680
1685714588.684,-16.602,-23.926,-29.297,-20.020,-84.473
1685714588.686,-24.902,-26.367,-34.180,-24.414,-154.785
1685714588.690,-17.090,-24.902,-33.203,-15.137,-130.371
1685714588.694,-6.836,-20.508,-35.156,-4.883,-83.496
1685714588.698,-13.672,-19.531,-37.109,-9.766,-139.648
1685714588.702,-17.578,-14.648,-32.227,-13.184,-174.805
1685714588.706,-11.230,-16.602,-29.297,-20.508,-115.723
1685714588.710,-7.812,-26.855,-34.180,-17.090,285.156
1685714588.713,-12.207,-28.320,-29.785,-4.395,440.430
1685714588.717,-8.789,-27.344,-26.855,-16.113,-14.648
1685714588.721,-14.160,-26.367,-31.250,-22.949,-165.527
1685714588.725,-28.809,-30.762,-36.133,-22.949,83.496
1685714588.729,-19.531,-29.785,-36.133,-22.949,123.047
1685714588.731,-11.719,-27.344,-35.156,-16.602,-131.348
1685714588.735,-12.207,-28.809,-39.062,-20.996,-127.441
1685714588.739,-18.555,-24.902,-37.598,-28.320,-160.645
1685714588.743,-23.926,-20.508,-32.715,-28.320,-149.414
1685714588.747,-25.879,-23.438,-31.250,-16.602,-112.793
1685714588.751,-29.297,-22.949,-31.250,-18.555,47.363
1685714588.755,-32.227,-25.391,-33.691,-26.855,238.281
1685714588.758,-22.461,-22.949,-33.203,-29.785,-14.648
1685714588.762,-10.742,-18.066,-30.273,-25.879,-122.070
1685714588.766,-13.184,-20.996,-32.227,-20.996,20.508
1685714588.770,-6.348,-18.066,-31.738,-20.020,-4.395
1685714588.774,-14.160,-15.137,-30.273,-16.113,-114.746
1685714588.791,-23.926,-18.555,-33.691,-17.090,-207.031
1685714588.795,-32.227,-24.414,-34.180,-22.461,-16.602
1685714588.799,-36.133,-27.344,-38.086,-29.297,130.371
1685714588.803,-35.156,-34.180,-39.062,-29.785,-145.996
1685714588.807,-19.531,-37.109,-27.832,-14.160,-143.555
1685714588.811,3.906,-25.879,-25.391,-6.836,11.230
1685714588.815,-23.438,-20.508,-41.992,-37.598,47.363
1685714588.818,-52.246,-19.043,-53.223,-68.359,26.855
1685714588.822,-43.945,-19.531,-53.223,-70.312,-83.008
1685714588.826,-46.387,-23.926,-48.340,-55.176,140.137
1685714588.830,-62.988,-23.438,-45.410,-53.711,322.754
1685714588.834,-60.059,-18.066,-50.781,-67.871,-48.828
1685714588.836,-59.570,-13.672,-50.781,-59.082,-138.672
1685714588.840,-50.781,-10.742,-44.922,-48.340,16.602
1685714588.844,-44.434,-6.836,-48.340,-53.223,-101.074
1685714588.848,-45.898,-0.977,-48.828,-52.734,-233.398
1685714588.852,-43.945,-9.766,-47.852,-54.199,-145.508
1685714588.856,-34.668,-16.113,-42.480,-48.340,-2.930
1685714588.860,-14.648,-8.789,-29.297,-38.574,28.320
1685714588.863,-18.066,-13.672,-33.203,-41.016,-114.258
1685714588.867,-42.480,-24.902,-47.363,-50.781,-98.633
1685714588.871,-33.203,-19.531,-43.945,-39.551,162.598
1685714588.875,-16.602,-14.160,-42.480,-41.016,9.766
1685714588.879,-22.949,-21.973,-42.969,-44.922,-119.629
1685714588.881,-19.531,-18.066,-34.668,-34.180,63.477
1685714588.885,-12.207,-17.578,-30.273,-37.598,169.434
1685714588.889,-10.742,-21.973,-26.367,-38.086,31.250
1685714588.893,-7.324,-20.020,-25.391,-27.344,-58.105
1685714588.897,-2.930,-15.137,-27.344,-24.414,57.617
1685714588.901,-8.789,-17.090,-26.855,-26.367,122.070
1685714588.905,-16.113,-23.438,-30.762,-27.832,136.230
1685714588.908,-20.996,-22.949,-31.250,-28.809,-17.090
1685714588.912,-25.879,-26.855,-24.902,-21.484,218.750
1685714588.916,-31.250,-26.855,-24.414,-18.066,507.812
1685714588.920,-25.879,-20.508,-27.832,-29.785,48.340
1685714588.924,-28.320,-21.484,-29.297,-31.250,-145.996
1685714588.926,-24.414,-27.832,-31.250,-24.902,-108.887
1685714588.930,-20.020,-25.879,-31.250,-28.809,-152.832
1685714588.934,-28.809,-29.297,-36.133,-22.949,-171.387
1685714588.938,-34.180,-32.715,-42.969,-19.043,-37.598
1685714588.942,-21.484,-20.996,-37.109,-27.344,94.727
1685714588.946,-22.461,-20.996,-36.133,-29.785,-5.371
1685714588.950,-34.668,-24.902,-44.434,-30.762,-45.410
1685714588.953,-19.043,-19.043,-42.480,-23.926,15.625
1685714588.957,-17.578,-24.902,-36.621,-21.484,253.906
1685714588.961,-30.273,-30.762,-39.062,-33.203,135.254
1685714588.965,-31.738,-29.297,-38.574,-36.621,-155.762
1685714588.969,-31.738,-28.320,-38.574,-32.715,-109.863
1685714588.971,-28.320,-26.855,-37.598,-40.527,-79.102
1685714588.975,-21.484,-24.902,-34.668,-37.109,-74.707
1685714588.979,-28.809,-18.555,-34.180,-26.367,-43.457
1685714588.983,-35.156,-20.996,-33.203,-27.344,-47.363
1685714588.987,-33.203,-26.367,-27.832,-22.461,-57.617
1685714588.991,-32.715,-27.344,-29.297,-17.090,32.227
1685714588.995,-27.344,-30.273,-37.109,-20.508,50.781
1685714588.998,-26.367,-33.203,-37.598,-18.066,275.391
1685714589.002,-28.809,-30.273,-34.668,-12.695,489.746
1685714589.006,-15.137,-27.344,-39.062,-28.320,20.508
1685714589.010,-5.859,-25.391,-36.621,-33.691,-173.340
1685714589.014,1.953,-22.949,-34.180,-21.973,61.523
1685714589.017,5.859,-26.855,-40.039,-19.043,-93.750
1685714589.021,-12.695,-26.855,-34.180,-21.484,-250.000
1685714589.025,-30.762,-26.367,-29.297,-37.598,-121.094
1685714589.029,-27.344,-29.785,-37.598,-47.852,-63.477
1685714589.033,-16.602,-23.926,-38.086,-42.480,-111.816
1685714589.037,-20.996,-22.949,-33.691,-43.945,-125.977
1685714589.041,-35.645,-34.668,-38.086,-49.316,-25.391
1685714589.044,-31.738,-34.180,-37.109,-41.504,139.160
1685714589.048,-23.926,-28.320,-38.086,-40.527,-1.465
1685714589.052,-16.113,-23.926,-34.668,-32.227,-141.113
1685714589.056,-16.602,-22.461,-26.855,-26.855,-17.090
1685714589.060,-22.949,-24.902,-28.809,-34.180,-12.207
1685714589.061,-24.414,-18.555,-26.855,-28.809,-221.680
1685714589.065,-29.297,-23.438,-22.949,-26.855,-216.309
1685714589.069,-26.367,-34.668,-28.320,-27.832,-125.000
1685714589.073,-25.879,-26.855,-31.738,-27.344,-36.133
1685714589.077,-32.227,-26.367,-35.156,-32.715,-25.391
1685714589.081,-25.391,-27.344,-33.691,-27.832,-72.754
1685714589.085,-20.508,-21.484,-28.320,-20.020,284.668
1685714589.088,-14.648,-20.996,-33.203,-27.832,358.398
1685714589.092,-24.414,-21.973,-39.062,-43.945,-29.297
1685714589.096,-49.316,-25.879,-35.645,-45.410,-115.234
1685714589.100,-50.293,-31.250,-33.203,-35.156,9.277
1685714589.104,-40.039,-31.250,-34.180,-28.809,60.547
1685714589.106,-31.738,-27.344,-37.109,-41.504,-150.391
1685714589.110,-28.320,-26.367,-41.504,-50.293,-79.590
1685714589.114,-31.250,-31.738,-38.086,-43.945,55.176
1685714589.118,-34.180,-28.320,-33.203,-41.016,-64.941
1685714589.122,-31.738,-30.762,-37.598,-38.086,-116.211
1685714589.126,-31.250,-29.297,-41.016,-28.320,97.656
1685714589.130,-30.762,-23.926,-38.086,-28.320,201.172
1685714589.133,-25.879,-30.762,-36.133,-31.738,-23.926
1685714589.137,-29.785,-33.203,-37.109,-35.645,-162.109
1685714589.141,-36.621,-28.809,-34.180,-42.969,-49.316
1685714589.145,-25.879,-27.832,-31.738,-31.738,36.621
1685714589.149,-20.508,-26.855,-34.180,-26.367,-110.352
1685714589.152,-25.879,-29.297,-33.691,-27.344,-117.676
1685714589.156,-38.574,-33.203,-34.180,-27.344,-28.809
1685714589.160,-38.574,-29.297,-28.320,-35.645,-39.062
1685714589.164,-29.297,-33.691,-27.832,-33.203,-130.371
1685714589.168,-26.855,-32.715,-34.180,-22.949,-154.785
1685714589.172,-20.020,-24.902,-23.926,-19.043,64.941
1685714589.176,-25.391,-33.203,-16.113,-16.113,145.020
1685714589.179,-48.340,-30.273,-26.855,-23.438,-103.516
1685714589.183,-41.504,-28.320,-32.715,-37.598,-118.164
1685714589.187,-31.738,-29.297,-27.344,-30.762,254.883
1685714589.191,-39.062,-25.391,-25.879,-25.879,314.941
1685714589.195,-42.969,-24.902,-26.367,-37.109,-63.477
1685714589.211,-38.086,-23.438,-17.578,-35.156,-90.332
1685714589.215,-31.738,-23.926,-18.555,-26.855,-60.547
1685714589.219,-21.484,-22.461,-22.461,-21.484,-97.656
1685714589.223,-20.996,-20.020,-19.531,-12.207,-117.676
1685714589.227,-25.391,-22.949,-22.461,-13.672,13.184
1685714589.231,-35.645,-30.762,-25.391,-25.391,154.785
1685714589.235,-44.922,-30.273,-23.926,-25.879,23.438
1685714589.238,-42.480,-29.785,-28.320,-32.227,-137.207
1685714589.242,-41.992,-32.227,-36.621,-36.621,-56.152
1685714589.246,-41.992,-36.621,-36.621,-32.227,134.277
1685714589.250,-39.062,-34.668,-33.691,-37.598,-47.852
1685714589.254,-37.109,-33.203,-34.180,-34.180,-154.785
1685714589.256,-35.645,-41.016,-35.156,-22.461,-6.348
1685714589.260,-41.016,-41.992,-36.621,-30.762,58.594
1685714589.264,-49.805,-38.086,-37.598,-35.645,-56.641
1685714589.268,-47.852,-40.039,-37.109,-32.715,-156.250
1685714589.272,-41.016,-39.062,-37.109,-28.320,-79.590
1685714589.276,-28.809,-36.621,-31.738,-35.645,-11.230
1685714589.280,-21.484,-35.645,-29.785,-36.621,0.000
1685714589.283,-33.203,-33.203,-36.133,-31.738,-19.531
1685714589.287,-33.691,-33.203,-43.945,-28.809,166.016
1685714589.291,-33.203,-34.668,-44.434,-24.902,448.242
1685714589.295,-39.062,-38.086,-44.922,-35.156,109.863
1685714589.299,-38.086,-36.133,-42.969,-49.805,-161.133
1685714589.302,-36.133,-29.297,-36.621,-44.922,-84.961
1685714589.306,-37.598,-25.391,-30.273,-37.598,-118.652
1685714589.310,-34.668,-28.809,-34.180,-42.969,-191.895
1685714589.314,-27.832,-37.109,-36.133,-35.156,-131.348
1685714589.318,-24.902,-39.551,-34.668,-30.273,-68.359
1685714589.322,-35.645,-36.621,-37.598,-47.363,-72.754
1685714589.326,-38.574,-31.738,-38.574,-52.246,-54.199
1685714589.329,-26.855,-27.344,-40.527,-46.875,-7.812
1685714589.333,-31.738,-30.273,-46.387,-47.363,210.938
1685714589.337,-38.086,-34.180,-41.992,-36.133,90.820
1685714589.341,-29.785,-36.133,-31.738,-30.273,-183.594
1685714589.345,-33.691,-35.156,-31.250,-30.762,-105.469
1685714589.346,-35.645,-31.250,-34.668,-34.180,-31.738
1685714589.350,-25.391,-29.297,-37.109,-36.621,-119.629
1685714589.354,-26.367,-32.227,-36.621,-35.645,-108.398
1685714589.358,-33.691,-33.691,-35.156,-41.992,-71.289
1685714589.362,-35.156,-29.785,-36.133,-41.992,-105.957
1685714589.366,-33.691,-37.109,-34.180,-36.621,-24.902
1685714589.370,-33.203,-41.992,-29.297,-33.203,-28.809
1685714589.373,-31.250,-38.086,-32.715,-20.508,153.809
1685714589.377,-30.762,-39.062,-39.062,-17.578,332.520
1685714589.381,-34.668,-41.992,-39.551,-33.203,-11.719
1685714589.385,-29.785,-40.527,-40.527,-41.016,-168.457
1685714589.389,-30.762,-37.598,-44.434,-38.574,153.320
1685714589.392,-25.879,-38.086,-41.016,-35.645,207.520
1685714589.396,-18.555,-35.156,-38.574,-36.621,-141.113
1685714589.400,-45.410,-41.504,-40.527,-41.992,-143.555
1685714589.404,-47.852,-42.969,-40.527,-39.062,-100.586
1685714589.408,-34.668,-32.715,-39.551,-41.504,-117.188
1685714589.412,-33.691,-35.156,-43.457,-42.480,-38.574
1685714589.416,-31.250,-39.062,-39.551,-32.715,148.438
1685714589.419,-36.621,-35.645,-34.668,-37.598,251.465
1685714589.423,-42.969,-33.691,-38.574,-36.133,-1.465
1685714589.427,-32.227,-25.391,-30.273,-23.926,-200.195
1685714589.431,-25.879,-24.902,-24.902,-21.973,-73.730
1685714589.435,-30.273,-29.297,-24.902,-31.738,-57.617
1685714589.438,-34.180,-25.879,-26.367,-33.691,-158.691
1685714589.442,-31.738,-26.367,-26.855,-32.227,-113.770
1685714589.446,-29.785,-28.809,-23.438,-23.438,69.824
1685714589.450,-30.273,-28.809,-28.320,-22.949,61.523
1685714589.454,-31.250,-30.762,-35.156,-33.691,-48.340
1685714589.458,-32.715,-35.156,-36.133,-40.527,-22.461
1685714589.462,-32.715,-31.738,-33.691,-46.875,154.785
1685714589.465,-22.949,-25.391,-31.250,-36.621,140.625
1685714589.469,-20.996,-25.879,-26.367,-32.227,-101.562
1685714589.473,-35.645,-28.320,-22.949,-42.480,-75.195
1685714589.477,-34.668,-31.738,-21.973,-38.086,-36.621
1685714589.481,-34.180,-29.785,-23.438,-37.109,-104.004
1685714589.481,-41.504,-32.227,-21.973,-45.410,-184.082
1685714589.485,-34.180,-34.668,-18.555,-42.969,-108.398
1685714589.489,-28.320,-26.855,-20.996,-33.691,38.086
1685714589.493,-36.133,-27.344,-24.902,-29.297,-25.879
1685714589.497,-40.527,-30.762,-23.438,-25.879,-88.867
1685714589.501,-39.551,-32.227,-26.367,-31.250,6.348
1685714589.505,-35.156,-32.715,-33.203,-25.391,386.230
1685714589.508,-28.320,-30.273,-30.762,-19.531,346.680
1685714589.512,-24.902,-28.320,-30.273,-33.691,-107.910
1685714589.516,-29.785,-25.879,-29.297,-34.180,-131.836
1685714589.520,-37.109,-25.391,-32.715,-25.879,-110.840
1685714589.524,-28.809,-25.879,-32.227,-14.160,-160.156
1685714589.541,-20.508,-24.414,-31.738,-15.137,-161.621
1685714589.545,-19.043,-29.297,-37.109,-23.438,-83.496
1685714589.549,-20.020,-31.250,-32.715,-24.902,-74.707
1685714589.553,-27.832,-25.879,-27.344,-27.832,-152.344
1685714589.557,-33.691,-25.879,-30.762,-26.367,-162.109
1685714589.561,-29.297,-25.391,-25.391,-23.926,48.340
1685714589.565,-33.203,-26.855,-24.414,-32.715,106.445
1685714589.568,-34.180,-33.203,-31.250,-27.832,-19.043
1685714589.572,-34.668,-33.691,-30.273,-18.555,-14.160
1685714589.576,-42.480,-30.273,-36.621,-22.461,266.113
1685714589.580,-28.809,-25.391,-42.480,-28.809,410.645
1685714589.584,-18.066,-22.949,-34.668,-31.250,11.719
1685714589.586,-22.949,-21.484,-26.367,-22.461,-193.359
1685714589.590,-17.090,-10.254,-21.484,-11.719,-148.926
1685714589.594,-8.789,-6.348,-20.996,-11.719,-144.043
1685714589.598,-9.766,-17.578,-27.832,-15.137,-147.949
1685714589.602,-29.297,-26.367,-31.738,-31.738,-29.785
1685714589.606,-31.250,-20.020,-31.738,-37.598,170.410
1685714589.610,-32.227,-16.113,-26.367,-40.527,31.738
1685714589.613,-43.945,-10.254,-21.973,-48.340,-176.270
1685714589.617,-60.547,-8.789,-33.203,-61.035,-21.484
1685714589.621,-82.520,-21.484,-39.551,-81.543,372.070
1685714589.625,-93.262,-18.555,-39.551,-103.027,168.945
1685714589.629,-96.680,-11.230,-37.109,-121.582,-193.359
1685714589.631,-107.910,-13.184,-34.180,-131.836,-94.727
1685714589.635,-125.488,-19.043,-34.180,-145.508,-85.938
1685714589.639,-136.230,-21.973,-29.297,-148.926,-142.578
1685714589.643,-139.648,-24.902,-27.832,-145.508,-111.816
1685714589.647,-137.695,-22.949,-26.367,-147.461,-63.477
1685714589.651,-157.227,-26.855,-20.020,-155.762,-4.395
1685714589.655,-166.504,-37.109,-24.414,-156.738,25.879
1685714589.658,-154.297,-42.480,-23.438,-156.250,-23.438
1685714589.662,-148.926,-30.762,-13.672,-154.297,276.367
1685714589.666,-158.691,-28.320,-22.461,-149.902,459.473
1685714589.670,-167.969,-48.340,-32.227,-170.410,-26.367
1685714589.674,-154.785,-47.363,-19.531,-165.527,-126.465
1685714589.676,-142.090,-40.039,-9.766,-140.625,11.719
1685714589.680,-151.855,-52.734,-19.043,-145.508,-153.320
1685714589.684,-139.160,-55.176,-20.996,-129.883,-258.789
1685714589.688,-115.723,-50.293,-11.719,-112.793,-163.086
1685714589.692,-113.770,-62.500,-7.812,-108.887,-50.781
1685714589.696,-108.887,-65.430,-9.277,-102.539,-19.531
1685714589.700,-96.680,-55.176,-9.277,-93.262,-27.344
1685714589.703,-94.238,-59.570,-7.812,-83.984,-20.508
1685714589.707,-86.426,-66.895,-10.254,-73.730,111.328
1685714589.711,-65.430,-66.406,-12.695,-61.523,-78.613
1685714589.715,-47.852,-66.406,-13.672,-49.316,-207.031
1685714589.719,-43.945,-58.105,-22.461,-39.551,-51.270
1685714589.722,-36.133,-56.152,-23.438,-32.715,-41.016
1685714589.726,-14.648,-55.664,-18.066,-24.414,-122.559
1685714589.730,-8.789,-49.805,-18.066,-13.184,-64.453
1685714589.734,0.000,-45.410,-19.531,3.906,104.004
1685714589.738,13.184,-42.969,-25.391,13.672,85.938
1685714589.742,15.625,-42.480,-29.785,22.949,-40.039
1685714589.746,38.574,-38.574,-33.203,38.574,-55.176
1685714589.749,48.828,-32.715,-35.156,49.805,167.480
1685714589.753,44.922,-32.227,-41.992,45.410,249.512
1685714589.757,55.664,-33.691,-48.828,47.852,-82.031
1685714589.761,57.129,-24.902,-43.945,52.246,-225.586
1685714589.765,54.688,-20.020,-44.922,53.223,-33.691
1685714589.766,60.547,-22.949,-42.969,69.824,-10.742
1685714589.770,65.918,-29.297,-47.363,70.801,-144.531
1685714589.774,66.406,-29.297,-45.898,71.289,-52.734
1685714589.778,64.941,-20.996,-38.086,71.289,-61.035
1685714589.782,65.918,-20.020,-37.109,68.359,-68.848
1685714589.786,67.383,-20.508,-33.691,68.848,13.184
1685714589.790,61.523,-17.090,-32.715,62.988,91.797
1685714589.793,62.012,-13.672,-28.809,68.848,422.363
1685714589.797,62.012,-19.043,-31.250,65.430,248.535
1685714589.801,45.410,-21.484,-36.133,55.176,-135.254
1685714589.805,35.645,-18.066,-36.133,57.617,-93.262
1685714589.809,39.551,-24.414,-38.574,60.059,-107.422
1685714589.811,34.668,-26.367,-39.062,57.617,-150.391
1685714589.815,31.250,-20.020,-33.203,56.152,-141.113
1685714589.819,29.785,-25.879,-33.691,46.875,-125.488
1685714589.823,25.391,-24.902,-36.133,36.621,-122.559
1685714589.827,36.621,-20.020,-31.250,35.156,-170.410
1685714589.831,33.691,-20.508,-25.391,35.156,-78.125
1685714589.835,18.555,-26.367,-28.320,36.621,250.488
1685714589.838,15.137,-32.715,-34.180,32.715,250.977
1685714589.842,17.578,-27.832,-35.156,25.391,-67.383
1685714589.846,18.555,-26.367,-33.203,29.297,-147.461
1685714589.850,23.926,-30.273,-30.273,34.668,185.547
1685714589.854,26.855,-28.320,-28.320,28.809,293.457
1685714589.856,26.855,-20.508,-30.273,32.227,-111.328
1685714589.860,16.602,-22.461,-34.668,26.367,-165.527
1685714589.864,17.578,-33.203,-27.344,12.695,-48.340
1685714589.868,20.508,-26.367,-21.484,11.719,-92.773
1685714589.872,8.301,-17.578,-22.461,7.812,-158.691
1685714589.876,-1.465,-17.578,-18.555,11.230,65.430
1685714589.880,-5.859,-16.602,-19.043,20.020,270.508
1685714589.883,-4.883,-18.066,-27.832,15.137,1.465
1685714589.887,-4.395,-25.879,-30.273,-0.977,-227.539
1685714589.891,-12.207,-29.297,-31.250,-8.301,-2.930
1685714589.895,-20.020,-29.297,-33.691,-9.277,115.723
1685714589.899,-15.137,-30.273,-29.297,-4.395,-126.953
1685714589.916,-3.906,-29.297,-33.691,-5.859,-191.406
1685714589.920,5.859,-25.391,-36.133,-14.160,-80.566
1685714589.924,2.441,-23.926,-31.738,-5.371,-24.414
1685714589.928,-7.812,-25.879,-30.762,-2.441,-84.961
1685714589.932,-7.324,-23.926,-30.273,-2.441,-107.422
1685714589.936,-6.348,-19.043,-31.738,-5.859,62.988
1685714589.940,-9.766,-18.066,-38.574,-15.625,89.844
1685714589.943,-15.137,-23.926,-37.598,-15.137,-35.156
1685714589.947,-29.785,-32.715,-33.203,-6.348,-77.637
1685714589.951,-34.180,-32.715,-35.156,-5.859,189.941
1685714589.955,-24.414,-30.273,-34.180,-14.160,333.496
1685714589.959,-22.461,-32.715,-34.668,-22.461,-55.664
1685714589.961,-21.973,-31.738,-32.227,-21.484,-82.520
1685714589.965,-18.555,-24.902,-29.297,-8.301,34.180
1685714589.969,-20.996,-20.508,-25.391,-6.348,-145.508
1685714589.973,-27.832,-27.832,-30.273,-24.414,-261.719
1685714589.977,-22.949,-30.273,-26.855,-23.926,-115.234
1685714589.981,-12.695,-19.043,-17.578,-6.348,42.969
1685714589.985,-21.973,-22.461,-32.715,-15.137,8.301
1685714589.988,-29.297,-34.180,-41.504,-28.809,-98.633
1685714589.992,-36.133,-32.227,-32.715,-24.902,-16.113
1685714589.996,-38.574,-29.297,-29.297,-23.926,221.680
1685714590.000,-34.180,-32.227,-33.691,-27.832,23.438
1685714590.004,-35.645,-35.645,-31.738,-37.109,-121.582
1685714590.007,-30.762,-33.203,-22.949,-33.691,-64.941
1685714590.011,-23.926,-29.297,-21.484,-22.461,-146.973
1685714590.015,-10.254,-27.832,-26.367,-27.832,-105.469
1685714590.019,-3.418,-25.391,-28.809,-32.715,-24.902
1685714590.023,-14.648,-23.438,-30.762,-23.438,-9.766
1685714590.027,-24.902,-25.879,-31.250,-28.320,54.199
1685714590.031,-12.695,-24.414,-32.715,-26.855,26.855
1685714590.034,1.465,-24.414,-36.133,-17.578,-154.297
1685714590.038,-21.973,-33.203,-30.762,-24.902,128.906
1685714590.042,-36.133,-35.645,-30.273,-29.297,447.266
1685714590.046,-36.133,-33.203,-29.785,-32.227,6.348
1685714590.050,-51.270,-36.133,-25.391,-33.691,-196.289
1685714590.051,-51.758,-40.039,-20.020,-33.691,-150.391
1685714590.055,-46.875,-41.504,-22.949,-37.598,-159.180
1685714590.059,-48.828,-41.992,-33.203,-45.898,-156.250
1685714590.063,-48.828,-38.086,-40.039,-52.246,-83.984
1685714590.067,-53.223,-33.203,-42.480,-51.270,-65.918
1685714590.071,-55.664,-30.273,-39.062,-44.922,-63.477
1685714590.075,-48.340,-31.250,-39.062,-41.504,-52.734
1685714590.078,-46.875,-33.203,-40.039,-40.527,-13.672
1685714590.082,-47.852,-33.203,-33.203,-31.738,298.340
1685714590.086,-46.387,-30.273,-26.855,-25.391,114.746
1685714590.090,-44.922,-30.762,-31.250,-34.180,-197.754
1685714590.094,-30.762,-25.879,-31.738,-33.691,-49.805
1685714590.096,-17.578,-25.391,-30.762,-30.762,-5.859
1685714590.100,-20.020,-29.297,-26.855,-38.574,-98.633
1685714590.104,-28.320,-24.414,-27.344,-32.715,-148.438
1685714590.108,-32.227,-23.438,-25.391,-28.320,-37.109
1685714590.112,-22.461,-25.391,-25.391,-22.461,10.742
1685714590.116,-23.438,-25.391,-32.715,-26.367,68.359
1685714590.120,-34.180,-21.973,-30.273,-31.250,18.066
1685714590.123,-32.715,-24.414,-28.320,-28.320,162.598
1685714590.127,-33.203,-28.809,-33.203,-29.297,426.758
1685714590.131,-31.738,-27.832,-31.738,-27.832,10.742
1685714590.135,-28.320,-28.320,-27.344,-26.855,-234.863
1685714590.139,-27.344,-26.855,-22.461,-24.414,-51.270
1685714590.141,-21.484,-22.461,-21.484,-21.973,-100.586
1685714590.145,-22.461,-22.461,-25.879,-26.855,-231.445
1685714590.149,-14.648,-23.926,-27.832,-27.832,-101.562
1685714590.153,0.488,-22.949,-25.391,-20.508,-51.270
1685714590.157,-2.930,-28.809,-25.391,-22.461,-140.137
1685714590.161,-17.090,-26.855,-26.855,-22.949,-144.531
1685714590.165,-23.438,-21.484,-28.809,-18.066,52.246
1685714590.168,-20.508,-20.020,-25.879,-5.859,289.551
1685714590.172,-21.484,-23.438,-22.461,-6.836,46.875
1685714590.176,-26.855,-31.250,-23.926,-21.973,-99.121
1685714590.180,-25.391,-28.809,-21.484,-22.461,57.617
1685714590.184,-14.160,-27.344,-17.578,-13.184,31.738
1685714590.186,-5.859,-32.227,-19.531,-20.996,-136.230
1685714590.190,-11.719,-32.227,-26.367,-30.273,-166.016
1685714590.194,-25.391,-30.762,-26.855,-22.461,-100.586
1685714590.198,-36.621,-28.809,-21.484,-21.484,-109.863
1685714590.202,-31.250,-29.297,-26.855,-27.344,-151.367
1685714590.206,-17.578,-28.320,-31.250,-21.484,-28.809
1685714590.210,-18.555,-27.832,-32.227,-18.555,287.598
1685714590.213,-21.484,-27.832,-29.785,-20.996,275.391
1685714590.217,-26.855,-24.902,-26.367,-23.926,-35.645
1685714590.221,-31.738,-27.832,-32.715,-28.809,-68.848
1685714590.225,-30.762,-30.762,-33.203,-27.832,105.469
1685714590.229,-23.926,-28.809,-31.250,-24.414,114.746
1685714590.232,-15.137,-18.555,-26.855,-18.066,-67.871
1685714590.236,-19.531,-19.043,-24.902,-18.066,-61.035
1685714590.240,-24.414,-23.438,-29.785,-23.926,-21.973
1685714590.244,-18.066,-19.531,-36.621,-30.273,-132.812
1685714590.248,-8.301,-21.484,-38.574,-26.855,-221.680
1685714590.252,-6.348,-22.949,-31.250,-19.043,-54.199
1685714590.256,-16.113,-23.438,-28.809,-20.996,173.828
1685714590.259,-26.367,-24.414,-28.809,-21.484,37.109
1685714590.263,-26.367,-24.414,-29.785,-25.391,-183.105
1685714590.267,-20.020,-23.438,-30.273,-29.297,-24.414
1685714590.271,-17.090,-22.949,-34.668,-21.484,144.043
1685714590.275,-20.020,-23.438,-37.109,-20.996,-50.293
1685714590.291,-25.879,-29.297,-31.250,-13.672,-150.879
1685714590.295,-24.414,-30.273,-28.320,-11.719,-95.215
1685714590.299,-20.508,-25.879,-28.320,-19.531,-91.797
1685714590.303,-24.902,-35.156,-29.785,-19.043,-42.969
1685714590.307,-27.832,-39.551,-32.227,-27.344,-105.469
1685714590.311,-25.879,-32.227,-35.645,-36.621,135.742
1685714590.315,-25.879,-25.391,-33.691,-32.715,271.484
1685714590.318,-25.391,-21.973,-29.785,-28.320,-93.750
1685714590.322,-20.020,-21.484,-27.832,-27.344,-205.566
1685714590.326,-19.043,-20.508,-24.902,-18.066,70.801
1685714590.330,-31.738,-22.461,-29.297,-26.367,248.047
1685714590.334,-31.738,-25.391,-35.156,-33.203,-68.359
1685714590.336,-26.367,-28.320,-35.645,-29.785,-134.277
1685714590.340,-25.879,-30.762,-33.691,-33.691,-0.977
1685714590.344,-23.438,-24.902,-31.738,-30.273,-61.523
1685714590.348,-21.973,-19.043,-29.785,-39.551,-171.875
1685714590.352,-19.531,-19.531,-29.297,-35.645,-130.859
1685714590.356,-17.578,-24.902,-32.715,-32.715,-2.930
1685714590.360,-29.297,-39.551,-35.645,-39.062,31.738
1685714590.363,-42.969,-36.621,-29.785,-33.691,-72.754
1685714590.367,-48.828,-30.762,-30.762,-32.227,-70.801
1685714590.371,-47.852,-29.785,-28.809,-28.320,258.301
1685714590.375,-39.551,-30.273,-23.438,-28.809,132.324
1685714590.379,-37.109,-28.809,-24.414,-21.484,-150.391
1685714590.381,-38.574,-25.879,-24.902,-21.973,-58.594
1685714590.385,-40.527,-30.762,-22.949,-30.762,-73.242
1685714590.389,-40.039,-37.598,-23.438,-20.996,-141.602
1685714590.393,-35.156,-33.203,-23.926,-17.578,-106.445
1685714590.397,-31.250,-31.738,-25.879,-29.297,-22.949
1685714590.401,-22.461,-40.527,-25.879,-20.508,24.414
1685714590.405,-18.066,-37.598,-27.344,-3.906,15.625
1685714590.408,-28.809,-30.273,-32.715,-18.555,-127.930
1685714590.412,-48.340,-27.832,-41.504,-46.875,155.762
1685714590.416,-57.129,-29.297,-41.992,-46.387,603.516
1685714590.420,-46.387,-27.832,-33.203,-39.062,173.828
1685714590.424,-53.223,-22.949,-37.598,-52.246,-211.914
1685714590.426,-62.012,-24.902,-45.898,-66.895,-108.887
1685714590.430,-58.594,-16.602,-42.969,-77.637,-154.785
1685714590.434,-60.547,-12.695,-52.246,-82.031,-216.797
1685714590.438,-59.570,-19.043,-54.199,-81.055,-114.746
1685714590.442,-62.012,-13.672,-40.527,-77.637,-36.133
1685714590.446,-73.242,-16.113,-42.480,-87.402,20.508
