timestamps,TP9,AF7,AF8,TP10,Right AUX
1688468606.516,-87.402,-11.230,-35.645,-77.148,-99.609
1688468606.520,-74.219,-15.625,-37.109,-86.426,-141.113
1688468606.524,-53.223,-9.277,-21.484,-75.195,-100.586
1688468606.528,-57.617,-8.301,-30.762,-74.707,-10.742
1688468606.532,-68.848,-23.438,-34.668,-68.848,-63.965
1688468606.536,-56.152,-30.273,-30.762,-58.594,-68.848
1688468606.540,-55.664,-35.645,-37.598,-58.594,69.824
1688468606.543,-54.199,-33.203,-31.250,-51.270,433.594
1688468606.547,-36.621,-25.391,-29.297,-47.852,334.473
1688468606.551,-38.574,-30.762,-32.715,-55.176,-108.398
1688468606.555,-43.945,-30.273,-33.203,-51.758,-131.348
1688468606.559,-55.664,-40.039,-40.527,-58.594,26.367
1688468606.562,-63.965,-44.922,-39.062,-59.082,-86.914
1688468606.566,-47.363,-25.391,-26.855,-52.246,-181.641
1688468606.570,-39.062,-29.785,-27.832,-55.176,-88.867
1688468606.574,-45.410,-38.574,-29.297,-54.688,-102.539
1688468606.578,-51.758,-32.715,-24.414,-44.922,-149.414
1688468606.582,-38.086,-38.574,-20.508,-41.504,-65.918
1688468606.586,-23.438,-40.527,-18.555,-36.133,170.410
1688468606.589,-35.156,-31.250,-24.902,-33.691,232.422
1688468606.593,-35.645,-28.320,-29.297,-37.109,-69.824
1688468606.597,-35.645,-32.715,-28.809,-33.691,-161.133
1688468606.601,-38.574,-41.504,-24.902,-39.062,-3.418
1688468606.605,-38.086,-41.016,-18.066,-42.480,-63.965
1688468606.606,-40.527,-36.621,-23.438,-46.387,-229.980
1688468606.610,-32.715,-34.180,-30.273,-45.898,-141.113
1688468606.614,-21.484,-33.691,-28.809,-37.109,-51.270
1688468606.618,-30.762,-38.574,-26.367,-40.039,-102.539
1688468606.622,-19.531,-41.992,-22.949,-34.668,-104.004
1688468606.626,-11.230,-25.391,-24.902,-26.367,46.387
1688468606.630,-19.531,-11.230,-24.902,-20.996,254.395
1688468606.633,-25.391,-19.531,-26.367,-16.602,76.172
1688468606.637,-29.297,-26.367,-30.273,-21.484,-97.168
1688468606.641,-31.250,-24.414,-27.344,-19.531,-59.082
1688468606.645,-33.691,-25.391,-21.973,-20.996,243.164
1688468606.649,-39.062,-21.973,-24.902,-36.133,115.234
1688468606.652,-41.992,-16.602,-28.320,-27.832,-272.949
1688468606.656,-33.691,-18.555,-25.879,-22.949,-180.176
1688468606.660,-20.508,-19.531,-21.973,-22.461,-7.812
1688468606.664,-42.969,-24.902,-18.555,-20.020,-63.965
1688468606.668,-52.246,-16.602,-22.461,-31.738,-143.066
1688468606.672,-61.035,-11.230,-25.879,-33.203,-32.715
1688468606.676,-78.125,-33.203,-21.973,-16.113,31.738
1688468606.679,-57.129,-40.039,-23.926,-29.785,-143.066
1688468606.683,-16.602,-37.109,-25.391,-25.391,-196.289
1688468606.687,-46.387,-44.434,-23.926,-9.766,58.105
1688468606.691,-60.059,-28.320,-30.762,-22.461,83.496
1688468606.695,-5.371,-17.090,-32.715,-13.184,-179.199
1688468606.711,-17.090,-38.574,-20.996,-4.395,-185.547
1688468606.715,-67.383,-44.922,-25.879,-20.996,-42.480
1688468606.719,-41.992,-26.855,-34.180,-47.363,-59.082
1688468606.723,-7.324,-20.996,-31.250,-54.199,-189.941
1688468606.727,-16.602,-30.762,-35.156,-32.227,-134.277
1688468606.731,-19.043,-40.527,-35.156,-32.715,349.121
1688468606.735,-35.645,-38.086,-36.621,-51.270,287.598
1688468606.738,-22.461,-29.785,-37.598,-41.016,-14.648
1688468606.742,-30.273,-22.461,-36.133,-37.109,79.590
1688468606.746,-43.945,-20.996,-43.457,-43.457,293.457
1688468606.750,-20.996,-36.133,-37.109,-40.039,48.828
1688468606.754,-22.949,-36.621,-28.809,-37.598,-221.680
1688468606.756,-45.898,-20.508,-30.762,-34.180,-126.953
1688468606.760,-39.551,-30.273,-28.809,-30.273,-90.332
1688468606.764,-24.414,-38.086,-24.902,-35.645,-177.734
1688468606.768,-40.039,-24.414,-19.043,-34.668,-179.199
1688468606.772,-36.133,-13.672,-17.090,-21.973,10.254
1688468606.776,-1.953,-10.742,-13.672,-15.137,168.457
1688468606.780,-3.906,-7.812,-8.301,-14.648,106.934
1688468606.783,-21.484,3.418,-5.371,-19.531,-121.582
1688468606.787,-18.555,-8.301,-13.184,-12.207,15.625
1688468606.791,-21.973,-21.973,-21.973,-8.789,125.977
1688468606.795,-27.344,-17.090,-20.996,-24.902,-187.012
1688468606.799,-5.859,-22.461,-22.949,-23.926,-208.984
1688468606.801,-26.855,-20.508,-25.879,-17.578,-110.840
1688468606.805,-59.570,-11.719,-29.297,-29.297,-173.340
1688468606.809,-14.648,-16.113,-31.738,-35.156,-166.992
1688468606.813,4.395,-19.043,-24.902,-17.090,-104.980
1688468606.817,-21.973,-20.020,-32.715,-28.809,-13.672
1688468606.821,-46.875,-20.996,-37.598,-53.711,86.426
1688468606.825,-42.969,-20.996,-31.738,-37.109,-8.789
1688468606.828,-23.926,-25.391,-32.227,-40.527,-23.438
1688468606.832,-37.109,-24.902,-30.273,-47.852,424.316
1688468606.836,-72.754,-20.508,-31.250,-54.199,465.332
1688468606.840,-51.270,-28.320,-34.180,-34.668,-38.574
1688468606.844,-6.348,-35.645,-33.691,-28.320,-184.082
1688468606.846,-20.020,-32.715,-26.855,-27.344,-139.160
1688468606.850,-26.367,-34.180,-20.508,-23.926,-181.152
1688468606.854,-16.113,-32.715,-25.879,-17.090,-173.828
1688468606.858,-40.527,-31.738,-31.738,-24.414,-78.613
1688468606.862,-41.504,-24.902,-33.203,-19.043,-102.051
1688468606.866,-22.949,-15.625,-34.668,-3.418,-27.832
1688468606.870,16.113,-20.508,-33.691,0.488,120.605
1688468606.873,42.969,-19.043,-29.297,9.766,221.191
1688468606.877,42.969,-14.160,-24.902,13.672,262.695
1688468606.881,36.133,-19.043,-21.973,22.949,-19.043
1688468606.885,27.832,-23.926,-20.996,28.320,-126.465
1688468606.889,55.176,-18.555,-26.855,38.086,124.023
1688468606.891,58.594,-17.578,-26.855,33.691,125.000
1688468606.895,50.781,-22.949,-20.508,38.086,-124.023
1688468606.899,21.973,-27.832,-20.020,46.387,-118.164
1688468606.903,20.996,-24.902,-20.508,26.855,-26.367
1688468606.907,65.430,-23.438,-20.508,37.109,-105.957
1688468606.911,56.641,-25.391,-23.438,66.895,-40.039
1688468606.915,37.598,-25.391,-21.484,72.754,92.285
1688468606.918,21.484,-26.367,-19.531,41.992,157.227
1688468606.922,-0.977,-22.949,-17.090,29.297,67.871
1688468606.926,5.859,-20.020,-15.625,51.270,-144.043
1688468606.930,15.625,-34.180,-13.672,39.551,-120.117
1688468606.934,11.230,-33.691,-15.625,24.414,366.699
1688468606.936,1.953,-30.762,-20.020,19.043,272.949
1688468606.940,-18.555,-31.250,-20.508,16.113,-221.680
1688468606.944,-15.137,-20.020,-20.508,23.926,-181.641
1688468606.948,16.602,-19.531,-7.324,31.738,-81.543
1688468606.952,29.785,-28.809,-7.812,12.207,-123.535
1688468606.956,19.531,-28.809,-20.508,9.277,-155.273
1688468606.960,-1.953,-25.391,-21.484,21.973,138.184
1688468606.963,-19.043,-24.414,-14.648,-13.672,237.793
1688468606.967,-23.926,-26.367,-18.555,-47.852,-157.227
1688468606.971,-5.371,-27.832,-29.297,-1.465,-264.648
1688468606.975,-30.762,-18.555,-27.832,-6.348,-152.344
1688468606.979,-43.945,-20.996,-24.902,-17.578,-155.762
1688468606.982,-5.859,-27.344,-30.273,-11.230,-212.891
1688468606.986,14.648,-23.438,-26.855,-23.926,-106.445
1688468606.990,-10.254,-16.602,-18.066,-4.395,106.934
1688468606.994,-54.688,-9.277,-28.320,-8.789,-42.969
1688468606.998,-0.977,-20.020,-19.531,-4.395,-225.098
1688468607.002,2.930,-30.273,-18.066,-12.207,-65.430
1688468607.006,-18.066,-30.273,-26.367,-8.301,303.711
1688468607.009,-31.250,-31.250,-20.996,-40.039,127.930
1688468607.013,-42.969,-29.785,-18.555,-55.176,-104.980
1688468607.017,-10.254,-24.902,-12.695,-7.324,-80.566
1688468607.021,-2.930,-27.344,-14.160,3.906,145.508
1688468607.025,-25.391,-20.508,-18.555,-6.348,-4.395
1688468607.041,-37.598,-18.066,-17.090,-9.277,-164.551
1688468607.045,-8.789,-21.484,-17.090,0.000,-82.031
1688468607.049,-11.719,-14.160,-20.508,-9.277,-125.000
1688468607.053,-27.832,-18.555,-24.902,-20.020,-187.500
1688468607.057,3.906,-27.344,-26.855,-29.297,-126.465
1688468607.061,10.742,-44.922,-18.066,-19.531,132.812
1688468607.065,-16.602,-41.992,-19.043,-3.418,408.203
1688468607.068,-26.367,-27.344,-22.949,-7.812,20.020
1688468607.072,-41.016,-31.738,-22.461,-21.484,-208.984
1688468607.076,-12.695,-30.273,-21.973,-32.227,47.363
1688468607.080,-18.555,-34.180,-27.344,-53.711,1.465
1688468607.084,-21.973,-36.621,-37.109,-44.434,-151.367
1688468607.086,-28.809,-27.344,-38.574,-47.363,-140.625
1688468607.090,-62.012,-31.250,-35.645,-46.875,-110.840
1688468607.094,-20.996,-28.320,-38.086,-22.461,-97.656
1688468607.098,-10.254,-23.438,-36.133,-24.414,-127.441
1688468607.102,-41.016,-20.996,-35.645,-32.227,-91.309
1688468607.106,-40.039,-14.160,-28.320,-48.340,41.016
1688468607.110,-50.293,-23.926,-22.949,-64.453,6.836
1688468607.113,-11.719,-33.203,-30.762,-33.691,-4.883
1688468607.117,22.949,-29.297,-26.855,-11.230,75.195
1688468607.121,-5.371,-28.320,-18.555,-13.184,402.344
1688468607.125,-53.711,-35.156,-24.902,-34.180,421.387
1688468607.129,-72.754,-33.203,-33.691,-44.922,-57.129
1688468607.146,-28.809,-21.484,-32.227,-25.391,-181.152
1688468607.150,-22.949,-22.461,-26.855,-29.297,-137.207
1688468607.154,-34.180,-38.086,-32.715,-40.039,-136.719
1688468607.158,-46.387,-39.551,-24.414,-43.457,-149.414
1688468607.162,-40.527,-30.273,-24.414,-40.039,-137.207
1688468607.166,-48.340,-30.762,-29.785,-47.363,-34.668
1688468607.170,-65.918,-25.391,-25.879,-70.312,-46.387
1688468607.173,-58.594,-32.227,-28.809,-53.223,-159.668
1688468607.177,-15.137,-42.480,-23.926,-15.137,8.789
1688468607.181,-37.109,-30.762,-32.715,-42.480,215.332
1688468607.185,-67.383,-33.691,-49.805,-68.359,-83.984
1688468607.189,-76.660,-32.715,-44.434,-52.246,-159.668
1688468607.176,-50.781,-29.297,-27.832,-70.801,40.527
1688468607.180,-16.602,-31.738,-27.832,-30.273,-102.051
1688468607.184,-38.574,-25.391,-29.297,-6.836,-237.305
1688468607.188,-43.457,-21.484,-23.438,-25.391,-156.738
1688468607.192,-47.852,-20.020,-28.320,-15.137,-74.219
1688468607.196,-61.035,-31.738,-28.320,-21.973,-5.859
1688468607.200,-0.977,-36.621,-24.414,-20.020,19.043
1688468607.203,-2.930,-19.531,-20.508,-13.184,59.082
1688468607.207,-45.898,-15.625,-20.020,-41.504,51.270
1688468607.211,-24.902,-26.367,-21.973,-84.473,-65.918
1688468607.215,-32.715,-39.062,-16.113,-24.414,-126.953
1688468607.219,-41.992,-36.621,-22.461,-1.953,-84.473
1688468607.236,-58.594,-19.531,-30.762,-42.969,333.008
1688468607.240,-65.430,-22.949,-21.973,-21.484,336.426
1688468607.244,-58.105,-22.949,-26.855,-15.625,-103.027
1688468607.248,-12.695,-16.602,-27.344,-23.438,-183.105
1688468607.252,-8.789,-16.113,-25.391,-29.785,-156.250
1688468607.256,-57.617,-13.672,-25.391,-34.180,-131.836
1688468607.260,-29.785,-16.602,-22.461,-23.926,-85.449
1688468607.263,-23.926,-15.625,-20.996,-25.879,62.988
1688468607.267,-47.363,-0.488,-22.949,-29.297,162.109
1688468607.271,-16.602,-29.297,-16.113,-21.484,-134.277
1688468607.275,0.977,-38.086,-18.066,-20.508,-238.281
1688468607.279,-9.277,-26.367,-28.320,-25.879,-117.676
1688468607.267,-37.109,-29.297,-34.180,-42.969,-132.324
1688468607.271,-32.227,-33.203,-29.297,-30.273,-177.734
1688468607.275,-27.832,-40.527,-21.973,-25.879,-97.168
1688468607.279,-48.828,-41.992,-27.832,-32.715,67.871
1688468607.283,-60.547,-28.809,-39.062,-44.434,-56.641
1688468607.287,-43.457,-27.832,-41.016,-58.105,-96.680
1688468607.291,8.789,-40.039,-30.762,-38.086,15.137
1688468607.294,0.977,-37.598,-32.715,-26.855,93.750
1688468607.298,-48.340,-33.203,-27.344,-32.227,95.215
1688468607.302,-53.223,-20.508,-25.879,-28.809,-68.359
1688468607.306,-16.113,-30.273,-28.809,-30.762,-68.848
1688468607.310,-25.391,-45.898,-24.902,-59.570,340.332
1688468607.312,-33.691,-35.156,-31.250,-67.383,210.449
1688468607.316,-37.598,-30.762,-29.785,-27.344,-182.617
1688468607.320,-47.363,-26.855,-31.738,-18.555,-170.898
1688468607.324,-24.414,-34.180,-36.133,-22.949,-140.137
1688468607.328,-38.086,-38.086,-33.203,-28.320,-99.609
1688468607.332,-59.570,-25.879,-29.785,-25.879,-97.656
1688468607.336,-13.184,-31.738,-26.855,-34.180,83.008
1688468607.339,-12.207,-38.086,-28.320,-30.762,393.066
1688468607.343,-43.457,-22.949,-38.574,-24.414,11.230
1688468607.347,-32.227,-24.414,-39.551,-41.016,-185.059
1688468607.351,-41.504,-32.715,-30.762,-37.109,-52.246
1688468607.355,-42.480,-25.391,-22.949,-7.324,-152.832
1688468607.356,-50.293,-11.230,-27.344,-39.551,-224.121
1688468607.360,-41.992,-23.926,-25.391,-76.172,-172.363
1688468607.364,22.461,-39.062,-15.625,-7.812,-98.633
1688468607.368,-9.277,-38.574,-22.949,-9.277,-125.977
1688468607.372,-65.918,-41.504,-38.086,-29.785,-191.895
1688468607.376,-36.621,-39.551,-41.992,-17.578,4.883
1688468607.380,-16.602,-41.016,-42.969,-34.668,331.543
1688468607.383,-21.484,-42.969,-41.992,-44.922,105.957
1688468607.387,-26.367,-34.180,-36.621,-34.668,-136.719
1688468607.391,-54.199,-32.715,-34.668,-42.480,-33.691
1688468607.395,-56.641,-44.922,-34.180,-38.574,259.277
1688468607.399,-53.711,-48.340,-32.227,-39.551,90.332
1688468607.417,-52.246,-39.551,-29.297,-50.781,-209.473
1688468607.421,-20.508,-38.086,-31.250,-50.293,-168.457
1688468607.425,-52.246,-35.156,-37.109,-51.758,-123.047
1688468607.429,-55.176,-40.527,-33.691,-95.703,-133.301
1688468607.433,-2.930,-39.062,-28.809,-37.109,-161.621
1688468607.437,-34.668,-26.855,-33.691,-7.812,56.152
1688468607.441,-21.484,-43.945,-34.668,-33.203,220.703
1688468607.444,-11.230,-51.758,-25.879,-25.879,-20.996
1688468607.448,-30.762,-45.898,-32.715,-33.691,-165.039
1688468607.452,-29.297,-36.621,-39.062,-38.086,64.941
1688468607.456,-52.246,-26.855,-36.133,-35.645,103.027
1688468607.460,-38.574,-36.133,-29.785,-19.531,-149.414
1688468607.462,-20.996,-49.805,-30.762,-32.227,-158.203
1688468607.466,-30.762,-48.340,-33.691,-37.598,64.941
1688468607.470,-60.547,-17.090,-36.133,-51.270,-16.113
1688468607.474,-31.250,-25.879,-35.645,-54.199,-170.410
1688468607.478,-9.766,-48.828,-36.621,-45.898,-141.113
1688468607.482,-48.828,-35.156,-42.969,-71.777,36.133
1688468607.486,-53.711,-28.320,-40.039,-50.781,83.008
1688468607.489,-58.594,-23.926,-38.086,-36.621,-85.449
1688468607.493,-40.039,-30.273,-36.133,-42.480,-29.785
1688468607.497,-18.066,-34.180,-27.344,-32.715,348.145
1688468607.501,-18.555,-33.203,-31.250,-26.855,279.297
1688468607.505,-27.344,-33.203,-33.203,-26.855,-120.605
1688468607.506,-47.852,-22.461,-27.344,-29.297,-92.773
1688468607.510,-50.781,-30.273,-26.367,-23.438,17.090
1688468607.514,-12.695,-33.203,-17.090,-23.926,-101.562
1688468607.518,-57.617,-2.930,-24.414,-25.879,-144.043
1688468607.522,-78.125,-19.043,-29.297,-19.043,-96.191
1688468607.526,-25.391,-51.758,-24.414,-34.180,-63.965
1688468607.530,3.418,-39.551,-21.484,-58.105,-75.195
1688468607.533,-8.301,-40.527,-22.949,-23.926,-125.000
1688468607.537,-28.320,-36.621,-29.785,-11.230,46.387
1688468607.541,-56.641,-21.484,-31.738,-31.250,148.438
1688468607.545,-41.016,-26.367,-21.484,-28.320,-121.582
1688468607.549,10.254,-31.738,-24.414,-20.020,-159.668
1688468607.552,-3.906,-29.297,-31.250,-17.578,-45.410
1688468607.556,-37.598,-21.973,-32.227,-28.320,-74.219
1688468607.560,-40.039,-28.320,-30.762,-34.668,-142.090
1688468607.564,-44.922,-39.551,-26.855,-37.598,-113.281
1688468607.568,-54.199,-35.156,-30.273,-32.715,39.551
1688468607.572,-9.277,-38.086,-28.809,-55.176,58.594
1688468607.576,-29.785,-35.156,-27.832,-30.762,-28.320
1688468607.579,-59.570,-4.883,-31.250,-23.926,-91.797
1688468607.583,-21.973,-38.574,-20.996,-11.230,261.719
1688468607.587,-18.066,-62.988,-22.949,-14.648,238.770
1688468607.591,-26.855,-36.621,-31.738,-46.875,-182.617
1688468607.595,-49.805,-27.832,-30.273,-39.551,-185.059
1688468607.596,-98.145,-23.926,-32.227,-36.621,-128.906
1688468607.600,-38.086,-25.879,-28.809,-41.992,-193.848
1688468607.604,11.230,-46.875,-21.973,-36.133,-236.328
1688468607.608,9.277,-38.086,-17.578,-3.906,-149.902
1688468607.612,-41.504,-13.672,-20.020,-2.930,-83.496
1688468607.616,-35.645,-19.043,-25.391,-34.180,-88.867
1688468607.620,17.090,-23.926,-26.855,-54.199,-89.355
1688468607.623,7.324,-29.785,-22.461,-13.184,171.387
1688468607.627,5.859,-32.715,-16.602,0.000,390.137
1688468607.631,-20.996,-14.648,-20.020,-35.156,-61.523
1688468607.635,-52.246,-12.695,-25.879,-39.062,-265.137
1688468607.639,-45.410,-32.227,-16.113,-26.855,-138.672
1688468607.641,-23.926,-28.809,-19.531,-14.160,-165.527
1688468607.645,-29.785,-34.180,-25.879,-31.250,-184.570
1688468607.649,-29.297,-38.574,-24.902,-44.922,-104.492
1688468607.653,-28.320,-33.691,-22.461,-16.113,-42.480
1688468607.657,-30.762,-20.996,-21.484,-7.324,-118.652
1688468607.661,-6.348,-20.020,-27.832,-20.020,-40.527
1688468607.665,-4.395,-34.668,-28.320,-38.086,42.969
1688468607.668,-30.762,-25.879,-39.551,-42.969,373.047
1688468607.672,-27.344,-25.391,-42.480,-47.363,418.945
1688468607.676,-20.020,-33.691,-31.738,-47.363,-78.613
1688468607.680,-39.062,-22.461,-26.855,-37.109,-166.016
1688468607.684,-59.082,-25.391,-34.668,-49.316,57.129
1688468607.686,-29.785,-38.086,-40.039,-71.777,-75.195
1688468607.690,-10.254,-29.785,-34.668,-46.875,-205.078
1688468607.694,-28.809,-37.109,-32.227,-27.344,-129.395
1688468607.698,-48.340,-42.480,-37.109,-49.805,-124.023
1688468607.702,-28.809,-33.203,-35.645,-56.152,-128.906
1688468607.706,-25.391,-31.250,-38.574,-29.297,-77.148
1688468607.710,-44.434,-30.762,-43.457,-41.992,201.660
1688468607.713,-5.371,-49.805,-43.457,-49.805,284.668
1688468607.717,-9.766,-46.387,-42.480,-33.203,-131.836
1688468607.721,-38.086,-31.738,-35.156,-37.598,-166.504
1688468607.725,-34.668,-34.180,-34.668,-31.738,129.395
1688468607.729,-39.551,-27.832,-35.645,-14.160,-2.441
1688468607.731,-23.926,-42.480,-30.273,-7.812,-208.496
1688468607.735,-44.434,-46.387,-36.133,-39.062,-170.898
1688468607.739,-52.734,-32.227,-39.062,-41.016,-13.672
1688468607.743,-20.996,-26.367,-30.762,-18.555,-29.297
1688468607.747,-26.855,-29.785,-36.133,-35.645,-162.598
1688468607.751,-46.875,-33.691,-41.016,-40.527,19.043
1688468607.755,-35.645,-15.625,-32.227,-37.109,336.914
1688468607.758,-20.020,-21.973,-33.203,-39.062,72.754
1688468607.762,-29.297,-33.203,-39.062,-25.391,-194.336
1688468607.766,-43.945,-24.414,-35.156,-42.480,-54.199
1688468607.770,-45.898,-34.180,-36.133,-60.547,231.445
1688468607.774,-29.297,-47.852,-40.039,-27.832,-31.738
1688468607.777,-35.645,-46.387,-34.668,-33.203,-217.285
1688468607.781,-49.805,-42.969,-31.738,-51.758,-67.871
1688468607.785,-38.574,-44.922,-27.832,-53.223,-48.828
1688468607.789,-17.578,-39.062,-24.414,-46.875,-171.387
1688468607.793,-17.578,-30.273,-21.973,-31.738,-199.707
1688468607.797,-23.926,-23.926,-25.391,-27.832,21.484
1688468607.801,-36.621,-26.855,-33.203,-30.762,81.055
1688468607.804,-40.039,-32.227,-32.227,-36.621,-38.086
1688468607.808,-33.691,-31.250,-27.344,-28.809,-120.117
1688468607.812,-52.734,-22.461,-25.391,-35.156,51.758
1688468607.816,-34.668,-20.996,-20.020,-50.293,93.262
1688468607.820,-5.859,-28.320,-32.715,-42.969,-154.297
1688468607.836,-34.180,-32.227,-39.062,-38.086,-157.227
1688468607.840,-33.203,-36.621,-33.691,-32.227,-69.824
1688468607.844,-19.043,-29.785,-34.180,-37.598,-89.355
1688468607.848,-23.926,-24.414,-36.133,-41.992,-92.773
1688468607.852,-36.133,-31.738,-33.203,-32.227,-76.660
1688468607.856,-40.039,-42.969,-33.691,-40.039,281.738
1688468607.860,-42.480,-36.133,-36.621,-51.270,128.906
1688468607.863,-35.645,-24.414,-36.621,-54.199,-188.477
1688468607.867,-35.645,-30.762,-37.109,-46.387,-97.656
1688468607.871,-32.715,-29.785,-28.320,-38.086,217.285
1688468607.875,-32.227,-24.902,-22.949,-46.387,116.211
1688468607.879,-44.434,-28.809,-26.367,-40.527,-156.738
1688468607.881,-40.527,-35.156,-33.203,-36.133,-108.398
1688468607.885,-34.180,-36.621,-37.598,-36.133,-121.582
1688468607.889,-40.039,-42.480,-26.855,-26.855,-144.531
1688468607.893,-40.527,-49.316,-21.973,-15.137,-119.629
1688468607.897,-45.898,-48.828,-24.902,-25.879,-66.406
1688468607.901,-68.359,-48.340,-27.832,-36.133,-11.230
1688468607.905,-61.523,-54.688,-25.391,-26.855,11.719
1688468607.908,-26.367,-53.223,-20.020,-27.344,-5.371
1688468607.912,-21.973,-45.898,-26.367,-30.273,134.277
1688468607.916,-32.227,-50.781,-29.785,-28.809,377.441
1688468607.920,-34.180,-57.617,-24.414,-23.438,52.734
1688468607.924,-34.180,-42.480,-22.461,-25.391,-176.270
1688468607.926,-37.598,-32.715,-20.020,-25.391,-145.020
1688468607.930,-35.156,-36.621,-26.367,-17.090,-171.875
1688468607.934,-36.621,-34.180,-23.926,-15.625,-176.758
1688468607.938,-45.410,-31.250,-21.484,-33.691,-112.305
1688468607.942,-46.387,-30.762,-33.691,-48.340,-87.402
1688468607.946,-57.129,-39.551,-31.250,-44.922,-112.305
1688468607.950,-58.105,-35.156,-26.367,-32.715,-42.969
1688468607.953,-56.152,-30.762,-26.855,-32.715,4.395
1688468607.957,-49.805,-35.156,-28.320,-27.344,461.426
1688468607.961,-44.922,-34.668,-33.203,-19.043,519.531
1688468607.965,-49.316,-28.809,-23.926,-30.762,-69.336
1688468607.969,-45.898,-20.996,-23.438,-30.762,-208.008
1688468607.971,-44.434,-19.531,-33.203,-25.879,-107.910
1688468607.975,-41.016,-28.809,-35.645,-35.645,-127.441
1688468607.979,-47.363,-26.855,-37.109,-36.133,-222.168
1688468607.983,-55.176,-22.949,-35.645,-31.738,-207.520
1688468607.987,-50.293,-28.809,-35.645,-39.062,-83.008
1688468607.991,-41.504,-30.762,-37.109,-38.086,-87.402
1688468607.995,-37.598,-29.297,-37.109,-29.785,-139.648
1688468607.998,-41.992,-24.902,-37.109,-41.504,91.797
1688468608.002,-47.363,-31.250,-34.668,-40.527,194.336
1688468608.006,-42.969,-41.016,-38.574,-35.156,-113.770
1688468608.010,-38.574,-41.504,-42.969,-32.227,-106.445
1688468608.014,-31.738,-34.180,-31.738,-27.344,30.762
1688468608.016,-39.551,-25.879,-17.578,-19.531,-126.953
1688468608.020,-44.434,-33.691,-22.461,-24.414,-226.074
1688468608.024,-38.086,-35.156,-27.832,-28.320,-95.215
1688468608.028,-34.180,-37.598,-29.297,-19.531,115.723
1688468608.032,-31.738,-34.180,-29.297,-26.367,-16.113
1688468608.036,-43.945,-26.367,-34.668,-33.691,-109.863
1688468608.040,-36.133,-24.902,-34.668,-32.715,4.395
1688468608.043,-25.391,-26.855,-31.738,-27.344,303.711
1688468608.047,-42.480,-30.762,-27.832,-27.832,205.566
1688468608.051,-39.062,-34.668,-22.949,-24.414,-184.082
1688468608.055,-29.297,-31.250,-35.156,-23.438,-161.621
1688468608.059,-45.898,-32.715,-36.133,-22.949,-59.570
1688468608.063,-43.945,-33.691,-25.879,-19.043,-136.719
1688468608.067,-36.621,-33.691,-21.973,-22.461,-98.633
1688468608.071,-42.969,-35.156,-22.949,-34.180,-35.156
1688468608.075,-40.039,-35.156,-27.832,-38.086,-75.684
1688468608.079,-42.480,-42.480,-36.621,-46.387,-127.441
1688468608.083,-47.363,-37.109,-34.180,-45.898,-134.277
1688468608.087,-44.922,-24.902,-27.832,-33.691,109.375
1688468608.090,-47.852,-26.367,-34.180,-37.598,265.137
1688468608.094,-54.688,-37.598,-36.133,-46.387,-78.125
1688468608.098,-53.223,-42.969,-37.109,-46.875,-201.172
1688468608.102,-55.664,-41.504,-42.480,-40.039,-97.168
1688468608.106,-44.922,-40.527,-38.574,-29.785,-134.277
1688468608.106,-41.016,-41.992,-38.574,-39.551,-187.012
1688468608.110,-43.457,-41.016,-40.039,-56.641,-149.902
1688468608.114,-37.598,-33.691,-39.551,-54.199,-32.227
1688468608.118,-32.227,-30.762,-40.039,-36.621,-49.805
1688468608.122,-46.875,-34.180,-45.898,-43.945,-121.582
1688468608.126,-65.918,-33.203,-45.898,-52.734,40.527
1688468608.130,-54.688,-32.715,-39.551,-40.039,391.602
1688468608.133,-48.340,-34.668,-40.039,-40.527,277.344
1688468608.137,-35.645,-43.457,-38.574,-41.504,-69.824
1688468608.141,-34.668,-45.410,-31.738,-38.086,-77.148
1688468608.145,-30.762,-32.715,-32.715,-34.668,65.918
1688468608.149,-19.531,-28.809,-35.645,-32.227,-76.660
1688468608.151,-34.180,-37.598,-28.809,-25.391,-147.461
1688468608.155,-32.715,-38.574,-26.855,-30.762,-120.605
1688468608.159,-35.156,-36.621,-33.691,-35.645,-152.832
1688468608.163,-39.551,-30.273,-31.738,-31.250,-118.652
1688468608.167,-39.551,-24.414,-28.320,-34.668,-106.445
1688468608.171,-46.387,-32.715,-32.227,-42.969,-0.488
1688468608.175,-53.223,-22.461,-32.227,-43.457,75.195
1688468608.178,-49.316,-13.184,-25.391,-35.156,36.133
1688468608.182,-45.410,-23.438,-28.320,-41.504,-103.516
1688468608.186,-39.551,-32.227,-31.250,-39.551,41.504
1688468608.190,-41.016,-30.762,-27.832,-34.180,229.980
1688468608.194,-45.898,-29.297,-32.227,-47.852,-91.797
1688468608.211,-54.199,-28.320,-32.227,-54.688,-177.246
1688468608.215,-60.059,-37.109,-30.762,-54.688,-65.918
1688468608.219,-54.199,-36.621,-33.691,-58.105,-104.980
1688468608.223,-43.945,-33.691,-32.715,-55.176,-204.590
1688468608.227,-39.551,-38.574,-29.785,-49.316,-179.199
1688468608.231,-49.805,-40.527,-33.203,-51.758,12.207
1688468608.235,-49.805,-38.086,-40.039,-52.246,6.836
1688468608.238,-36.133,-39.062,-39.551,-44.434,-57.617
1688468608.242,-44.434,-44.434,-37.109,-44.922,59.570
1688468608.246,-50.781,-33.203,-29.297,-40.039,166.016
1688468608.250,-42.969,-22.949,-22.461,-31.738,13.672
1688468608.254,-43.945,-27.832,-27.344,-41.992,-133.301
1688468608.256,-41.992,-26.855,-28.320,-41.992,-45.410
1688468608.260,-45.898,-27.344,-31.250,-38.086,350.098
1688468608.264,-46.875,-27.832,-33.691,-48.340,278.809
1688468608.268,-38.574,-21.973,-38.574,-53.711,-132.812
1688468608.272,-37.598,-17.090,-36.133,-44.922,-118.652
1688468608.276,-38.086,-22.949,-35.156,-37.598,-41.504
1688468608.280,-46.875,-31.250,-47.363,-36.621,-46.875
1688468608.283,-47.363,-28.809,-41.992,-35.156,-123.535
1688468608.287,-33.203,-28.809,-26.855,-34.668,18.066
1688468608.291,-27.832,-29.785,-29.785,-45.898,158.203
1688468608.295,-34.668,-29.785,-37.598,-40.039,-34.180
1688468608.299,-43.457,-30.273,-33.203,-38.086,11.719
1688468608.302,-42.480,-32.715,-36.621,-46.875,85.449
1688468608.306,-33.203,-38.574,-48.828,-30.762,-92.285
1688468608.310,-46.387,-42.969,-39.062,-16.602,-213.867
1688468608.314,-53.711,-43.945,-31.250,-32.715,-158.691
1688468608.318,-53.711,-42.480,-30.762,-41.992,-128.418
1688468608.322,-69.824,-38.574,-25.391,-38.086,-73.242
1688468608.326,-79.590,-40.039,-20.996,-56.641,-80.078
1688468608.329,-93.262,-46.875,-27.344,-73.242,-76.172
1688468608.333,-110.352,-56.641,-20.020,-74.707,302.246
1688468608.337,-113.770,-55.664,-7.812,-82.520,265.137
1688468608.341,-125.977,-49.805,-21.973,-98.145,-186.523
1688468608.345,-141.602,-62.500,-20.508,-103.027,-206.543
1688468608.347,-139.160,-74.707,-15.137,-109.863,-136.719
1688468608.351,-133.301,-65.918,-12.207,-114.746,-91.309
1688468608.355,-138.672,-55.664,-1.465,-108.887,-120.117
1688468608.359,-135.254,-55.664,6.348,-93.750,-54.199
1688468608.363,-134.277,-61.523,-6.348,-85.938,-14.648
1688468608.367,-133.301,-62.012,-17.578,-91.797,-29.785
1688468608.371,-119.629,-59.082,-13.184,-90.820,-48.828
1688468608.374,-103.027,-49.805,-11.230,-81.543,107.422
1688468608.378,-91.797,-51.270,-17.578,-67.871,375.488
1688468608.382,-89.844,-61.523,-25.391,-70.801,-3.418
1688468608.386,-83.496,-60.547,-22.949,-74.219,-247.070
1688468608.390,-68.848,-51.270,-20.996,-62.500,-102.051
1688468608.391,-58.594,-44.434,-27.344,-59.570,-100.098
1688468608.395,-62.988,-43.945,-34.668,-68.848,-166.504
1688468608.399,-54.688,-43.945,-24.902,-59.570,-159.668
1688468608.403,-50.781,-42.480,-16.113,-48.828,-7.812
1688468608.407,-62.988,-39.062,-21.484,-50.293,-43.457
1688468608.411,-60.059,-36.133,-23.438,-47.852,-48.340
1688468608.415,-48.828,-29.297,-24.902,-41.992,53.223
1688468608.418,-48.828,-23.926,-23.438,-39.062,247.559
1688468608.422,-48.828,-30.273,-20.996,-38.086,309.570
1688468608.426,-32.227,-30.762,-24.902,-30.273,-82.520
1688468608.430,-33.691,-27.344,-30.762,-25.879,-151.855
1688468608.434,-38.574,-33.691,-33.203,-26.367,-8.789
1688468608.436,-33.203,-30.273,-21.973,-21.484,-187.500
1688468608.440,-30.762,-24.902,-28.320,-21.973,-239.258
1688468608.444,-24.414,-28.320,-28.320,-23.926,-117.676
1688468608.448,-14.648,-30.762,-13.672,-22.461,-84.473
1688468608.452,-18.555,-35.156,-15.625,-18.066,-108.398
1688468608.456,-26.855,-39.551,-16.113,-16.113,-157.227
1688468608.460,-28.809,-45.410,-19.531,-23.438,167.480
1688468608.463,-24.902,-44.434,-33.203,-38.574,490.723
1688468608.467,-27.832,-36.621,-37.109,-38.086,24.414
1688468608.471,-38.574,-38.086,-35.156,-39.062,-227.051
1688468608.475,-36.133,-42.969,-42.480,-42.969,-72.266
1688468608.479,-39.062,-33.691,-41.992,-45.898,-128.418
1688468608.481,-27.344,-31.250,-38.574,-50.781,-216.797
1688468608.485,-22.949,-32.715,-32.227,-44.922,-181.152
1688468608.489,-35.645,-33.203,-35.156,-46.387,-99.609
1688468608.493,-36.621,-34.180,-39.551,-45.898,-117.188
1688468608.497,-37.598,-29.297,-30.273,-38.086,-162.598
1688468608.501,-34.180,-27.832,-26.855,-39.551,-33.691
1688468608.505,-35.645,-28.320,-29.297,-31.738,293.945
1688468608.508,-37.109,-29.785,-28.320,-20.020,115.234
1688468608.512,-32.715,-30.273,-25.391,-15.137,-67.871
1688468608.516,-32.227,-25.879,-23.438,-11.719,60.547
1688468608.520,-41.992,-32.715,-23.438,-8.301,286.621
1688468608.524,-50.293,-35.645,-32.227,-18.555,96.191
1688468608.526,-42.969,-30.273,-32.227,-27.832,-181.641
1688468608.530,-37.598,-27.832,-30.273,-31.738,-118.652
1688468608.534,-26.855,-28.320,-35.156,-35.156,-112.793
1688468608.538,-21.973,-33.203,-32.227,-38.574,-131.836
1688468608.542,-30.273,-31.738,-33.203,-34.180,-114.258
1688468608.546,-29.785,-32.715,-34.668,-28.809,79.102
1688468608.550,-28.320,-29.297,-25.879,-30.273,191.895
1688468608.553,-33.203,-40.527,-26.367,-28.320,-62.500
1688468608.557,-35.645,-51.758,-29.297,-22.949,-212.891
1688468608.561,-33.203,-38.086,-30.762,-29.297,11.230
1688468608.565,-34.180,-29.785,-37.598,-38.574,48.340
1688468608.569,-24.414,-30.273,-42.480,-44.922,-118.164
1688468608.586,-8.301,-23.926,-43.945,-35.645,-121.582
1688468608.590,-4.395,-20.020,-45.898,-23.926,19.531
1688468608.594,-5.371,-19.531,-42.969,-14.160,-38.574
1688468608.598,0.488,-15.137,-41.504,-3.418,-204.102
1688468608.602,-1.465,-20.508,-44.922,-9.766,-115.234
1688468608.606,0.488,-28.320,-51.758,-19.043,48.340
1688468608.610,-9.766,-30.762,-48.828,-12.695,-25.391
1688468608.613,-17.578,-31.738,-40.039,-7.324,-124.512
1688468608.617,-3.418,-40.527,-41.504,-0.977,-39.551
1688468608.621,6.836,-35.645,-33.203,0.000,279.297
1688468608.625,-0.977,-25.391,-35.645,-7.812,125.488
1688468608.629,-1.465,-25.391,-38.086,-1.465,-264.160
1688468608.631,-5.859,-34.668,-35.645,-2.930,-211.426
1688468608.635,-9.277,-33.203,-29.297,-1.465,-122.559
1688468608.639,-0.488,-26.367,-24.414,4.395,-135.254
1688468608.643,-7.812,-23.926,-35.156,-5.371,-165.527
1688468608.647,-10.742,-25.879,-32.715,-20.996,-20.508
1688468608.651,-3.906,-35.645,-35.645,-27.832,135.742
1688468608.655,-10.742,-30.273,-45.410,-25.879,60.059
1688468608.658,-10.254,-27.344,-39.551,-17.578,-72.754
1688468608.662,1.465,-28.809,-37.598,-6.348,56.152
1688468608.666,-2.930,-21.484,-38.086,-16.602,177.734
1688468608.670,-3.418,-20.996,-28.320,-25.879,-106.445
1688468608.674,-6.836,-25.391,-23.926,-25.391,-145.020
1688468608.677,-4.883,-20.996,-20.020,-19.043,-41.504
1688468608.681,-0.977,-20.508,-16.113,-13.184,-91.309
1688468608.685,-7.812,-26.855,-21.484,-19.043,-146.973
1688468608.689,-5.371,-21.484,-22.461,-14.648,-110.840
1688468608.693,-4.883,-21.484,-29.297,-12.207,78.613
1688468608.697,5.371,-25.391,-34.668,-16.602,53.711
1688468608.701,3.906,-21.973,-34.180,-14.648,-34.180
1688468608.704,0.488,-13.672,-29.297,-6.348,-12.695
1688468608.708,-9.766,-8.301,-25.879,-5.859,390.625
1688468608.712,2.930,-16.113,-29.297,-6.836,434.570
1688468608.716,11.230,-25.879,-30.762,-9.766,-53.223
1688468608.720,-10.742,-29.785,-36.621,-11.719,-159.668
1688468608.722,-9.766,-30.273,-38.086,-12.695,-142.090
1688468608.726,-14.648,-27.832,-37.598,-24.414,-185.547
1688468608.730,-22.949,-29.785,-38.086,-34.180,-147.949
1688468608.734,-23.438,-34.180,-38.574,-37.109,-98.145
1688468608.738,-22.949,-25.879,-32.227,-25.391,-98.145
1688468608.742,-12.695,-20.996,-21.484,-11.719,-51.270
1688468608.746,-16.602,-22.461,-23.438,-20.020,-8.301
1688468608.749,-15.137,-15.625,-27.344,-22.949,152.344
1688468608.753,-11.230,-20.508,-28.809,-17.090,371.094
1688468608.757,-20.508,-27.344,-33.203,-20.020,-25.391
1688468608.761,-22.461,-24.414,-27.832,-21.484,-273.438
1688468608.765,-27.344,-20.996,-23.926,-24.902,-155.273
1688468608.766,-31.738,-15.137,-25.391,-27.832,-139.648
1688468608.770,-20.996,-16.113,-21.973,-25.879,-134.766
1688468608.774,-21.973,-25.879,-25.391,-21.973,-99.121
1688468608.778,-21.484,-25.391,-24.414,-20.996,-3.418
1688468608.782,-15.137,-17.090,-26.367,-26.367,-93.750
1688468608.786,-22.461,-10.742,-27.344,-28.809,-53.711
1688468608.790,-24.414,-17.578,-27.832,-20.996,33.691
1688468608.793,-30.273,-30.762,-34.180,-29.785,260.742
1688468608.797,-42.969,-29.297,-39.062,-42.969,224.609
1688468608.801,-45.898,-13.184,-36.621,-39.551,-98.145
1688468608.805,-33.203,-10.742,-34.180,-34.668,-90.820
1688468608.809,-30.762,-27.832,-33.691,-36.133,195.312
1688468608.811,-36.621,-27.344,-31.250,-31.250,42.480
1688468608.815,-34.668,-20.508,-35.156,-39.551,-176.270
1688468608.819,-37.109,-31.250,-35.156,-43.457,-102.051
1688468608.823,-40.527,-33.691,-34.180,-30.762,-104.004
1688468608.827,-35.156,-24.902,-34.668,-37.598,-170.898
1688468608.831,-31.250,-18.555,-26.367,-40.527,-88.379
1688468608.835,-31.250,-20.996,-23.926,-36.133,206.055
1688468608.838,-27.832,-21.484,-33.691,-29.297,238.770
1688468608.842,-21.484,-17.578,-32.227,-26.855,-116.211
1688468608.846,-17.578,-10.254,-22.949,-27.832,-154.785
1688468608.850,-29.297,-20.508,-22.461,-25.391,-85.449
1688468608.854,-33.691,-25.879,-25.391,-32.227,-130.859
1688468608.857,-27.832,-18.555,-22.461,-36.621,-147.461
1688468608.861,-29.785,-19.043,-21.484,-31.250,-126.953
1688468608.865,-26.367,-20.996,-28.320,-21.484,68.848
1688468608.869,-23.438,-20.996,-33.203,-28.320,-22.949
1688468608.873,-24.902,-17.578,-22.949,-32.715,-219.727
1688468608.877,-25.391,-12.695,-20.020,-20.020,-96.191
1688468608.881,-33.203,-24.414,-22.949,-12.207,249.512
1688468608.884,-26.367,-32.227,-18.555,-27.344,80.078
1688468608.888,-21.973,-25.391,-22.461,-34.668,-131.836
1688468608.892,-23.438,-22.949,-27.832,-21.973,-22.949
1688468608.896,-22.461,-28.320,-25.391,-20.020,179.688
1688468608.900,-36.133,-33.691,-29.297,-25.391,-3.418
1688468608.916,-30.273,-40.039,-26.855,-27.832,-200.195
1688468608.920,-13.184,-34.668,-23.926,-32.715,-109.863
1688468608.924,-13.184,-25.391,-29.297,-34.180,17.578
1688468608.928,-24.414,-21.484,-32.227,-30.762,-41.016
1688468608.932,-30.273,-30.762,-34.180,-33.691,-194.824
1688468608.936,-26.855,-31.250,-31.250,-34.180,55.176
1688468608.940,-38.574,-28.809,-26.367,-31.250,466.309
1688468608.943,-51.758,-41.504,-35.156,-41.992,45.898
1688468608.947,-35.645,-36.133,-39.062,-38.574,-236.816
1688468608.951,-27.832,-24.902,-34.668,-21.973,-85.449
1688468608.955,-29.785,-34.668,-36.621,-19.043,-135.742
1688468608.959,-30.762,-36.621,-35.156,-18.066,-214.844
1688468608.962,-29.785,-30.273,-25.879,-17.090,-162.598
1688468608.966,-29.297,-30.762,-27.832,-22.461,-52.246
1688468608.970,-28.809,-35.156,-36.133,-29.297,-51.270
1688468608.974,-29.785,-38.086,-33.691,-30.273,-145.996
1688468608.978,-30.762,-35.645,-31.738,-32.227,-41.504
1688468608.982,-34.668,-25.879,-35.645,-39.551,251.465
1688468608.986,-33.203,-13.184,-28.320,-28.320,127.930
1688468608.989,-34.668,-14.648,-24.902,-24.902,-117.188
1688468608.993,-27.344,-22.461,-35.645,-28.809,-13.184
1688468608.997,-22.461,-39.062,-36.133,-22.949,276.855
1688468609.001,-32.227,-40.527,-23.926,-17.090,116.211
1688468609.005,-38.574,-28.320,-16.113,-19.043,-201.172
1688468609.006,-41.504,-43.457,-21.973,-28.809,-119.141
1688468609.010,-56.641,-62.012,-22.461,-32.227,132.812
1688468609.014,-64.453,-53.223,-9.766,-26.367,-49.805
1688468609.018,-62.988,-49.316,-4.883,-34.668,-214.844
1688468609.022,-68.359,-55.664,-17.578,-44.922,-142.090
1688468609.026,-73.730,-50.781,-26.367,-48.340,-36.133
1688468609.030,-86.426,-55.176,-14.160,-63.965,-30.762
1688468609.033,-93.750,-62.012,-13.672,-55.176,-115.234
1688468609.037,-96.191,-56.152,-12.207,-43.457,73.730
1688468609.041,-100.586,-53.711,-5.859,-50.781,326.172
1688468609.045,-95.215,-55.176,-6.348,-51.270,-37.598
1688468609.049,-83.496,-53.223,-12.207,-47.363,-217.285
1688468609.051,-74.707,-47.363,-13.672,-42.969,-71.777
1688468609.055,-82.031,-68.359,-16.602,-40.527,-122.559
1688468609.059,-79.102,-66.895,-21.484,-41.016,-167.969
1688468609.063,-58.594,-41.016,-5.859,-28.809,-128.418
1688468609.067,-47.852,-36.133,-6.348,-34.180,-63.477
1688468609.071,-42.480,-36.621,-10.742,-41.016,2.441
1688468609.075,-49.805,-29.785,-13.672,-35.645,59.570
1688468609.078,-47.363,-36.133,-21.484,-36.133,-10.742
1688468609.082,-41.016,-38.574,-24.902,-39.551,306.641
1688468609.086,-48.340,-35.156,-25.391,-48.340,384.766
1688468609.090,-47.363,-39.062,-26.367,-55.664,-113.770
1688468609.094,-45.410,-28.320,-27.344,-46.387,-205.078
1688468609.096,-44.434,-33.691,-26.367,-35.156,-90.332
1688468609.100,-45.898,-54.688,-31.738,-36.621,-150.391
1688468609.104,-42.480,-46.387,-29.785,-39.551,-174.805
1688468609.108,-38.086,-27.832,-29.297,-28.320,-83.008
1688468609.112,-27.832,-29.785,-30.273,-25.391,-41.504
1688468609.116,-30.762,-35.156,-24.414,-35.645,-21.484
1688468609.120,-32.227,-32.715,-22.461,-28.320,-98.633
1688468609.123,-32.715,-20.020,-21.484,-19.043,-40.527
1688468609.127,-38.086,-23.926,-26.855,-20.020,202.148
1688468609.131,-35.645,-38.086,-32.715,-23.438,-92.285
1688468609.135,-18.066,-31.250,-38.086,-15.137,-186.523
1688468609.139,-15.625,-20.508,-34.180,-20.996,-81.543
1688468609.141,-25.879,-25.879,-23.438,-30.273,-68.848
1688468609.145,-31.250,-24.414,-30.273,-29.297,-132.812
1688468609.149,-32.715,-24.414,-28.320,-26.855,-89.355
1688468609.153,-28.809,-30.273,-22.949,-20.020,94.238
1688468609.157,-25.391,-29.297,-30.762,-29.785,-18.066
1688468609.161,-20.996,-26.367,-21.484,-39.062,-100.586
1688468609.165,-21.484,-29.785,-17.090,-37.598,-45.410
1688468609.168,-24.902,-32.227,-20.996,-29.785,314.941
1688468609.172,-29.297,-25.879,-28.809,-36.621,229.004
1688468609.176,-31.738,-31.250,-33.203,-44.922,-200.195
1688468609.180,-29.297,-29.785,-32.227,-41.016,-159.668
1688468609.184,-24.414,-22.461,-33.203,-34.668,-72.266
1688468609.187,-16.602,-21.484,-34.180,-30.762,-137.207
1688468609.191,-16.602,-26.855,-34.668,-26.855,-195.312
1688468609.195,-14.648,-31.250,-31.738,-21.484,-12.695
1688468609.199,-6.836,-26.855,-31.738,-21.973,206.543
1688468609.203,-8.301,-29.297,-35.156,-24.902,-31.738
1688468609.207,-20.508,-32.227,-36.621,-31.250,-135.742
1688468609.211,-23.926,-27.832,-39.551,-34.668,60.547
1688468609.214,-26.367,-29.297,-38.574,-35.156,215.332
1688468609.218,-29.297,-26.855,-36.621,-32.227,-50.293
1688468609.222,-26.855,-28.320,-37.598,-29.785,-157.227
1688468609.226,-22.461,-32.227,-34.668,-24.902,-87.891
1688468609.230,-18.066,-25.879,-24.902,-22.461,-115.234
1688468609.231,-24.902,-25.879,-28.320,-25.879,-186.523
1688468609.235,-24.414,-39.062,-37.109,-22.949,-183.105
1688468609.239,-19.531,-34.180,-27.344,-26.367,-99.609
1688468609.243,-20.996,-14.160,-28.809,-37.109,-117.188
1688468609.247,-17.578,-16.113,-37.109,-37.109,-121.094
1688468609.251,-11.230,-24.414,-36.621,-34.668,15.625
1688468609.255,-0.977,-22.461,-36.621,-35.156,411.133
1688468609.258,0.488,-24.414,-38.086,-40.039,251.465
1688468609.262,-9.766,-28.320,-38.574,-37.598,-169.434
1688468609.266,-12.695,-29.785,-38.574,-36.621,-48.340
1688468609.270,-11.719,-27.832,-37.598,-28.320,240.723
1688468609.274,-13.672,-25.391,-34.668,-25.879,16.602
1688468609.291,-14.648,-33.691,-31.738,-27.344,-207.031
1688468609.295,-15.625,-38.086,-35.645,-28.320,-151.367
1688468609.299,-5.371,-27.832,-36.621,-21.973,-114.258
1688468609.303,-8.301,-28.809,-34.668,-14.160,-136.230
1688468609.307,-14.160,-36.621,-39.551,-16.113,-153.809
1688468609.311,-11.230,-44.434,-38.574,-19.043,42.969
1688468609.315,-26.367,-46.875,-41.016,-21.973,68.359
1688468609.318,-23.926,-43.945,-44.922,-21.973,-17.090
1688468609.322,-17.578,-45.410,-48.340,-24.414,-64.453
1688468609.326,-12.695,-39.551,-41.992,-16.602,114.258
1688468609.330,-7.324,-37.109,-32.227,-12.695,241.699
1688468609.334,-7.324,-38.086,-41.504,-24.414,-116.699
1688468609.336,-6.836,-35.645,-43.457,-27.832,-198.242
1688468609.340,-3.906,-34.180,-39.551,-23.926,-62.012
1688468609.344,-10.742,-34.668,-39.062,-19.043,-138.672
1688468609.348,-18.555,-40.527,-36.133,-20.996,-193.359
1688468609.352,-20.996,-44.434,-38.086,-20.996,-123.535
1688468609.356,-18.555,-43.457,-44.434,-21.973,54.199
1688468609.360,-13.672,-31.250,-36.621,-32.715,85.449
1688468609.363,-23.438,-26.855,-26.855,-31.738,-29.785
1688468609.367,-25.879,-34.668,-34.668,-35.645,9.277
1688468609.371,-14.160,-32.227,-33.691,-33.203,341.797
1688468609.375,-17.578,-28.320,-25.391,-26.855,409.668
1688468609.379,-22.949,-30.273,-36.621,-33.691,-49.316
1688468609.396,-20.508,-27.832,-47.363,-42.480,-205.078
1688468609.400,-20.508,-24.414,-40.527,-40.527,-169.922
1688468609.404,-19.043,-29.297,-35.645,-32.715,-183.594
1688468609.408,-16.113,-22.461,-33.203,-27.344,-197.754
1688468609.412,-9.277,-16.113,-28.320,-18.555,-136.719
1688468609.416,-10.742,-24.902,-26.367,-24.414,-8.301
1688468609.420,-14.648,-38.086,-29.297,-37.109,-30.762
1688468609.423,-24.902,-26.367,-31.250,-33.203,-146.973
1688468609.427,-34.668,-13.672,-24.902,-25.879,7.324
1688468609.431,-34.668,-21.973,-23.926,-32.715,175.293
1688468609.435,-22.461,-25.879,-34.180,-36.133,-136.230
1688468609.439,-6.836,-15.625,-34.668,-22.461,-200.195
1688468609.426,-17.578,-20.020,-34.668,-14.648,19.043
1688468609.430,-21.973,-29.297,-27.832,-23.926,-85.938
1688468609.434,-13.672,-31.738,-24.902,-28.320,-197.754
1688468609.438,-14.160,-29.785,-31.250,-21.973,-127.930
1688468609.442,-19.531,-30.273,-29.297,-24.902,-25.879
1688468609.446,-15.625,-27.832,-30.273,-26.855,-20.996
1688468609.450,-20.020,-27.832,-26.855,-34.180,-90.820
1688468609.453,-47.852,-30.273,-26.855,-49.316,-44.434
1688468609.457,-69.336,-41.016,-32.227,-53.223,94.238
1688468609.461,-66.895,-48.828,-23.926,-53.223,-46.875
1688468609.465,-51.758,-43.945,-21.484,-52.734,-163.086
1688468609.469,-58.594,-46.387,-29.785,-58.594,-116.699
1688468609.472,-62.012,-46.875,-18.066,-52.734,311.523
1688468609.476,-71.777,-45.898,-14.648,-43.945,376.953
1688468609.480,-80.566,-42.480,-13.672,-59.570,-63.477
1688468609.484,-84.473,-50.781,-10.742,-69.824,-68.848
1688468609.488,-86.426,-54.199,-19.531,-78.613,-66.895
1688468609.492,-72.266,-45.410,-22.949,-86.426,-102.539
1688468609.496,-63.477,-40.039,-23.438,-78.125,-39.551
1688468609.499,-64.941,-40.039,-26.855,-65.430,42.969
1688468609.503,-70.801,-38.086,-18.066,-55.176,146.484
1688468609.507,-69.824,-35.645,-15.625,-49.805,-122.070
1688468609.511,-56.152,-37.598,-28.320,-53.223,-188.477
1688468609.515,-55.176,-37.598,-25.879,-53.223,-4.395
1688468609.516,-61.523,-45.410,-32.227,-61.523,-63.477
1688468609.520,-53.223,-41.992,-35.156,-60.059,-173.340
1688468609.524,-37.598,-23.438,-22.949,-42.480,-135.254
1688468609.528,-31.250,-25.391,-24.414,-43.457,-43.457
1688468609.532,-31.250,-36.133,-30.762,-48.340,-62.988
1688468609.536,-27.832,-27.832,-30.273,-43.457,-20.508
1688468609.540,-30.762,-22.949,-31.250,-44.434,87.402
1688468609.543,-31.250,-28.809,-31.738,-45.898,367.188
1688468609.547,-20.020,-24.414,-26.367,-42.480,300.293
1688468609.551,-24.414,-27.832,-22.949,-45.410,-88.867
1688468609.555,-38.574,-22.949,-29.297,-47.852,-85.938
1688468609.559,-39.551,-19.531,-41.992,-46.387,59.082
1688468609.561,-20.508,-23.926,-39.062,-39.062,-127.930
1688468609.565,-15.137,-26.855,-39.551,-34.180,-211.914
1688468609.569,-14.648,-32.227,-32.715,-27.344,-122.070
1688468609.573,-9.277,-20.020,-26.367,-19.531,-119.141
1688468609.577,-17.578,-13.184,-29.297,-17.090,-134.766
1688468609.581,-25.391,-20.020,-25.879,-18.066,-48.340
1688468609.585,-23.926,-28.809,-29.785,-27.832,164.551
1688468609.588,-25.879,-36.621,-40.039,-27.344,297.363
1688468609.592,-30.762,-26.855,-41.504,-34.668,-11.719
1688468609.596,-20.996,-25.879,-32.227,-34.180,-217.773
1688468609.600,-16.602,-34.180,-30.273,-24.902,-68.848
1688468609.604,-14.648,-25.391,-40.527,-27.832,-90.332
1688468609.606,-4.883,-13.184,-34.668,-26.367,-220.703
1688468609.610,-8.789,-17.578,-28.809,-21.484,-146.484
1688468609.614,-3.906,-20.020,-30.762,-28.320,-90.820
1688468609.618,-4.883,-17.578,-35.156,-31.250,-120.117
1688468609.622,-7.324,-17.090,-33.203,-27.344,-159.180
1688468609.626,3.906,-23.926,-29.785,-27.344,6.348
1688468609.630,-4.395,-23.926,-37.598,-24.414,321.777
1688468609.633,-6.836,-30.762,-41.504,-27.344,151.855
1688468609.637,-7.324,-44.922,-29.785,-36.133,-130.859
1688468609.641,-16.602,-38.086,-21.484,-25.879,-105.957
1688468609.645,-12.695,-27.344,-30.762,-13.184,211.426
1688468609.649,-4.883,-28.320,-32.227,-18.555,107.422
1688468609.652,-15.625,-27.832,-24.414,-23.438,-191.406
1688468609.656,-20.508,-29.297,-33.691,-27.832,-164.062
1688468609.660,-13.184,-26.855,-36.621,-28.320,-140.625
1688468609.664,-16.113,-22.461,-28.809,-15.625,-137.695
1688468609.668,-19.531,-21.973,-28.809,-19.531,-130.371
1688468609.672,-20.020,-20.020,-31.738,-29.785,-47.852
1688468609.676,-17.578,-24.902,-35.156,-27.832,-25.391
1688468609.679,-17.090,-28.320,-35.645,-23.438,-112.793
1688468609.683,-13.184,-27.832,-31.738,-20.996,-154.785
1688468609.687,-4.883,-29.297,-25.879,-23.926,45.410
1688468609.691,2.930,-22.461,-25.391,-17.090,123.047
1688468609.695,-3.418,-30.762,-35.156,-20.996,-151.367
1688468609.711,-25.879,-42.480,-47.852,-40.039,-133.789
1688468609.715,-37.598,-38.086,-48.828,-49.805,95.215
1688468609.719,-34.668,-32.715,-40.527,-44.922,-26.367
1688468609.723,-26.367,-42.969,-47.363,-42.969,-137.207
1688468609.727,-23.438,-46.875,-47.852,-41.504,-30.273
1688468609.731,-30.273,-32.227,-41.016,-44.922,196.289
1688468609.735,-42.969,-34.668,-46.875,-42.480,109.863
1688468609.738,-38.574,-43.457,-41.504,-36.133,-99.121
1688468609.742,-25.391,-41.992,-32.715,-31.250,-31.738
1688468609.746,-22.949,-51.270,-33.203,-29.297,247.559
1688468609.750,-25.879,-53.711,-33.691,-23.926,166.504
1688468609.754,-12.695,-40.039,-26.855,-16.113,-140.137
1688468609.756,-9.766,-26.367,-16.602,-22.949,-154.297
1688468609.760,-28.320,-26.855,-25.391,-42.969,-100.098
1688468609.764,-28.809,-26.367,-39.551,-49.316,-136.230
1688468609.768,-15.625,-5.859,-41.016,-51.758,-135.742
1688468609.772,-16.602,2.930,-47.363,-60.059,-15.137
1688468609.776,-16.113,2.441,-46.387,-58.594,96.191
1688468609.780,-16.602,9.277,-42.969,-60.547,-42.480
1688468609.783,-27.344,12.207,-38.574,-61.035,-204.590
1688468609.787,-27.344,0.000,-44.434,-64.941,-14.648
1688468609.791,-25.391,-3.418,-47.363,-62.988,145.508
1688468609.795,-37.109,-9.766,-50.293,-60.059,-138.184
1688468609.799,-28.320,0.488,-43.945,-57.129,-191.895
1688468609.801,-11.719,8.789,-33.203,-42.969,-46.875
1688468609.805,-4.883,-2.441,-36.621,-43.457,-113.281
1688468609.809,-11.719,-11.719,-36.133,-46.875,-183.105
1688468609.813,-9.766,-19.531,-36.621,-48.340,-142.578
1688468609.817,-0.977,-16.113,-39.551,-53.711,-57.129
1688468609.821,0.488,-9.766,-40.039,-56.152,-75.684
1688468609.825,2.441,-14.160,-40.039,-52.734,-69.824
1688468609.828,-27.344,-18.066,-40.527,-49.805,11.230
1688468609.832,-31.250,-19.043,-40.039,-47.852,367.188
1688468609.836,-31.250,-22.949,-40.527,-51.270,517.090
1688468609.840,-44.434,-21.973,-41.016,-66.406,3.418
1688468609.844,-55.176,-19.531,-33.203,-57.617,-154.785
1688468609.846,-65.918,-20.996,-33.203,-47.363,-96.680
1688468609.850,-61.523,-20.996,-37.109,-49.805,-207.031
1688468609.854,-51.758,-20.508,-33.691,-40.527,-176.270
1688468609.858,-33.691,-13.672,-26.855,-31.738,-125.977
1688468609.862,-33.203,-12.207,-28.809,-38.086,-148.926
1688468609.866,-40.039,-19.531,-31.738,-49.316,-86.426
1688468609.870,-34.180,-21.484,-31.738,-51.270,-78.613
1688468609.873,-35.645,-26.855,-31.738,-43.945,30.762
1688468609.877,-34.180,-37.109,-31.738,-25.391,293.945
1688468609.881,-15.625,-27.832,-34.180,-27.832,-3.418
1688468609.885,-13.672,-22.461,-40.527,-50.293,-178.223
1688468609.889,-12.695,-23.926,-37.109,-46.875,25.391
1688468609.891,-7.324,-14.160,-29.785,-21.484,28.809
1688468609.895,10.254,-2.930,-33.691,-9.766,-112.305
1688468609.899,27.832,-1.953,-40.527,-12.695,-147.461
1688468609.903,38.086,-1.953,-39.062,-6.836,-75.195
1688468609.907,27.344,-10.254,-41.504,-10.742,-62.988
1688468609.911,35.645,-9.277,-47.363,-8.789,-100.586
1688468609.915,48.828,4.395,-44.922,-8.789,-19.043
1688468609.918,48.340,12.207,-39.551,-4.395,353.516
1688468609.922,66.895,15.137,-47.363,1.465,295.898
1688468609.926,54.199,14.160,-50.781,-5.371,-184.570
1688468609.930,33.203,7.812,-41.992,-1.953,-98.145
1688468609.934,32.227,8.789,-44.434,8.789,300.781
1688468609.936,34.180,10.254,-52.734,10.742,3.906
1688468609.940,41.016,-2.441,-51.270,11.230,-257.324
1688468609.944,41.504,4.883,-46.387,11.230,-156.738
1688468609.948,31.250,10.254,-50.293,7.324,-107.910
1688468609.952,28.809,0.977,-39.551,11.230,-122.070
1688468609.956,34.668,1.465,-37.109,15.625,-131.348
1688468609.960,35.156,-4.395,-43.945,9.277,36.621
1688468609.963,28.320,-15.137,-43.457,-3.418,189.941
1688468609.967,18.555,-23.438,-44.922,-8.301,-81.543
1688468609.971,8.789,-22.949,-35.645,-8.789,-202.148
1688468609.975,13.672,-22.461,-30.273,-11.230,-104.004
1688468609.979,10.254,-18.555,-38.086,-11.719,-157.715
1688468609.982,0.977,-20.996,-37.598,-16.113,-168.945
1688468609.986,-4.395,-29.297,-35.156,-15.137,-55.176
1688468609.990,1.465,-25.879,-33.691,-7.812,86.426
1688468609.994,-0.977,-14.648,-32.715,-6.836,-8.301
1688468609.998,-16.602,-12.695,-28.320,-10.742,-166.992
1688468610.002,-23.438,-21.973,-24.902,-7.324,-43.945
1688468610.006,-18.066,-28.809,-30.762,-3.906,282.715
1688468610.009,-12.207,-25.391,-22.461,-2.930,122.559
1688468610.013,-24.902,-24.902,-16.602,-8.789,-153.809
1688468610.017,-32.227,-35.156,-25.879,-7.812,-126.465
1688468610.021,-28.320,-36.133,-23.926,-1.465,133.789
1688468610.025,-20.996,-31.250,-18.066,-5.859,0.488
1688468610.026,-20.996,-26.855,-19.043,-5.859,-181.152
1688468610.030,-20.508,-21.973,-21.973,-6.836,-120.117
1688468610.034,-22.949,-20.996,-14.648,-4.883,-149.414
1688468610.038,-43.945,-28.320,-12.207,-9.277,-159.668
1688468610.042,-39.062,-31.738,-17.090,-14.648,-153.809
1688468610.046,-29.785,-29.785,-21.973,-21.973,85.938
1688468610.050,-38.574,-41.504,-26.855,-25.879,466.797
1688468610.053,-42.480,-40.039,-27.832,-18.066,51.758
1688468610.057,-35.156,-26.367,-26.855,-7.324,-256.348
1688468610.061,-43.457,-23.926,-25.879,-10.742,-35.645
1688468610.065,-41.992,-25.879,-23.926,-13.672,-64.941
1688468610.069,-35.645,-27.832,-18.066,-15.625,-155.273
1688468610.074,-46.875,-32.715,-18.555,-23.438,-117.676
1688468610.078,-41.992,-33.203,-14.160,-24.902,-92.285
1688468610.082,-40.039,-33.203,-14.648,-27.344,-115.723
1688468610.086,-51.270,-37.598,-19.531,-27.832,-145.996
1688468610.090,-52.246,-34.180,-22.949,-23.438,-105.957
1688468610.094,-45.410,-37.598,-27.832,-25.879,94.727
1688468610.098,-52.246,-36.621,-26.367,-32.715,57.617
1688468610.101,-54.199,-32.227,-21.973,-33.691,-76.172
1688468610.105,-60.059,-28.320,-21.973,-37.598,15.137
1688468610.109,-66.406,-28.809,-23.926,-39.551,349.609
1688468610.113,-55.664,-39.551,-25.879,-46.387,255.371
1688468610.117,-51.758,-33.203,-24.414,-50.781,-160.156
1688468610.131,-45.898,-32.227,-25.879,-46.875,-123.535
1688468610.135,-44.434,-41.504,-30.273,-36.621,-12.695
1688468610.139,-48.828,-34.668,-31.250,-32.227,-106.934
1688468610.143,-44.922,-24.902,-27.832,-30.273,-204.590
1688468610.147,-38.574,-30.273,-24.414,-33.203,-14.160
1688468610.151,-42.969,-40.039,-28.320,-35.645,260.742
1688468610.155,-37.109,-48.340,-27.344,-28.809,82.031
1688468610.158,-39.062,-44.434,-26.855,-34.668,-161.133
1688468610.162,-38.574,-35.156,-29.785,-30.273,10.742
1688468610.166,-31.738,-27.344,-23.438,-22.461,293.945
1688468610.170,-42.969,-26.367,-25.879,-30.762,-96.191
1688468610.174,-39.551,-36.133,-33.203,-36.133,-199.707
1688468610.191,-30.273,-42.969,-31.738,-29.297,-12.695
1688468610.195,-27.832,-41.016,-27.344,-23.438,-110.352
1688468610.199,-24.902,-35.645,-26.367,-25.391,-164.551
1688468610.203,-25.879,-34.668,-27.832,-27.344,-125.488
1688468610.207,-32.227,-39.062,-26.367,-34.668,-97.656
1688468610.211,-73.242,-41.992,-28.809,-39.062,-45.410
1688468610.215,-90.820,-43.457,-30.762,-38.086,-37.598
1688468610.218,-82.520,-53.711,-30.762,-34.180,-39.062
1688468610.222,-79.102,-52.246,-37.598,-28.320,389.648
1688468610.226,-68.359,-44.922,-46.387,-40.039,374.512
1688468610.230,-60.547,-33.691,-44.922,-45.410,-125.977
1688468610.234,-50.293,-20.508,-32.227,-39.551,-91.309
1688468610.221,-41.992,-23.438,-30.273,-38.086,-6.836
1688468610.225,-45.898,-26.855,-39.551,-46.387,-172.852
1688468610.229,-49.316,-25.391,-39.062,-46.875,-218.262
1688468610.233,-54.688,-32.227,-38.086,-42.969,-147.949
1688468610.237,-50.293,-35.645,-38.086,-42.969,-97.656
1688468610.241,-37.109,-36.133,-31.250,-36.133,-96.680
1688468610.245,-53.711,-36.133,-29.785,-32.227,-98.633
1688468610.248,-66.406,-22.949,-30.762,-23.438,4.395
1688468610.252,-37.598,-16.602,-27.832,-20.508,-20.996
1688468610.256,-35.645,-26.855,-31.738,-33.691,-68.848
1688468610.260,-50.781,-32.715,-30.762,-32.227,-93.262
1688468610.264,-53.223,-30.762,-28.809,-29.297,85.938
1688468610.267,-51.270,-29.297,-28.320,-30.273,158.691
1688468610.271,-60.547,-32.227,-29.785,-29.785,-57.129
1688468610.275,-58.594,-24.414,-29.297,-26.367,-42.480
1688468610.279,-50.293,-22.949,-27.344,-21.973,57.617
1688468610.283,-53.711,-30.762,-29.297,-31.738,-21.973
1688468610.287,-48.828,-26.367,-23.438,-35.645,-67.383
1688468610.291,-43.457,-23.438,-20.020,-33.203,36.133
1688468610.294,-46.875,-25.879,-25.879,-37.598,262.207
1688468610.298,-58.594,-24.902,-27.832,-43.945,140.625
1688468610.302,-55.176,-21.973,-29.785,-47.363,-213.379
1688468610.306,-41.504,-19.531,-32.227,-41.992,-151.855
1688468610.310,-38.574,-28.320,-31.738,-38.574,57.617
1688468610.311,-44.434,-30.273,-32.715,-43.457,-114.746
1688468610.315,-54.199,-25.391,-35.156,-47.363,-194.336
1688468610.319,-42.480,-30.762,-34.668,-40.039,-103.516
1688468610.323,-40.039,-32.715,-35.645,-37.109,-158.203
1688468610.327,-49.316,-36.621,-34.180,-39.551,-120.605
1688468610.331,-40.039,-31.738,-28.320,-26.367,-29.785
1688468610.335,-39.551,-32.227,-25.879,-16.602,96.680
1688468610.338,-40.527,-29.785,-24.414,-10.742,382.812
1688468610.342,-42.969,-23.438,-25.391,-7.324,39.062
1688468610.346,-47.852,-27.344,-29.297,-15.137,-229.980
1688468610.350,-41.016,-33.203,-27.344,-21.484,-86.426
1688468610.354,-33.691,-38.574,-24.902,-19.043,-114.258
1688468610.356,-42.480,-36.621,-28.809,-19.531,-178.711
1688468610.360,-55.176,-36.621,-33.203,-24.414,-162.109
1688468610.364,-53.711,-38.574,-29.785,-30.762,-53.223
1688468610.368,-39.062,-33.691,-26.855,-33.691,-62.012
1688468610.372,-44.922,-32.227,-32.227,-41.016,-164.062
1688468610.376,-48.828,-26.855,-31.738,-40.039,11.719
1688468610.380,-47.852,-29.785,-30.762,-39.062,338.867
1688468610.383,-67.871,-37.598,-34.668,-48.828,187.012
1688468610.387,-66.895,-38.086,-30.273,-47.852,-50.781
1688468610.391,-46.875,-39.062,-27.344,-36.133,-95.703
1688468610.395,-52.246,-25.391,-30.762,-30.762,133.789
1688468610.399,-60.059,-25.879,-37.109,-37.598,21.973
1688468610.401,-56.152,-37.109,-46.875,-43.945,-222.656
1688468610.405,-49.316,-33.203,-42.480,-39.551,-129.395
1688468610.409,-53.223,-36.621,-39.551,-41.016,-115.723
1688468610.413,-54.199,-34.668,-39.062,-46.875,-177.246
1688468610.417,-48.828,-26.855,-32.715,-40.039,-245.117
1688468610.421,-46.387,-34.668,-31.738,-31.250,-70.312
1688468610.425,-46.875,-38.574,-35.645,-34.180,133.789
1688468610.428,-46.875,-27.344,-33.691,-43.945,-20.996
1688468610.432,-47.852,-22.461,-31.738,-48.340,-147.461
1688468610.436,-58.594,-20.508,-36.133,-51.270,145.508
1688468610.440,-64.941,-22.949,-38.086,-60.059,284.180
1688468610.444,-63.477,-36.133,-41.504,-60.547,-80.078
1688468610.461,-49.316,-36.133,-46.875,-55.176,-128.418
1688468610.465,-45.898,-33.691,-39.551,-56.152,-8.301
1688468610.469,-57.617,-36.621,-37.109,-54.199,-105.469
1688468610.473,-62.988,-34.180,-37.109,-54.199,-98.633
1688468610.477,-55.664,-30.273,-35.645,-57.129,-29.297
1688468610.481,-47.852,-30.762,-40.039,-62.500,60.547
1688468610.485,-57.617,-28.809,-39.551,-58.594,-13.184
1688468610.488,-59.570,-27.344,-36.133,-56.641,-166.016
1688468610.492,-55.664,-20.996,-35.156,-47.363,-111.328
1688468610.496,-53.223,-20.508,-41.992,-46.387,275.391
1688468610.500,-57.617,-24.414,-37.598,-50.781,227.051
1688468610.504,-33.691,-20.020,-29.297,-41.504,-149.414
1688468610.506,-26.367,-28.320,-38.086,-43.457,-141.602
1688468610.510,-53.223,-32.715,-35.156,-42.480,-90.332
1688468610.514,-42.480,-33.203,-32.227,-36.133,-195.312
1688468610.518,-38.086,-37.109,-39.062,-35.156,-227.539
1688468610.522,-40.039,-31.250,-36.621,-30.273,-158.691
1688468610.526,-34.180,-34.180,-33.691,-28.809,-17.090
1688468610.530,-36.133,-34.180,-30.762,-40.039,29.297
1688468610.533,-39.062,-31.250,-33.203,-42.480,-149.902
1688468610.537,-41.504,-29.297,-29.785,-36.133,-13.184
1688468610.541,-39.551,-23.926,-25.391,-37.598,184.570
1688468610.545,-52.734,-32.227,-35.156,-49.316,-107.910
1688468610.549,-51.758,-35.645,-36.621,-49.805,-164.551
1688468610.553,-35.645,-18.555,-26.855,-32.715,-46.387
1688468610.557,-37.109,-11.230,-27.832,-23.926,-48.828
1688468610.561,-21.973,-18.066,-28.320,-21.973,-62.012
1688468610.565,-24.414,-27.832,-23.438,-23.438,-32.227
1688468610.569,-32.227,-21.973,-28.809,-15.625,80.566
1688468610.573,-41.504,-22.949,-34.180,-32.715,55.664
1688468610.577,-55.176,-33.691,-28.320,-52.734,7.324
1688468610.580,-53.223,-34.668,-27.832,-41.992,0.488
1688468610.584,-66.406,-34.668,-23.926,-25.879,292.480
1688468610.588,-59.082,-41.016,-18.066,-18.555,304.199
1688468610.592,-52.246,-35.645,-13.672,-31.738,-137.207
1688468610.596,-52.246,-32.715,-13.672,-32.227,-147.461
1688468610.596,-51.270,-39.551,-13.672,-20.020,-45.410
1688468610.600,-57.617,-40.527,-19.043,-32.715,-158.691
1688468610.604,-55.664,-40.039,-21.484,-41.504,-216.309
1688468610.608,-42.969,-37.109,-15.137,-20.996,-109.375
1688468610.612,-47.363,-34.180,-20.508,-15.137,-64.453
1688468610.616,-45.898,-31.250,-24.902,-23.926,-36.621
1688468610.620,-50.293,-38.086,-23.438,-24.414,27.344
1688468610.623,-50.293,-38.574,-18.066,-30.273,72.266
1688468610.627,-43.945,-30.762,-17.578,-28.320,319.336
1688468610.631,-43.457,-31.250,-17.578,-3.906,34.180
1688468610.635,-40.527,-39.551,-20.508,-12.695,-237.793
1688468610.639,-45.410,-36.621,-21.484,-43.945,-120.605
1688468610.641,-45.898,-30.273,-21.973,-37.598,-195.801
1688468610.645,-53.223,-28.320,-20.020,-20.508,-247.559
1688468610.649,-57.129,-29.297,-22.949,-22.461,-111.816
1688468610.653,-36.133,-29.785,-22.949,-25.391,-0.488
1688468610.657,-30.762,-35.156,-20.508,-25.391,-76.172
1688468610.661,-37.598,-38.574,-19.531,-31.250,-96.680
1688468610.665,-36.133,-26.855,-16.113,-26.367,19.043
1688468610.668,-29.297,-21.973,-18.555,-15.625,404.785
1688468610.672,-22.461,-25.879,-26.367,-22.949,350.098
1688468610.676,-12.695,-41.016,-31.250,-26.367,-113.770
1688468610.680,-14.160,-40.039,-31.250,-23.438,-130.859
1688468610.684,-15.625,-24.902,-29.297,-28.320,78.125
1688468610.686,-12.695,-25.391,-28.320,-37.598,-13.184
1688468610.690,-29.785,-28.320,-31.738,-30.762,-92.285
1688468610.694,-37.598,-21.484,-32.227,-26.855,-104.980
1688468610.698,-35.645,-24.902,-32.715,-31.250,-131.836
1688468610.702,-27.344,-29.297,-33.203,-21.973,-129.395
1688468610.706,-31.738,-29.785,-29.785,-16.602,-142.578
1688468610.710,-43.945,-27.832,-26.855,-16.113,74.219
1688468610.713,-34.180,-29.297,-23.926,-14.160,249.023
1688468610.717,-26.367,-25.879,-26.367,-17.578,-121.582
1688468610.721,-32.715,-26.855,-25.391,-26.855,-229.004
1688468610.725,-35.156,-38.086,-26.367,-35.156,14.648
1688468610.729,-28.320,-37.598,-30.762,-31.250,-63.965
1688468610.731,-31.738,-26.855,-36.621,-29.297,-219.727
1688468610.735,-34.668,-18.555,-30.273,-24.902,-162.109
1688468610.739,-27.832,-18.066,-19.043,-20.020,49.316
1688468610.743,-36.621,-17.578,-23.438,-24.902,-9.766
1688468610.747,-35.156,-19.043,-20.508,-31.250,-169.434
1688468610.751,-25.879,-25.391,-21.973,-32.715,21.484
1688468610.755,-24.902,-26.855,-30.273,-30.762,365.234
1688468610.758,-22.949,-27.832,-31.738,-32.227,137.207
1688468610.762,-20.996,-38.086,-31.738,-35.645,-160.645
1688468610.766,-23.926,-39.551,-30.273,-37.109,-38.086
1688468610.770,-31.738,-41.504,-30.762,-38.086,205.078
1688468610.774,-29.785,-47.852,-30.273,-39.062,29.785
1688468610.777,-38.574,-42.969,-27.344,-33.203,-121.582
1688468610.781,-49.316,-39.551,-28.809,-29.785,-86.426
1688468610.785,-48.340,-41.992,-32.715,-29.785,-60.059
1688468610.789,-44.434,-38.086,-31.250,-31.738,-98.633
1688468610.793,-48.828,-31.250,-25.391,-37.598,-192.871
1688468610.797,-52.734,-37.109,-22.461,-40.039,-56.152
1688468610.801,-48.828,-40.527,-21.973,-39.062,100.586
1688468610.804,-46.387,-38.086,-23.438,-34.180,-68.359
1688468610.808,-54.688,-39.551,-25.391,-30.762,-165.039
1688468610.812,-48.340,-37.109,-22.949,-22.949,6.348
1688468610.816,-41.992,-33.203,-24.414,-33.691,-14.160
1688468610.820,-48.828,-39.062,-32.227,-41.504,-201.660
1688468610.837,-43.945,-44.922,-37.598,-29.785,-137.695
1688468610.841,-35.645,-40.527,-34.668,-30.762,-28.809
1688468610.845,-35.156,-37.109,-36.621,-42.969,-29.297
1688468610.849,-46.875,-39.551,-39.062,-39.062,-92.773
1688468610.853,-48.828,-31.250,-36.133,-25.879,-90.820
1688468610.857,-37.598,-26.855,-31.738,-34.180,205.078
1688468610.861,-39.062,-33.691,-25.879,-36.621,110.352
1688468610.864,-32.227,-21.484,-20.508,-31.250,-124.023
1688468610.868,-22.949,-22.949,-20.996,-27.344,-13.184
1688468610.872,-24.414,-37.109,-21.973,-19.531,199.707
1688468610.876,-24.902,-33.691,-23.438,-24.902,43.457
1688468610.880,-28.320,-44.434,-27.344,-30.762,-226.074
1688468610.881,-28.809,-37.109,-22.461,-37.109,-195.312
1688468610.885,-25.391,-20.996,-19.043,-43.945,-174.316
1688468610.889,-41.992,-35.156,-29.785,-39.551,-173.828
1688468610.893,-42.969,-41.016,-38.086,-40.039,-142.090
1688468610.897,-44.434,-37.109,-35.645,-37.598,-49.805
1688468610.901,-40.039,-33.691,-35.645,-33.203,62.988
1688468610.905,-21.484,-27.832,-32.227,-32.227,46.875
1688468610.908,-17.090,-25.391,-22.461,-35.156,-25.879
1688468610.912,-19.043,-20.508,-20.508,-32.227,77.148
1688468610.916,-34.668,-19.531,-20.996,-26.367,339.355
1688468610.920,-36.133,-25.391,-24.902,-28.320,47.363
1688468610.924,-27.344,-26.855,-31.738,-38.086,-183.594
1688468610.926,-30.273,-16.113,-28.809,-41.016,-93.750
1688468610.930,-36.621,-14.160,-33.203,-46.875,-126.953
1688468610.934,-39.551,-24.902,-39.551,-47.852,-151.855
1688468610.938,-35.645,-31.738,-36.621,-37.109,-31.738
1688468610.942,-38.574,-40.039,-34.668,-41.016,28.320
1688468610.946,-43.945,-32.715,-37.598,-41.992,33.691
1688468610.950,-40.527,-22.461,-35.156,-36.621,9.277
1688468610.953,-39.551,-26.367,-30.273,-33.203,-22.461
1688468610.957,-35.156,-26.367,-27.832,-29.785,296.387
1688468610.961,-30.273,-20.996,-30.762,-34.668,109.375
1688468610.965,-35.156,-24.902,-39.062,-28.809,-239.746
1688468610.969,-46.875,-34.180,-42.969,-28.809,-153.320
1688468610.971,-45.898,-33.691,-33.691,-21.973,229.004
1688468610.975,-37.109,-25.391,-31.738,-27.344,182.129
1688468610.979,-45.898,-24.414,-36.133,-41.504,-168.457
1688468610.983,-52.246,-33.203,-35.645,-41.016,-203.125
1688468610.987,-49.316,-38.086,-36.133,-36.133,-170.898
1688468610.991,-36.621,-33.691,-27.344,-28.809,-102.539
1688468610.995,-39.551,-34.180,-23.926,-23.926,-117.676
1688468610.998,-34.180,-33.203,-35.645,-20.996,5.859
1688468611.002,-24.414,-32.715,-39.062,-8.789,189.941
1688468611.006,-27.344,-27.832,-32.227,-4.395,-62.988
1688468611.010,-17.578,-27.832,-25.391,-8.789,-149.414
1688468611.014,-34.668,-29.297,-21.484,-8.789,31.250
1688468611.031,-51.270,-33.203,-24.414,-10.742,-43.945
1688468611.035,-41.016,-43.457,-21.973,-12.695,-168.945
1688468611.039,-41.992,-38.574,-20.020,-7.324,-100.586
1688468611.043,-35.645,-27.344,-25.391,-7.812,-41.016
1688468611.047,-28.809,-28.809,-25.391,-10.254,-65.918
1688468611.051,-41.016,-32.715,-18.066,-19.531,-58.105
1688468611.055,-38.086,-27.832,-17.578,-23.926,-11.719
1688468611.058,-31.250,-31.738,-24.414,-17.090,257.812
1688468611.062,-35.156,-34.668,-25.391,-16.602,280.762
1688468611.066,-32.715,-33.203,-25.391,-15.625,-93.750
1688468611.070,-21.973,-30.273,-27.344,-16.602,-144.531
1688468611.074,-26.855,-31.738,-32.715,-16.602,-10.742
1688468611.062,-37.109,-29.297,-35.645,-20.020,-47.852
1688468611.066,-40.039,-25.879,-28.809,-26.367,-139.648
1688468611.070,-60.547,-34.668,-32.715,-32.715,-115.234
1688468611.074,-71.777,-39.551,-41.016,-37.598,-39.062
1688468611.078,-71.777,-40.039,-30.762,-31.738,-126.953
1688468611.082,-62.500,-37.109,-28.809,-36.133,-130.371
1688468611.086,-54.688,-32.715,-36.621,-42.480,100.098
1688468611.089,-53.223,-37.109,-36.133,-39.062,166.992
1688468611.093,-44.434,-38.574,-32.715,-39.062,-77.637
1688468611.097,-54.199,-34.180,-37.109,-47.363,-223.145
1688468611.101,-51.758,-32.227,-34.180,-50.781,-60.547
1688468611.105,-40.039,-39.062,-36.621,-50.781,75.684
1688468611.106,-55.664,-40.039,-37.109,-51.758,-157.715
1688468611.110,-57.129,-44.434,-34.668,-51.270,-198.242
1688468611.114,-36.133,-45.410,-32.227,-40.527,-68.848
1688468611.118,-40.039,-33.203,-32.227,-33.691,-49.316
1688468611.122,-45.410,-23.926,-36.621,-36.621,-188.965
1688468611.126,-25.391,-20.508,-34.180,-26.367,-150.879
1688468611.130,-24.902,-22.461,-32.227,-23.926,270.020
1688468611.133,-30.762,-28.809,-33.691,-21.973,337.891
1688468611.137,-24.902,-26.855,-27.832,-16.602,-126.953
1688468611.141,-30.762,-31.738,-26.367,-24.414,-193.848
1688468611.145,-31.250,-41.016,-33.203,-17.578,64.453
1688468611.149,-22.461,-31.250,-32.715,-10.254,-86.914
1688468611.151,-20.508,-23.926,-33.691,-19.043,-208.496
1688468611.155,-26.855,-29.785,-32.227,-20.020,-124.023
1688468611.159,-22.461,-30.273,-26.367,-7.812,-126.465
1688468611.163,-25.879,-27.832,-26.367,-13.184,-199.219
1688468611.167,-30.273,-25.391,-24.414,-16.602,-197.754
1688468611.171,-24.902,-26.367,-22.949,-15.137,38.574
1688468611.175,-19.531,-22.461,-25.391,-19.531,140.137
1688468611.178,-23.926,-19.531,-30.762,-16.113,2.441
1688468611.182,-35.645,-26.855,-34.668,-20.996,-83.008
1688468611.186,-34.180,-24.414,-24.414,-25.391,8.789
1688468611.190,-38.574,-27.832,-30.762,-24.414,-38.574
1688468611.194,-33.203,-33.691,-43.457,-27.344,-165.527
1688468611.211,-10.742,-18.066,-36.133,-28.809,-142.090
1688468611.215,-22.461,-15.625,-33.203,-21.973,117.676
1688468611.219,-27.832,-22.949,-32.715,-24.902,171.875
1688468611.223,-24.902,-32.227,-34.180,-29.785,-88.867
1688468611.227,-41.504,-43.945,-32.715,-29.785,-130.859
1688468611.231,-28.320,-27.344,-31.738,-20.020,26.855
1688468611.235,-8.789,-14.160,-34.668,-18.555,25.879
1688468611.238,-11.719,-11.719,-35.156,-29.297,-113.281
1688468611.242,-21.484,-12.695,-38.574,-39.551,-50.293
1688468611.246,-31.250,-18.066,-40.039,-45.898,282.715
1688468611.250,-34.668,-7.812,-43.945,-41.992,281.250
1688468611.254,-37.109,-2.441,-45.898,-40.527,-130.859
1688468611.256,-31.738,-3.906,-45.410,-57.617,-219.238
1688468611.260,-25.879,-11.230,-57.617,-68.848,-122.559
1688468611.264,-13.672,-18.066,-60.547,-59.082,-132.324
1688468611.268,-5.371,-12.207,-57.617,-48.828,-186.523
1688468611.272,-10.254,-0.977,-55.664,-56.152,-97.168
1688468611.276,-6.348,1.953,-54.199,-52.246,25.879
1688468611.280,1.953,-5.859,-52.734,-36.621,28.320
1688468611.283,-0.977,-8.789,-52.246,-36.133,-102.051
1688468611.287,2.930,-6.836,-53.223,-31.738,9.277
1688468611.291,-10.742,-17.578,-44.922,-24.414,189.941
1688468611.295,-24.902,-27.344,-50.781,-42.969,-44.434
1688468611.299,-18.555,-28.320,-50.293,-42.969,-123.047
1688468611.301,-12.207,-27.344,-44.434,-23.438,12.695
1688468611.305,-8.301,-20.996,-38.574,-25.391,-26.367
1688468611.309,-5.371,-21.484,-31.738,-29.785,-164.551
1688468611.313,-20.020,-20.996,-36.621,-37.109,-64.453
1688468611.317,-19.043,-20.020,-36.621,-41.016,-16.602
1688468611.321,-11.719,-30.762,-31.738,-30.273,-41.992
1688468611.325,-26.855,-28.320,-32.227,-37.598,-89.844
1688468611.328,-33.691,-17.090,-36.621,-46.875,-105.957
1688468611.332,-32.227,-16.113,-34.668,-30.762,213.379
1688468611.336,-25.879,-17.090,-34.180,-32.715,168.945
1688468611.340,-28.809,-21.973,-37.109,-42.969,-195.801
1688468611.344,-25.391,-23.926,-32.715,-28.809,-173.828
1688468611.346,-14.160,-24.414,-41.016,-28.809,84.473
1688468611.350,-24.414,-29.297,-39.551,-38.574,-27.344
1688468611.354,-31.738,-30.762,-29.785,-33.691,-186.035
1688468611.358,-18.555,-30.273,-25.879,-29.297,-148.438
1688468611.362,-34.180,-27.832,-26.367,-23.926,-58.105
1688468611.366,-21.484,-24.902,-29.297,-20.508,-5.859
1688468611.370,-9.766,-26.855,-32.715,-28.809,-23.926
1688468611.373,-26.367,-23.438,-25.391,-25.391,64.453
1688468611.377,-19.531,-19.043,-21.484,-11.719,243.652
1688468611.381,-0.488,-19.531,-27.344,-24.414,-22.949
1688468611.385,-10.254,-18.066,-23.438,-27.344,-173.340
1688468611.389,-20.996,-14.160,-23.438,-23.926,-97.168
1688468611.394,-11.230,-28.320,-25.391,-27.344,-119.141
1688468611.398,-25.879,-36.133,-26.855,-28.809,-162.598
1688468611.402,-33.691,-31.738,-23.438,-32.227,-129.395
1688468611.406,-39.551,-27.832,-20.020,-29.297,-5.859
1688468611.410,-44.434,-30.762,-26.367,-26.855,-98.633
1688468611.414,-48.340,-30.762,-31.738,-31.250,-80.566
1688468611.418,-51.270,-24.902,-31.250,-34.180,31.250
1688468611.421,-61.035,-31.250,-30.762,-36.621,320.312
1688468611.425,-55.176,-43.457,-25.879,-25.391,314.453
1688468611.429,-62.012,-44.922,-25.879,-29.785,-190.918
1688468611.433,-55.664,-37.598,-30.273,-41.504,-188.477
1688468611.437,-39.551,-34.180,-31.250,-33.691,11.230
1688468611.436,-42.969,-39.062,-32.227,-37.109,-125.977
1688468611.440,-29.785,-38.574,-26.367,-33.691,-200.684
1688468611.444,-35.156,-30.762,-27.832,-33.691,-121.582
1688468611.448,-47.363,-25.879,-30.762,-35.645,-107.422
1688468611.452,-38.086,-25.879,-35.156,-38.574,-88.379
1688468611.456,-33.691,-28.320,-35.645,-40.039,-49.805
1688468611.460,-30.273,-28.320,-29.297,-33.203,106.934
1688468611.463,-27.832,-33.203,-31.250,-37.598,365.234
1688468611.467,-34.668,-29.297,-35.645,-43.457,16.113
1688468611.471,-35.156,-21.973,-35.645,-47.363,-223.145
1688468611.475,-29.785,-19.043,-32.715,-38.574,-15.625
1688468611.479,-22.949,-16.602,-34.180,-36.133,-41.504
1688468611.481,-31.738,-22.949,-33.203,-34.180,-204.102
1688468611.485,-44.922,-24.414,-28.320,-31.738,-147.461
1688468611.489,-36.621,-28.809,-28.320,-32.715,-36.621
1688468611.493,-32.715,-32.227,-27.832,-29.297,-109.863
1688468611.497,-38.086,-27.344,-24.902,-35.156,-147.461
1688468611.501,-44.434,-31.250,-21.484,-41.016,-10.254
1688468611.505,-34.668,-32.227,-22.461,-29.297,320.801
1688468611.508,-33.691,-31.738,-25.879,-43.457,210.449
1688468611.512,-39.551,-38.086,-26.855,-48.340,-68.848
1688468611.516,-39.551,-29.297,-22.949,-37.598,27.832
1688468611.520,-40.527,-26.367,-28.320,-41.016,249.023
1688468611.524,-35.156,-32.715,-29.297,-38.086,54.199
1688468611.526,-47.363,-33.691,-23.438,-44.434,-206.055
1688468611.530,-62.500,-25.879,-24.902,-50.781,-158.203
1688468611.534,-53.223,-28.320,-22.461,-36.621,-140.625
1688468611.538,-40.039,-35.156,-20.508,-34.668,-195.312
1688468611.542,-39.062,-35.156,-24.902,-35.645,-202.148
1688468611.546,-45.410,-37.109,-26.855,-28.809,-54.688
1688468611.550,-43.457,-34.668,-23.438,-30.762,118.652
1688468611.553,-35.156,-31.250,-25.391,-34.180,-20.996
1688468611.557,-48.828,-39.062,-25.879,-34.180,-172.852
1688468611.561,-43.457,-49.316,-23.438,-36.621,-17.578
1688468611.565,-31.738,-40.527,-29.297,-47.363,84.473
1688468611.569,-43.457,-36.133,-32.227,-50.781,-62.012
1688468611.586,-54.199,-32.227,-33.691,-46.387,-173.340
1688468611.590,-50.781,-30.762,-29.785,-47.363,-7.812
1688468611.594,-41.016,-39.062,-26.855,-47.363,12.207
1688468611.598,-33.691,-38.086,-36.133,-56.152,-121.094
1688468611.602,-31.250,-30.273,-36.621,-46.875,-105.469
1688468611.606,-35.645,-29.785,-32.715,-33.203,48.828
1688468611.610,-32.227,-36.133,-33.691,-34.180,61.523
1688468611.613,-37.109,-38.086,-36.133,-24.902,-55.176
1688468611.617,-28.809,-37.598,-41.016,-24.414,-33.203
1688468611.621,-1.465,-33.691,-37.598,-27.344,270.996
1688468611.625,-20.508,-31.250,-36.621,-28.320,225.098
1688468611.629,-46.875,-35.645,-42.480,-44.434,-140.137
1688468611.631,-35.156,-39.062,-44.922,-44.434,-157.715
1688468611.635,-35.645,-39.551,-48.828,-41.504,5.859
1688468611.639,-38.574,-36.621,-40.527,-38.086,-42.969
1688468611.643,-37.598,-38.086,-28.320,-36.621,-179.688
1688468611.647,-47.852,-38.086,-27.832,-27.832,-125.000
1688468611.651,-43.457,-34.180,-36.133,-32.227,20.020
1688468611.655,-42.480,-40.039,-36.621,-42.969,21.484
1688468611.658,-38.574,-36.133,-28.809,-41.992,-64.453
1688468611.662,-33.691,-29.297,-29.297,-34.668,23.926
1688468611.666,-38.574,-32.227,-29.297,-22.949,147.461
1688468611.670,-34.668,-30.273,-30.762,-27.832,-125.977
1688468611.674,-42.969,-28.320,-34.180,-40.527,-202.637
1688468611.676,-44.922,-35.645,-39.062,-45.410,-87.891
1688468611.680,-39.551,-38.086,-38.086,-38.574,-125.977
1688468611.684,-49.805,-32.227,-33.203,-41.992,-206.543
1688468611.688,-39.551,-30.762,-31.250,-49.316,-108.398
1688468611.692,-37.109,-36.621,-33.691,-44.434,183.105
1688468611.696,-55.664,-40.527,-36.621,-41.992,111.328
1688468611.700,-50.293,-38.086,-39.062,-52.734,-105.957
1688468611.703,-50.781,-40.527,-34.180,-48.828,9.766
1688468611.707,-49.316,-42.969,-30.273,-41.992,325.684
1688468611.711,-39.551,-30.762,-33.203,-41.016,277.832
1688468611.715,-41.016,-33.691,-31.250,-36.133,-113.281
1688468611.719,-40.527,-41.992,-32.715,-32.715,-219.727
1688468611.721,-55.176,-39.551,-33.203,-32.227,-127.441
1688468611.725,-53.223,-35.645,-31.250,-40.527,-176.270
1688468611.729,-41.992,-28.809,-27.832,-39.062,-227.539
1688468611.733,-50.781,-26.367,-22.949,-27.344,-134.766
1688468611.737,-51.270,-31.738,-24.414,-40.039,-91.797
1688468611.741,-43.945,-34.180,-33.203,-47.852,10.254
1688468611.745,-43.945,-32.227,-31.738,-38.086,8.301
1688468611.748,-46.875,-32.227,-26.367,-31.738,106.934
1688468611.752,-55.664,-31.250,-28.809,-23.926,387.695
1688468611.756,-45.410,-33.691,-27.832,-36.133,43.457
1688468611.760,-42.969,-41.016,-39.062,-55.176,-184.570
1688468611.764,-53.711,-32.715,-39.551,-48.340,-79.102
1688468611.766,-49.316,-31.250,-34.180,-42.480,-144.531
1688468611.770,-37.598,-36.621,-34.668,-41.992,-145.996
1688468611.774,-25.879,-26.855,-25.391,-27.344,-88.867
1688468611.778,-24.902,-20.996,-19.531,-22.949,-46.875
1688468611.782,-27.832,-27.832,-25.391,-23.438,-96.680
1688468611.786,-27.832,-31.250,-35.645,-42.969,-47.363
1688468611.790,-32.715,-30.762,-32.227,-37.109,39.551
1688468611.793,-35.156,-32.715,-19.043,-16.602,262.207
1688468611.797,-36.133,-33.691,-21.484,-22.949,200.684
1688468611.801,-26.367,-36.621,-23.926,-15.137,-138.184
1688468611.805,-19.043,-32.227,-18.555,-19.531,-128.418
1688468611.809,-27.832,-27.832,-20.020,-15.625,102.051
1688468611.826,-23.926,-31.250,-25.391,-12.207,-23.438
1688468611.830,-26.367,-33.691,-24.414,-23.926,-223.633
1688468611.834,-43.457,-28.809,-25.391,-38.086,-200.684
1688468611.838,-36.621,-24.902,-33.203,-45.898,-149.414
1688468611.842,-42.969,-24.414,-35.156,-38.574,-58.105
1688468611.846,-43.945,-28.809,-37.109,-38.086,27.344
1688468611.850,-38.086,-28.320,-35.156,-40.527,256.836
1688468611.853,-37.598,-22.949,-28.320,-42.480,365.723
1688468611.857,-42.969,-22.949,-29.785,-41.504,-3.418
1688468611.861,-57.617,-28.809,-35.645,-44.434,-105.957
1688468611.865,-45.410,-35.156,-39.551,-46.387,-26.855
1688468611.869,-39.062,-32.715,-34.180,-42.969,-5.859
1688468611.856,-48.340,-34.180,-27.344,-41.504,-99.121
1688468611.860,-39.062,-32.227,-19.531,-36.621,-119.629
1688468611.864,-25.391,-28.320,-20.508,-36.621,118.164
1688468611.868,-47.363,-41.992,-27.832,-47.363,3.906
1688468611.872,-52.246,-41.504,-26.855,-50.293,-153.320
1688468611.876,-39.551,-34.180,-31.738,-33.691,-14.648
1688468611.880,-46.387,-41.016,-40.039,-24.414,176.758
1688468611.883,-43.457,-40.527,-28.320,-17.090,77.637
1688468611.887,-29.297,-39.551,-20.996,-12.695,-44.922
1688468611.891,-34.668,-44.922,-26.855,-17.090,-23.926
1688468611.895,-50.293,-47.363,-29.785,-20.020,160.645
1688468611.899,-44.922,-49.805,-32.715,-26.367,49.316
1688468611.902,-38.574,-49.805,-35.156,-24.414,-192.383
1688468611.906,-32.715,-45.898,-34.668,-16.113,-114.258
1688468611.910,-30.762,-35.645,-32.715,-16.113,261.230
1688468611.914,-39.551,-36.621,-29.297,-28.809,84.473
1688468611.918,-30.273,-38.086,-27.832,-34.668,-233.398
1688468611.922,-22.949,-41.016,-25.391,-32.227,-13.184
1688468611.926,-30.762,-47.363,-26.367,-34.668,152.832
1688468611.929,-30.273,-39.062,-26.855,-34.668,-82.031
1688468611.933,-32.227,-36.133,-27.832,-37.109,-219.238
1688468611.937,-38.086,-40.039,-26.367,-38.574,-58.105
1688468611.941,-49.805,-43.945,-32.715,-40.527,-10.254
1688468611.945,-53.711,-40.527,-38.086,-42.969,-139.648
1688468611.961,-44.434,-30.273,-36.133,-45.898,-120.117
1688468611.965,-37.598,-31.738,-32.227,-37.109,-41.504
1688468611.969,-39.062,-32.715,-32.715,-28.809,-81.055
1688468611.973,-38.086,-34.668,-30.762,-29.297,-126.465
1688468611.977,-38.574,-41.016,-30.273,-36.621,-38.086
1688468611.981,-34.180,-30.762,-31.250,-37.598,254.883
1688468611.985,-43.945,-29.297,-27.832,-35.645,173.340
1688468611.988,-54.199,-38.086,-19.531,-36.621,-172.852
1688468611.992,-38.086,-28.320,-18.555,-39.062,-70.801
1688468611.996,-31.738,-27.832,-25.391,-31.738,227.051
1688468612.000,-34.668,-24.902,-27.832,-26.367,125.000
1688468612.004,-24.414,-15.137,-22.949,-33.203,-149.414
1688468612.006,-16.602,-14.648,-24.414,-31.738,-145.508
1688468612.010,-27.832,-22.949,-31.738,-27.344,-154.297
1688468612.014,-25.879,-24.414,-26.367,-27.832,-194.336
1688468612.018,-27.344,-27.344,-23.926,-35.156,-204.590
1688468612.022,-37.598,-37.109,-27.344,-43.457,-88.379
1688468612.026,-43.457,-38.086,-33.691,-45.410,58.594
1688468612.030,-42.480,-35.156,-38.574,-38.574,-24.414
1688468612.033,-32.715,-35.645,-37.598,-45.410,-77.148
1688468612.037,-38.574,-31.738,-31.738,-36.621,45.898
1688468612.041,-36.133,-29.785,-27.344,-24.414,98.145
1688468612.045,-27.344,-29.297,-32.227,-26.855,-109.375
1688468612.049,-22.949,-23.438,-34.180,-19.531,-222.656
1688468612.051,-27.832,-22.949,-33.203,-20.996,1.953
1688468612.055,-44.434,-23.926,-31.250,-18.555,54.199
1688468612.059,-40.039,-23.926,-22.949,-25.879,-129.395
1688468612.063,-41.504,-25.879,-18.066,-25.879,-127.441
1688468612.067,-40.527,-27.832,-17.578,-20.020,-113.770
1688468612.071,-38.574,-24.414,-22.949,-33.203,-52.246
1688468612.075,-43.457,-25.391,-30.762,-29.297,-5.371
1688468612.078,-41.504,-35.645,-27.344,-26.367,-45.898
1688468612.082,-39.551,-33.203,-24.414,-39.551,279.785
1688468612.086,-40.039,-32.227,-32.715,-41.992,463.867
1688468612.090,-51.270,-39.062,-35.645,-44.434,-25.879
1688468612.094,-54.199,-41.504,-30.273,-47.852,-208.008
1688468612.096,-48.340,-35.645,-29.785,-43.457,-94.238
1688468612.100,-46.387,-29.297,-34.668,-45.898,-143.066
1688468612.104,-47.363,-29.785,-33.203,-42.480,-153.320
1688468612.108,-53.223,-33.203,-35.156,-45.898,-132.812
1688468612.112,-55.176,-36.621,-36.621,-47.363,-114.258
1688468612.116,-40.527,-32.715,-28.320,-31.738,-32.715
1688468612.120,-32.227,-29.785,-30.273,-37.109,-25.879
1688468612.123,-36.621,-30.762,-32.715,-43.945,81.543
1688468612.127,-38.574,-35.645,-34.668,-36.133,270.996
1688468612.131,-27.344,-32.227,-32.715,-32.227,-19.531
1688468612.135,-12.207,-20.508,-24.902,-21.484,-154.297
1688468612.139,-5.859,-22.949,-23.438,-8.789,62.988
1688468612.141,-2.441,-20.508,-29.785,0.977,17.090
1688468612.145,-6.836,-16.602,-34.180,-9.766,-164.062
1688468612.149,-30.273,-22.461,-36.133,-22.949,-97.656
1688468612.153,-36.133,-14.160,-36.133,-14.160,121.582
1688468612.157,-33.691,-17.578,-39.551,-20.996,28.809
1688468612.161,-37.598,-25.879,-32.227,-21.484,-150.391
1688468612.165,-39.062,-21.484,-28.809,-22.461,-46.875
1688468612.168,-37.109,-20.996,-32.715,-31.250,292.969
1688468612.172,-38.086,-24.414,-33.691,-38.086,315.918
1688468612.176,-39.551,-29.785,-38.574,-44.922,-105.957
1688468612.180,-37.598,-39.551,-38.086,-30.762,-153.809
1688468612.184,-31.250,-34.180,-40.039,-19.531,-60.547
1688468612.187,-23.926,-23.438,-40.039,-35.156,-206.543
1688468612.191,-35.156,-15.625,-34.668,-50.781,-196.777
1688468612.195,-33.203,-19.531,-42.969,-50.781,13.184
1688468612.199,-33.203,-26.367,-46.875,-50.781,13.184
1688468612.203,-43.457,-22.949,-43.457,-48.340,-130.859
1688468612.207,-52.734,-21.973,-41.992,-55.664,-126.465
1688468612.211,-56.152,-32.227,-43.457,-61.035,34.180
1688468612.214,-42.480,-38.086,-43.945,-44.434,239.746
1688468612.218,-35.645,-32.227,-39.551,-39.551,-64.941
1688468612.222,-37.598,-30.273,-38.574,-42.969,-209.961
1688468612.226,-37.109,-24.414,-39.062,-36.133,-41.504
1688468612.230,-34.668,-20.020,-30.273,-33.691,-36.621
1688468612.231,-44.922,-25.391,-28.320,-40.039,-98.145
1688468612.235,-35.645,-24.902,-29.785,-43.457,-89.355
1688468612.239,-24.902,-24.414,-32.227,-42.969,-54.688
1688468612.243,-38.086,-29.297,-35.645,-44.922,-75.195
1688468612.247,-44.434,-36.133,-34.180,-44.434,-84.961
1688468612.251,-48.340,-44.434,-27.832,-35.645,4.883
1688468612.255,-35.645,-43.945,-24.902,-32.715,389.160
1688468612.258,-37.109,-33.691,-26.367,-43.945,362.305
1688468612.262,-47.363,-37.598,-31.250,-42.480,-123.535
1688468612.266,-43.945,-39.551,-33.203,-38.574,-173.828
1688468612.270,-38.574,-32.715,-32.715,-29.297,48.340
1688468612.274,-40.527,-33.203,-31.250,-26.855,-63.965
1688468612.291,-42.969,-39.062,-29.785,-33.203,-202.148
1688468612.295,-35.156,-38.086,-31.738,-40.527,-153.320
1688468612.299,-33.203,-35.156,-30.273,-39.062,-116.699
1688468612.303,-33.203,-30.273,-32.715,-33.203,-144.531
1688468612.307,-28.320,-20.996,-37.109,-47.852,-169.434
1688468612.311,-46.387,-27.832,-41.992,-55.176,-12.207
1688468612.315,-58.105,-31.250,-44.922,-42.480,148.438
1688468612.318,-52.734,-32.227,-39.551,-34.180,18.555
1688468612.322,-40.527,-34.180,-34.668,-38.086,-143.555
1688468612.326,-34.180,-24.902,-34.180,-37.598,-8.789
1688468612.330,-35.645,-19.043,-35.645,-32.227,105.957
1688468612.334,-44.922,-28.809,-35.156,-33.691,-148.926
1688468612.336,-57.129,-41.016,-34.180,-39.551,-192.871
1688468612.340,-33.691,-42.969,-31.250,-34.668,-45.898
1688468612.344,-21.484,-28.320,-27.344,-30.762,-62.500
1688468612.348,-41.016,-15.625,-25.879,-32.227,-180.664
1688468612.352,-46.387,-14.648,-28.320,-42.969,-106.445
1688468612.356,-53.223,-19.043,-34.668,-52.734,143.555
1688468612.360,-45.410,-21.973,-31.738,-43.945,104.492
1688468612.363,-28.320,-21.484,-30.273,-47.363,-36.621
1688468612.367,-33.691,-24.414,-34.180,-53.223,-56.152
1688468612.371,-46.387,-34.180,-35.156,-46.387,242.676
1688468612.375,-52.734,-37.598,-35.156,-50.781,498.047
1688468612.379,-45.898,-36.621,-31.738,-58.594,63.965
1688468612.381,-37.109,-28.809,-26.855,-50.293,-231.445
1688468612.385,-42.480,-21.973,-29.785,-46.875,-177.246
1688468612.389,-41.992,-30.273,-31.738,-42.480,-190.918
1688468612.393,-45.410,-45.898,-28.809,-34.668,-230.469
1688468612.397,-46.875,-53.711,-30.762,-37.109,-134.277
1688468612.401,-41.504,-47.852,-32.715,-45.410,49.805
1688468612.405,-37.109,-37.109,-33.691,-33.203,57.129
1688468612.408,-48.828,-34.668,-38.574,-25.391,-111.328
1688468612.412,-52.734,-32.715,-43.457,-36.621,-0.977
1688468612.416,-42.969,-34.668,-46.875,-32.227,233.398
1688468612.420,-43.945,-35.156,-37.598,-26.855,-77.637
1688468612.424,-45.410,-36.621,-31.738,-36.133,-170.410
1688468612.426,-47.363,-36.133,-31.738,-49.805,115.234
1688468612.430,-54.688,-25.391,-36.621,-47.852,18.066
1688468612.434,-62.988,-30.762,-39.062,-43.457,-154.297
1688468612.438,-43.457,-24.902,-35.156,-43.945,-102.051
1688468612.442,-34.180,-20.020,-36.621,-41.992,-75.684
1688468612.446,-39.062,-24.414,-38.086,-47.363,-49.805
1688468612.450,-46.387,-20.020,-44.434,-54.688,25.879
1688468612.453,-50.781,-23.926,-45.898,-44.922,-15.625
1688468612.457,-47.363,-25.879,-40.039,-30.273,299.805
1688468612.461,-38.086,-28.809,-32.715,-36.133,360.352
1688468612.465,-30.762,-36.133,-33.691,-41.992,-92.285
1688468612.469,-34.180,-45.410,-43.457,-34.668,-215.820
1688468612.472,-30.273,-43.945,-39.551,-30.273,-179.688
1688468612.476,-32.227,-37.109,-33.691,-46.387,-178.223
1688468612.480,-32.715,-43.945,-36.133,-50.781,-145.508
1688468612.484,-36.133,-46.387,-36.133,-42.480,-110.352
1688468612.488,-23.926,-41.504,-37.598,-41.504,-77.637
1688468612.492,-23.926,-33.203,-38.574,-34.180,-2.441
1688468612.496,-23.926,-38.574,-35.156,-23.438,-32.227
1688468612.499,-21.973,-39.062,-33.691,-20.508,-12.695
1688468612.503,-33.691,-33.203,-31.250,-22.949,155.273
1688468612.507,-42.480,-42.480,-30.273,-30.762,-100.586
1688468612.511,-40.527,-43.945,-34.668,-30.273,-218.262
1688468612.515,-38.086,-40.039,-37.109,-34.668,-41.992
1688468612.516,-45.898,-40.039,-35.645,-40.527,-70.801
1688468612.520,-47.363,-41.992,-40.527,-36.133,-179.688
1688468612.524,-46.387,-39.551,-33.691,-47.363,-192.383
1688468612.528,-43.945,-45.898,-25.879,-43.457,-131.836
1688468612.532,-52.246,-52.246,-36.621,-30.273,-104.492
1688468612.536,-47.852,-38.086,-36.621,-27.344,-62.988
1688468612.540,-32.715,-27.344,-28.809,-31.738,-41.992
1688468612.543,-27.344,-25.391,-29.297,-35.156,251.953
1688468612.547,-32.227,-24.414,-30.273,-37.598,499.512
1688468612.551,-25.879,-20.508,-28.809,-30.762,94.238
1688468612.555,-32.715,-22.461,-25.391,-25.391,-143.066
1688468612.559,-33.203,-22.461,-25.879,-32.227,-127.441
1688468612.562,-40.527,-27.344,-30.762,-29.785,-184.082
1688468612.566,-38.574,-36.133,-30.762,-27.832,-196.777
1688468612.570,-14.648,-29.297,-26.367,-19.043,-180.664
1688468612.574,-18.555,-28.320,-27.344,-13.672,-83.008
1688468612.578,-30.273,-36.621,-33.203,-21.973,-64.941
1688468612.582,-19.531,-28.809,-33.203,-25.879,-108.398
1688468612.586,-23.438,-29.785,-39.062,-24.414,83.984
1688468612.589,-23.438,-38.086,-40.039,-24.902,389.160
1688468612.593,-21.973,-38.574,-35.645,-27.832,77.637
1688468612.597,-43.457,-36.133,-32.715,-33.203,-115.723
1688468612.601,-45.410,-32.227,-35.156,-35.156,-20.508
1688468612.605,-29.297,-23.926,-33.691,-27.344,-89.355
1688468612.606,-33.203,-19.531,-29.297,-29.785,-150.391
1688468612.610,-36.621,-26.855,-33.203,-43.457,-104.492
1688468612.614,-27.344,-24.414,-34.668,-38.574,-25.391
1688468612.618,-25.879,-21.484,-33.691,-24.414,-93.262
1688468612.622,-32.715,-22.461,-37.109,-32.227,-189.941
1688468612.626,-32.715,-27.832,-31.250,-31.250,-41.016
1688468612.630,-35.156,-35.156,-31.250,-19.043,344.238
1688468612.633,-37.598,-28.320,-29.785,-20.508,172.363
1688468612.637,-33.691,-19.043,-26.855,-23.926,-136.230
1688468612.641,-22.461,-9.277,-27.344,-24.902,-86.914
1688468612.645,-25.391,-14.160,-24.414,-32.715,249.512
1688468612.649,-34.180,-33.203,-27.832,-28.320,171.387
1688468612.651,-36.133,-37.109,-36.133,-32.715,-170.410
1688468612.655,-39.551,-38.086,-35.645,-37.598,-144.531
1688468612.659,-28.809,-40.527,-33.203,-36.133,-109.375
1688468612.663,-23.438,-40.039,-41.504,-37.598,-142.578
1688468612.667,-25.879,-34.668,-41.992,-30.273,-159.668
1688468612.671,-41.016,-33.203,-39.062,-34.668,31.250
1688468612.675,-38.086,-39.062,-44.434,-31.250,136.230
1688468612.678,-32.715,-38.086,-47.852,-19.043,-87.402
1688468612.682,-45.410,-36.133,-43.457,-31.738,-247.070
1688468612.686,-49.316,-34.180,-43.457,-30.273,-26.855
1688468612.690,-44.922,-31.250,-45.410,-27.832,126.953
1688468612.694,-38.086,-35.645,-44.434,-32.715,-134.277
1688468612.711,-29.297,-38.574,-44.434,-21.484,-108.887
1688468612.715,-29.785,-31.250,-46.875,-21.484,77.148
1688468612.719,-30.273,-29.785,-47.852,-19.043,-3.906
1688468612.723,-29.785,-29.297,-41.504,-21.484,-127.441
1688468612.727,-32.227,-24.902,-31.250,-19.043,-87.402
1688468612.731,-39.062,-29.297,-31.250,-13.672,76.172
1688468612.735,-31.250,-32.227,-24.414,-13.184,20.508
1688468612.738,-25.879,-36.621,-20.020,-12.695,-119.141
1688468612.742,-27.344,-43.945,-21.973,-13.184,-43.457
1688468612.746,-29.785,-37.109,-18.066,-12.695,192.871
1688468612.750,-31.250,-37.109,-21.484,-19.531,143.555
1688468612.754,-31.738,-40.527,-24.414,-22.949,-165.527
1688468612.757,-36.133,-37.598,-24.414,-23.926,-210.449
1688468612.761,-42.480,-32.715,-30.273,-24.414,-166.016
1688468612.765,-30.273,-32.715,-27.344,-13.672,-135.254
1688468612.769,-23.438,-37.109,-19.043,-19.043,-70.801
1688468612.773,-28.320,-27.832,-19.043,-23.926,-28.809
1688468612.777,-23.438,-22.949,-23.926,-23.926,85.449
1688468612.781,-19.531,-26.367,-30.762,-17.090,44.922
1688468612.784,-15.137,-26.367,-33.691,-13.672,-148.926
1688468612.788,-22.949,-31.250,-31.250,-17.090,-49.805
1688468612.792,-39.551,-40.039,-33.203,-19.043,188.965
1688468612.796,-43.945,-47.852,-33.203,-27.832,-74.219
1688468612.800,-26.855,-51.270,-31.738,-39.062,-161.133
1688468612.802,-31.738,-39.062,-35.156,-38.574,-50.781
1688468612.806,-36.621,-33.203,-34.180,-27.344,-112.305
1688468612.810,-19.043,-36.133,-28.320,-34.668,-163.574
1688468612.814,-27.832,-35.156,-35.645,-38.574,-124.023
1688468612.818,-35.156,-33.203,-42.480,-32.227,-83.496
1688468612.822,-21.484,-37.109,-34.180,-38.086,-23.926
1688468612.826,-26.367,-41.504,-30.762,-38.086,53.223
1688468612.829,-36.621,-39.062,-32.715,-33.691,83.984
1688468612.833,-28.320,-24.902,-34.180,-35.156,408.203
1688468612.837,-30.273,-22.949,-34.180,-30.762,475.098
1688468612.841,-24.414,-23.926,-32.227,-28.809,0.000
1688468612.845,-16.113,-22.461,-31.250,-21.973,-203.125
1688468612.846,-19.043,-25.391,-24.414,-17.578,-197.266
1688468612.850,-21.973,-26.855,-24.414,-18.066,-237.305
1688468612.854,-18.555,-25.879,-26.367,-17.578,-189.453
1688468612.858,-18.066,-22.949,-28.809,-18.555,-95.703
1688468612.862,-26.367,-22.949,-36.621,-24.414,-92.773
1688468612.866,-21.973,-30.762,-38.086,-32.227,-57.129
1688468612.870,-20.508,-27.344,-35.156,-40.039,-110.840
1688468612.873,-28.320,-21.973,-38.086,-40.527,-11.230
1688468612.877,-30.273,-27.832,-42.480,-29.297,357.910
1688468612.881,-31.738,-30.273,-40.039,-28.320,61.035
1688468612.885,-32.227,-28.809,-37.109,-32.715,-251.465
1688468612.889,-29.297,-20.996,-30.762,-21.973,-106.445
1688468612.906,-22.461,-19.531,-26.367,-17.578,-116.211
1688468612.910,-29.785,-30.762,-25.391,-19.531,-173.340
1688468612.914,-32.715,-22.949,-19.531,-23.926,-141.113
1688468612.918,-30.273,-21.973,-26.367,-33.203,-60.059
1688468612.922,-34.180,-28.320,-35.645,-31.738,-81.543
1688468612.926,-40.039,-31.738,-34.668,-29.297,-50.293
1688468612.930,-36.621,-27.344,-25.391,-24.902,49.316
1688468612.933,-30.762,-21.973,-25.879,-22.949,391.113
1688468612.937,-33.691,-14.648,-32.227,-26.367,363.281
1688468612.941,-34.180,-12.695,-34.180,-37.598,-140.625
1688468612.945,-26.367,-24.414,-38.086,-43.945,-60.059
1688468612.949,-30.762,-31.738,-32.227,-37.109,251.465
1688468612.967,-31.738,-32.227,-26.855,-41.016,-5.859
1688468612.971,-32.227,-37.109,-31.250,-51.270,-222.168
1688468612.975,-44.922,-34.668,-34.180,-49.316,-145.996
1688468612.979,-35.645,-35.156,-31.738,-51.270,-128.906
1688468612.983,-23.926,-46.875,-28.320,-42.480,-152.832
1688468612.987,-21.484,-34.180,-33.203,-37.109,-136.719
1688468612.991,-30.762,-26.367,-30.273,-40.527,73.730
1688468612.994,-40.039,-33.691,-26.367,-35.156,28.809
1688468612.998,-41.016,-32.227,-31.738,-35.156,-145.020
1688468613.002,-40.527,-32.715,-28.320,-28.809,-144.043
1688468613.006,-50.781,-37.598,-34.180,-22.949,11.230
1688468613.010,-60.547,-32.715,-39.062,-18.066,138.672
1688468612.982,-39.551,-34.180,-28.809,-11.230,-92.285
1688468612.986,-36.133,-39.062,-27.344,-20.996,-58.105
1688468612.990,-35.156,-29.297,-27.832,-20.996,157.227
1688468612.994,-26.855,-29.297,-29.297,-22.949,91.797
1688468612.998,-29.785,-31.738,-33.203,-25.391,-120.605
1688468613.002,-31.250,-29.785,-39.551,-19.043,-50.781
1688468613.006,-34.668,-25.391,-34.668,-9.766,49.805
1688468613.009,-26.367,-24.902,-28.320,-10.254,-77.148
1688468613.013,-7.324,-16.602,-28.320,-12.695,-106.445
1688468613.017,-12.695,-12.207,-20.020,-16.113,-92.285
1688468613.021,-41.992,-26.367,-18.066,-24.414,-84.473
1688468613.025,-31.250,-27.344,-22.949,-20.508,-119.629
1688468613.041,-11.719,-23.438,-27.344,-22.949,-138.184
1688468613.045,-22.461,-31.738,-25.879,-21.484,-108.398
1688468613.049,-37.598,-34.180,-37.109,-6.836,255.371
1688468613.053,-32.227,-20.020,-36.133,-12.695,261.230
1688468613.057,-21.973,-18.066,-24.414,-28.809,-174.805
1688468613.061,-30.762,-23.438,-31.250,-33.203,-74.219
1688468613.065,-60.547,-29.297,-27.344,-56.152,344.238
1688468613.068,-86.426,-32.227,-22.461,-80.078,41.992
1688468613.072,-91.309,-41.016,-24.414,-84.473,-295.410
1688468613.076,-93.262,-46.387,-28.320,-90.820,-117.188
1688468613.080,-102.539,-50.781,-22.461,-86.426,-52.734
1688468613.084,-108.398,-41.016,-20.508,-91.797,-179.199
1688468613.086,-120.117,-41.992,-33.203,-112.793,-174.805
1688468613.090,-130.859,-57.129,-32.227,-110.840,-92.773
1688468613.094,-121.582,-58.594,-27.344,-111.816,-109.863
1688468613.098,-118.652,-61.035,-25.879,-114.746,-118.652
1688468613.102,-122.559,-56.641,-27.832,-111.816,-61.523
1688468613.106,-134.766,-54.688,-31.250,-124.023,39.062
1688468613.110,-128.906,-47.852,-25.879,-115.723,-19.043
1688468613.113,-105.469,-39.062,-27.344,-94.238,-62.988
1688468613.117,-87.402,-40.039,-33.691,-83.984,57.617
1688468613.121,-86.426,-32.715,-35.156,-73.730,349.609
1688468613.125,-82.031,-27.832,-28.320,-59.082,427.734
1688468613.129,-72.754,-33.691,-25.391,-60.547,-38.086
1688468613.147,-64.941,-40.527,-30.273,-49.316,-204.590
1688468613.151,-49.316,-42.969,-36.621,-30.762,-83.008
1688468613.155,-42.969,-48.340,-30.273,-42.969,-188.965
1688468613.159,-46.387,-36.621,-26.367,-47.852,-244.141
1688468613.163,-40.527,-31.738,-22.461,-34.668,-191.895
1688468613.167,-42.480,-46.387,-26.855,-41.504,-92.285
1688468613.171,-35.156,-29.297,-32.227,-41.504,8.789
1688468613.174,-17.090,-18.555,-29.297,-37.598,-124.023
1688468613.178,-15.625,-20.996,-30.273,-25.391,24.902
1688468613.182,-25.879,-21.484,-30.762,-30.273,349.121
1688468613.186,-33.691,-25.879,-33.691,-46.387,-3.418
1688468613.190,-29.785,-30.762,-30.762,-33.691,-180.176
1688468613.176,-18.066,-33.203,-31.738,-22.949,-22.461
1688468613.180,-20.996,-28.320,-37.109,-32.227,-98.145
1688468613.184,-20.020,-26.367,-33.691,-36.133,-176.758
1688468613.188,-20.020,-42.480,-32.227,-34.668,-147.461
1688468613.192,-27.344,-35.645,-31.738,-21.484,-55.664
1688468613.196,-11.719,-15.625,-20.508,-17.090,104.980
1688468613.200,-5.371,-16.602,-9.277,-22.949,52.246
1688468613.203,-14.648,-34.180,-21.973,-15.137,-43.457
1688468613.207,-18.066,-35.645,-31.738,-4.883,119.629
1688468613.211,0.977,-17.090,-24.414,-17.090,51.758
1688468613.215,-4.883,-19.531,-22.949,-38.574,-67.871
1688468613.219,-31.250,-21.484,-22.949,-28.809,-81.543
1688468613.221,-29.297,-32.227,-23.926,-15.625,239.258
1688468613.225,-32.227,-49.805,-40.527,-25.391,373.047
1688468613.229,-40.527,-40.039,-42.480,-44.434,-58.105
1688468613.233,-42.969,-31.250,-24.414,-40.039,-175.781
1688468613.237,-27.344,-34.668,-24.902,-29.297,-143.555
1688468613.241,-30.762,-30.762,-34.668,-31.250,-105.957
1688468613.245,-33.203,-31.250,-39.551,-37.109,-124.023
1688468613.248,-40.039,-29.785,-32.715,-39.551,-40.527
1688468613.252,-48.828,-35.156,-33.691,-33.203,158.691
1688468613.256,-38.086,-41.016,-40.527,-38.086,-74.707
1688468613.260,-36.133,-37.109,-39.551,-44.434,-186.035
1688468613.264,-49.805,-47.852,-39.062,-45.410,-161.621
1688468613.267,-47.363,-48.828,-42.969,-34.180,-211.426
1688468613.271,-39.551,-42.480,-42.480,-39.551,-195.312
1688468613.275,-49.805,-53.223,-41.992,-53.223,-140.625
1688468613.279,-40.527,-45.898,-43.945,-43.457,12.207
1688468613.283,-24.902,-40.527,-42.969,-38.574,-48.828
1688468613.287,-40.039,-45.410,-32.715,-37.598,-126.953
1688468613.291,-38.086,-42.480,-23.926,-24.902,-30.762
1688468613.294,-30.273,-41.016,-26.855,-16.113,260.254
1688468613.298,-34.668,-39.551,-30.273,-23.438,253.418
1688468613.302,-23.926,-34.668,-24.414,-19.043,-151.367
1688468613.306,-15.137,-35.645,-26.367,-10.742,-146.973
1688468613.310,-28.809,-40.039,-29.297,-22.461,11.719
1688468613.311,-52.246,-37.598,-38.574,-37.598,-115.234
1688468613.315,-57.129,-26.855,-40.527,-51.758,-189.941
1688468613.319,-53.223,-17.090,-32.715,-46.387,-196.777
1688468613.323,-70.312,-20.020,-30.273,-54.688,-135.254
1688468613.327,-69.824,-25.879,-31.250,-68.848,-41.504
1688468613.331,-68.359,-24.414,-34.180,-67.383,-54.688
1688468613.335,-78.613,-16.602,-36.133,-68.848,59.082
1688468613.338,-75.684,-14.648,-30.762,-78.125,238.770
1688468613.342,-50.781,-14.648,-33.691,-76.660,-25.391
1688468613.346,-41.992,-11.230,-31.250,-59.570,-198.242
1688468613.350,-46.875,-16.602,-24.414,-47.852,-28.809
1688468613.354,-42.969,-18.066,-24.902,-36.621,12.695
1688468613.356,-47.363,-17.578,-21.484,-28.320,-162.109
1688468613.360,-37.598,-20.508,-26.855,-35.156,-186.035
1688468613.364,-33.203,-23.926,-31.250,-42.480,-83.496
1688468613.368,-38.086,-22.949,-31.738,-35.156,-53.223
1688468613.372,-27.832,-27.832,-35.645,-36.621,-100.586
1688468613.376,-32.715,-33.691,-40.039,-40.039,-7.812
1688468613.380,-42.969,-33.203,-42.480,-41.016,327.148
1688468613.383,-30.273,-31.250,-34.668,-43.457,254.395
1688468613.387,-27.344,-26.855,-35.645,-47.363,-16.602
1688468613.391,-35.645,-21.484,-43.945,-43.945,-39.062
1688468613.395,-42.969,-21.484,-39.062,-41.016,143.066
1688468613.399,-39.062,-28.320,-36.621,-40.527,16.602
1688468613.401,-38.086,-30.762,-41.992,-44.434,-254.395
1688468613.405,-33.691,-25.391,-42.480,-46.387,-121.582
1688468613.409,-30.762,-28.809,-40.039,-32.715,97.656
1688468613.413,-32.227,-30.273,-46.387,-31.250,-10.742
1688468613.417,-33.203,-32.227,-41.016,-35.156,-144.531
1688468613.421,-43.457,-30.762,-31.738,-38.086,55.176
1688468613.425,-35.645,-28.809,-37.109,-32.227,155.273
1688468613.428,-14.648,-25.879,-39.062,-22.949,-105.957
1688468613.432,-9.766,-29.785,-41.016,-15.625,-132.812
1688468613.436,-22.949,-43.457,-39.551,-20.020,43.945
1688468613.440,-29.785,-34.180,-38.574,-22.461,-29.297
1688468613.444,-13.184,-33.203,-41.504,-20.020,-150.879
1688468613.461,-12.207,-48.340,-44.922,-26.855,-142.578
1688468613.465,-21.973,-45.898,-41.016,-23.438,66.895
1688468613.469,-27.344,-37.109,-36.621,-21.484,109.863
1688468613.473,-26.855,-33.691,-35.645,-29.297,-163.574
1688468613.477,-20.020,-30.762,-42.480,-23.438,-144.531
1688468613.481,-13.672,-32.227,-41.016,-20.020,142.578
1688468613.485,-12.207,-27.344,-28.809,-7.324,62.500
1688468613.488,-17.578,-30.762,-27.832,-4.883,-83.496
1688468613.492,-11.230,-33.691,-31.738,-15.137,-6.348
1688468613.496,-12.695,-35.645,-32.715,-13.672,247.559
1688468613.500,-23.438,-40.039,-32.715,-13.184,190.918
1688468613.504,-5.859,-33.691,-33.203,-8.301,-107.422
1688468613.506,-16.602,-36.621,-27.344,-7.812,-99.121
1688468613.510,-34.668,-35.645,-22.949,-17.578,-67.871
1688468613.514,-25.391,-24.414,-20.996,-19.043,-101.074
1688468613.518,-17.090,-21.973,-20.020,-15.625,-145.996
1688468613.522,-18.555,-20.996,-20.508,-25.391,-100.098
1688468613.526,-20.996,-21.973,-20.996,-21.973,32.715
1688468613.530,-31.738,-27.832,-18.066,-15.137,-21.973
1688468613.533,-34.180,-25.879,-25.879,-28.320,-170.898
1688468613.537,-20.996,-15.625,-25.391,-26.367,-42.480
1688468613.541,-25.391,-16.113,-29.785,-25.879,180.176
1688468613.545,-5.371,-10.742,-31.250,-33.203,-125.488
1688468613.549,16.602,-0.977,-27.832,-25.879,-268.066
1688468613.552,-5.371,-16.113,-39.062,-19.531,-125.977
1688468613.556,-23.926,-25.391,-41.016,-26.855,-67.871
1688468613.560,-19.043,-14.160,-38.086,-39.062,-83.496
1688468613.564,-7.812,-15.137,-39.062,-40.527,-109.375
1688468613.568,-5.371,-24.414,-34.668,-28.320,44.434
1688468613.572,-18.066,-23.438,-35.156,-23.438,35.156
1688468613.576,-14.160,-10.742,-36.621,-31.250,-71.289
1688468613.579,-7.812,-5.859,-29.785,-34.180,-44.922
1688468613.583,-7.324,-13.184,-34.668,-28.320,244.141
1688468613.587,-10.742,-19.043,-36.621,-21.973,357.910
1688468613.591,-14.160,-23.438,-34.668,-22.949,-74.707
1688468613.595,-15.625,-28.809,-42.480,-20.996,-203.125
1688468613.596,-23.438,-32.227,-52.246,-21.973,-101.562
1688468613.600,-25.391,-29.297,-47.852,-25.879,-178.711
1688468613.604,-32.227,-27.832,-41.992,-31.738,-215.820
1688468613.608,-37.598,-26.855,-42.969,-34.180,-131.348
1688468613.612,-28.320,-33.203,-36.621,-34.180,-50.293
1688468613.616,-24.414,-40.527,-35.156,-31.738,33.203
1688468613.620,-19.531,-37.598,-33.203,-27.344,-44.922
1688468613.623,-5.371,-25.879,-22.461,-21.484,-62.500
1688468613.627,-17.578,-19.531,-18.555,-14.160,241.211
1688468613.631,-21.484,-23.926,-18.555,-11.230,60.547
1688468613.635,-3.418,-25.879,-23.926,-10.742,-145.996
1688468613.639,-9.766,-22.461,-34.668,-2.930,-83.496
1688468613.641,-23.926,-27.344,-33.203,-9.766,-108.887
1688468613.645,-26.855,-31.738,-31.250,-18.555,-168.945
1688468613.649,-20.020,-31.250,-30.762,-20.508,-142.090
1688468613.653,-9.766,-32.227,-22.461,-20.996,-20.020
1688468613.657,-6.348,-33.203,-21.973,-8.789,-56.641
1688468613.661,-7.324,-28.809,-19.531,-6.836,-44.434
1688468613.665,-17.090,-28.320,-18.555,-12.695,2.930
1688468613.668,-20.996,-33.203,-26.855,-19.043,314.941
1688468613.672,-23.926,-38.086,-30.762,-13.672,429.688
1688468613.676,-16.602,-31.250,-23.926,-11.719,-24.414
1688468613.680,-10.742,-24.414,-28.320,-20.996,-145.996
1688468613.684,-15.625,-24.902,-33.203,-20.996,149.414
1688468613.686,-21.484,-25.879,-32.715,-21.973,45.898
1688468613.690,-29.785,-32.715,-40.527,-33.691,-176.270
1688468613.694,-27.832,-38.574,-36.133,-33.203,-113.281
1688468613.698,-35.645,-32.715,-32.715,-26.855,-80.078
1688468613.702,-38.574,-30.273,-31.738,-17.578,-109.375
1688468613.706,-27.832,-35.645,-24.902,-18.066,-87.402
1688468613.710,-28.320,-30.762,-27.344,-31.250,68.359
1688468613.713,-27.344,-25.391,-29.297,-22.461,228.516
1688468613.717,-28.320,-20.508,-31.250,-23.438,-84.961
1688468613.721,-28.320,-23.926,-32.715,-35.645,-178.711
1688468613.725,-30.762,-22.461,-33.691,-29.297,-25.879
1688468613.729,-31.250,-18.066,-35.645,-35.645,-92.285
1688468613.731,-30.762,-26.855,-34.668,-34.668,-188.477
1688468613.735,-28.320,-24.414,-33.203,-29.785,-198.730
1688468613.739,-25.391,-15.625,-31.250,-28.809,-126.465
1688468613.743,-31.738,-20.508,-31.738,-27.832,-123.535
1688468613.747,-30.762,-24.414,-27.344,-22.461,-172.363
1688468613.751,-18.066,-29.297,-29.785,-36.133,-11.719
1688468613.755,-15.625,-30.762,-24.414,-27.344,309.570
1688468613.758,-7.324,-18.555,-19.043,-15.625,148.438
1688468613.762,8.789,-11.719,-15.625,-14.160,-95.215
1688468613.766,10.254,-6.836,-22.949,-18.066,-10.254
1688468613.770,1.465,-2.930,-25.879,-17.090,172.852
1688468613.774,5.371,-10.254,-20.020,-0.488,33.203
1688468613.777,19.531,-9.277,-24.902,7.324,-203.613
1688468613.781,10.254,-4.883,-28.809,4.883,-146.973
1688468613.785,2.441,-12.695,-20.996,6.836,30.762
1688468613.789,-4.395,-13.672,-13.184,18.066,-14.648
1688468613.793,-12.207,-12.695,-18.555,15.137,-129.883
1688468613.797,-16.602,-16.113,-27.344,4.395,18.555
1688468613.801,-9.766,-15.625,-21.973,4.883,101.074
1688468613.804,9.766,-16.602,-17.578,4.395,-135.742
1688468613.808,0.977,-25.391,-26.855,-3.418,-245.605
1688468613.812,-17.578,-26.367,-27.344,-9.766,-74.219
1688468613.816,-17.578,-19.043,-24.414,-11.719,54.688
1688468613.820,-9.766,-20.020,-24.414,-20.020,-156.250
1688468613.851,-16.113,-25.391,-34.180,-24.414,-183.105
1688468613.855,-27.344,-28.320,-40.527,-27.832,7.812
1688468613.859,-15.625,-36.621,-28.320,-38.574,9.766
1688468613.863,0.000,-32.227,-25.391,-33.203,-129.395
1688468613.867,-11.230,-22.949,-30.273,-36.133,-148.438
1688468613.871,-12.695,-27.832,-29.785,-34.180,182.617
1688468613.875,2.441,-24.414,-20.996,-10.254,160.645
1688468613.878,3.906,-20.996,-17.578,-11.230,-91.797
1688468613.882,4.395,-24.902,-19.043,-7.812,12.695
1688468613.886,-0.977,-23.926,-22.949,-5.371,219.727
1688468613.890,-11.230,-23.926,-20.996,-19.531,115.234
1688468613.894,-10.742,-27.832,-23.926,-24.414,-146.484
1688468613.881,-7.812,-37.109,-29.297,-22.461,-125.000
1688468613.885,-10.254,-31.738,-27.832,-33.203,-86.426
1688468613.889,-23.438,-26.367,-27.344,-38.574,-172.852
1688468613.893,-22.461,-34.180,-31.738,-38.574,-183.105
1688468613.897,-19.043,-34.668,-32.715,-29.785,2.441
1688468613.901,-34.180,-29.297,-33.691,-32.227,46.387
1688468613.905,-39.551,-32.715,-38.574,-40.039,-0.977
1688468613.908,-36.133,-33.691,-42.480,-37.598,-43.457
1688468613.912,-35.156,-34.668,-41.016,-41.504,-49.805
1688468613.916,-30.273,-33.691,-43.457,-39.062,-55.664
1688468613.920,-27.832,-31.738,-43.457,-31.250,-164.062
1688468613.924,-33.691,-35.156,-37.109,-35.645,-210.449
1688468613.926,-42.480,-38.086,-33.203,-33.203,24.902
1688468613.930,-34.668,-43.945,-32.715,-31.250,284.668
1688468613.934,-27.832,-33.203,-33.691,-33.203,-24.414
1688468613.938,-31.738,-25.391,-30.273,-36.133,-156.250
1688468613.942,-33.691,-35.156,-31.738,-39.551,-59.570
1688468613.946,-10.254,-42.969,-30.762,-33.203,-43.457
1688468613.950,-11.719,-32.227,-30.273,-33.203,-53.711
1688468613.953,-31.250,-29.785,-27.832,-30.762,-0.977
1688468613.957,-26.367,-47.852,-24.414,-13.184,368.164
1688468613.961,-31.738,-47.852,-33.691,-13.672,493.164
1688468613.965,-32.715,-37.109,-42.969,-38.086,-25.879
1688468613.969,-27.344,-31.250,-43.457,-43.945,-251.953
1688468613.971,-25.391,-27.344,-37.109,-35.645,-156.250
1688468613.975,-27.832,-32.715,-33.691,-37.598,-139.648
1688468613.979,-32.715,-33.203,-40.527,-34.668,-131.836
1688468613.983,-32.715,-31.250,-38.086,-29.297,-81.055
1688468613.987,-23.926,-23.438,-32.715,-33.691,-85.449
1688468613.991,-21.973,-17.578,-36.133,-39.551,-38.086
1688468613.995,-32.715,-20.020,-32.227,-34.180,-53.223
1688468613.998,-25.391,-25.391,-25.879,-26.855,-6.836
1688468614.002,-22.461,-28.809,-28.320,-28.809,250.000
1688468614.006,-29.297,-27.832,-30.273,-31.250,34.180
1688468614.010,-30.273,-29.785,-33.203,-41.504,-151.367
1688468614.014,-26.367,-29.785,-35.156,-41.992,-43.457
1688468614.016,-25.879,-23.926,-28.809,-38.086,-44.922
1688468614.020,-27.832,-25.879,-31.738,-45.898,-178.223
1688468614.024,-25.879,-38.574,-39.551,-44.434,-172.852
1688468614.028,-41.016,-38.574,-34.668,-39.551,-101.562
1688468614.032,-54.199,-28.809,-38.574,-35.645,-108.887
1688468614.036,-45.410,-12.207,-37.109,-23.438,-124.512
1688468614.040,-39.062,-21.973,-34.668,-20.996,-67.383
1688468614.043,-30.273,-35.156,-38.574,-16.113,283.203
1688468614.047,-36.133,-29.785,-33.691,-16.602,280.762
1688468614.051,-43.945,-21.973,-29.785,-24.414,-89.844
1688468614.055,-44.922,-20.020,-32.227,-27.344,-103.516
1688468614.059,-40.527,-21.973,-30.273,-28.809,18.555
1688468614.062,-33.691,-25.391,-26.367,-27.344,-119.629
1688468614.066,-41.504,-24.902,-29.785,-31.250,-237.305
1688468614.070,-45.410,-28.809,-34.668,-33.203,-111.816
1688468614.074,-42.969,-26.367,-34.180,-32.227,28.809
1688468614.078,-49.316,-25.391,-43.457,-34.180,-63.965
1688468614.082,-57.617,-33.691,-39.062,-41.016,-105.469
1688468614.086,-50.293,-36.621,-24.414,-35.645,112.793
1688468614.089,-43.457,-38.574,-29.785,-41.504,288.574
1688468614.093,-50.293,-52.246,-40.527,-44.434,-41.504
1688468614.097,-49.316,-48.340,-39.062,-39.062,-183.594
1688468614.101,-44.434,-39.062,-32.715,-47.852,-88.867
1688468614.105,-51.270,-36.133,-31.250,-49.805,-131.836
1688468614.107,-50.781,-27.832,-34.180,-44.434,-175.781
1688468614.111,-30.762,-26.855,-29.785,-35.645,-141.113
1688468614.115,-39.551,-31.738,-22.949,-28.320,4.883
1688468614.119,-52.246,-33.691,-30.762,-26.367,-20.020
1688468614.123,-40.039,-26.367,-35.645,-35.645,-168.457
1688468614.127,-42.969,-24.414,-36.133,-43.457,-113.770
1688468614.131,-52.734,-31.738,-40.039,-40.039,278.320
1688468614.134,-51.758,-32.715,-39.062,-49.316,375.000
1688468614.138,-51.758,-26.855,-39.062,-56.641,-8.789
1688468614.142,-46.387,-21.484,-38.574,-50.781,-123.047
1688468614.146,-37.109,-17.578,-36.621,-53.223,93.750
1688468614.150,-39.062,-20.020,-34.180,-49.805,-48.340
1688468614.166,-46.387,-28.809,-35.645,-50.781,-228.516
1688468614.170,-48.828,-29.297,-39.062,-53.223,-178.711
1688468614.174,-50.293,-25.879,-45.898,-55.664,-114.258
1688468614.178,-59.570,-21.484,-38.086,-65.430,-133.301
1688468614.182,-70.312,-24.414,-34.180,-69.824,-187.988
1688468614.186,-67.871,-30.762,-52.734,-63.477,-23.438
1688468614.190,-59.082,-30.273,-42.969,-65.430,147.949
1688468614.193,-57.129,-36.133,-29.785,-63.477,2.930
1688468614.197,-59.082,-24.902,-33.691,-56.641,-170.410
1688468614.201,-45.898,-21.484,-38.574,-48.828,24.902
1688468614.205,-45.898,-33.691,-39.062,-41.504,213.867
1688468614.209,-44.434,-22.949,-26.855,-42.480,-29.785
1688468614.212,-35.645,-23.438,-23.926,-37.598,-144.531
1688468614.216,-30.273,-28.809,-24.414,-37.598,-55.176
1688468614.220,-31.738,-30.762,-26.855,-35.645,-21.973
1688468614.224,-29.297,-27.344,-27.344,-31.250,-130.371
1688468614.228,-23.926,-16.602,-28.320,-39.062,-156.738
1688468614.232,-28.809,-23.926,-42.480,-47.852,155.273
1688468614.236,-41.504,-30.762,-45.898,-43.457,116.211
1688468614.239,-32.715,-24.902,-32.227,-34.180,-82.520
1688468614.243,-26.855,-22.461,-23.926,-29.785,-72.266
1688468614.247,-33.203,-30.273,-26.367,-21.973,224.609
1688468614.251,-30.273,-35.645,-31.738,-18.066,374.512
1688468614.255,-22.949,-24.902,-34.668,-18.066,-57.129
1688468614.256,-10.254,-18.066,-35.645,-20.508,-184.570
1688468614.260,-21.973,-29.297,-26.855,-30.273,-90.332
1688468614.264,-47.363,-38.086,-14.648,-39.551,-186.523
1688468614.268,-48.340,-49.805,-17.578,-36.621,-229.980
1688468614.272,-42.480,-52.246,-16.602,-38.574,-131.836
1688468614.276,-60.059,-43.945,-6.348,-39.062,74.219
1688468614.280,-70.801,-45.898,-9.766,-38.574,113.770
1688468614.283,-60.059,-43.945,-20.020,-45.898,-93.750
1688468614.287,-63.477,-48.340,-19.531,-41.504,-60.547
1688468614.291,-80.566,-63.477,-14.648,-46.387,218.262
1688468614.295,-90.332,-65.430,-13.672,-46.387,23.926
1688468614.299,-74.707,-55.176,-7.812,-35.645,-162.109
1688468614.301,-57.129,-48.828,-9.766,-23.926,-19.531
1688468614.305,-64.941,-59.570,-12.695,-27.832,-18.555
1688468614.309,-66.406,-58.594,-11.719,-41.992,-153.320
1688468614.313,-60.059,-44.922,-13.184,-41.504,-167.480
1688468614.317,-60.059,-46.387,-15.625,-38.574,-111.328
1688468614.321,-62.012,-46.875,-19.043,-35.156,18.555
1688468614.325,-71.289,-41.992,-28.320,-34.180,48.340
1688468614.328,-62.500,-41.992,-31.250,-40.039,-44.434
1688468614.332,-51.270,-36.133,-25.391,-27.344,286.133
1688468614.336,-55.664,-33.691,-20.996,-19.043,388.184
1688468614.340,-41.016,-30.762,-20.020,-26.367,-88.867
1688468614.344,-30.273,-29.785,-21.973,-14.160,-216.309
1688468614.346,-35.645,-31.738,-34.180,-21.484,-62.012
1688468614.350,-31.250,-26.367,-20.508,-30.762,-114.258
1688468614.354,-23.438,-25.391,-8.789,-19.531,-137.695
1688468614.358,-28.320,-29.297,-14.160,-24.414,-51.270
1688468614.362,-30.762,-24.414,-19.043,-24.902,-29.297
1688468614.366,-22.461,-21.973,-27.832,-13.672,-18.066
1688468614.370,-23.438,-19.043,-27.832,-16.602,-68.359
1688468614.373,-22.461,-22.461,-22.949,-25.391,19.531
1688468614.377,-21.973,-31.738,-32.715,-34.180,211.426
1688468614.381,-24.414,-22.949,-37.109,-33.203,-48.828
1688468614.385,-24.414,-19.531,-31.738,-25.391,-225.586
1688468614.389,-21.973,-30.273,-37.109,-29.297,-97.656
1688468614.391,-18.555,-26.855,-38.574,-35.156,-86.914
1688468614.395,-16.602,-22.461,-37.598,-34.668,-179.199
1688468614.399,-20.020,-32.227,-38.574,-40.527,-133.789
1688468614.403,-31.250,-34.180,-39.062,-39.551,69.824
1688468614.407,-33.691,-32.227,-46.387,-46.875,-68.848
1688468614.411,-23.926,-29.785,-50.293,-55.664,-97.656
1688468614.415,-30.273,-30.273,-40.527,-55.664,17.090
1688468614.418,-25.391,-35.645,-41.992,-49.316,204.102
1688468614.422,-26.855,-38.086,-45.410,-44.434,216.797
1688468614.426,-30.273,-41.992,-38.574,-47.852,-170.898
1688468614.430,-23.438,-43.945,-37.598,-42.480,-207.031
1688468614.434,-25.391,-41.504,-40.527,-29.297,-29.785
1688468614.436,-23.926,-47.852,-36.133,-26.367,-150.391
1688468614.440,-14.648,-34.668,-31.250,-27.344,-241.699
1688468614.444,-19.531,-35.645,-40.039,-38.086,-116.699
1688468614.448,-19.531,-47.852,-40.039,-29.785,-71.289
1688468614.452,-17.578,-39.062,-34.180,-21.973,-116.211
1688468614.456,-20.020,-32.715,-31.250,-18.555,-89.355
1688468614.460,-20.508,-39.062,-31.250,-16.602,120.117
1688468614.463,-13.672,-38.086,-31.250,-20.020,425.781
1688468614.467,-6.836,-32.715,-30.762,-31.738,79.590
1688468614.471,-15.625,-27.344,-34.180,-38.086,-179.199
1688468614.475,-15.137,-21.973,-41.016,-30.762,-38.574
1688468614.479,-13.184,-33.691,-36.621,-36.133,-121.582
1688468614.481,-17.090,-34.668,-30.273,-38.086,-228.516
1688468614.485,-15.625,-29.785,-29.785,-26.855,-155.762
1688468614.489,-20.508,-28.320,-27.832,-20.020,-32.715
1688468614.493,-11.230,-20.020,-23.438,-21.484,-54.199
1688468614.497,-13.672,-20.508,-28.809,-21.484,-172.363
1688468614.501,-22.949,-27.832,-33.203,-23.438,-42.480
1688468614.505,-14.648,-25.391,-27.344,-18.066,339.844
1688468614.508,-15.137,-33.203,-28.320,-18.066,236.328
1688468614.512,-11.719,-28.320,-37.109,-28.320,-57.617
1688468614.516,0.488,-17.090,-36.133,-20.508,-81.543
1688468614.520,3.906,-6.348,-29.785,-16.113,127.930
1688468614.524,-6.348,-2.930,-34.668,-21.973,25.879
1688468614.526,-3.906,-12.695,-35.645,-27.832,-232.422
1688468614.530,-0.488,-16.113,-29.297,-41.016,-162.598
1688468614.534,-12.695,-23.926,-31.738,-38.086,-93.262
1688468614.538,-9.277,-32.227,-40.527,-36.621,-118.652
1688468614.542,-18.555,-27.832,-43.457,-36.133,-122.559
1688468614.546,-29.297,-37.598,-47.363,-33.691,39.551
1688468614.550,-27.832,-37.109,-44.922,-34.180,142.578
1688468614.553,-31.738,-34.180,-35.645,-29.297,-29.785
1688468614.557,-48.828,-35.156,-38.574,-34.180,-117.188
1688468614.561,-48.340,-30.762,-42.969,-40.527,-62.012
1688468614.565,-28.320,-29.785,-48.828,-19.531,-34.668
1688468614.569,-19.043,-35.645,-48.828,3.418,-91.309
1688468614.602,-11.719,-32.715,-40.039,-6.836,-195.312
1688468614.606,-21.973,-31.250,-31.250,-47.363,11.719
1688468614.610,-27.344,-40.527,-26.367,-67.383,171.387
1688468614.614,-20.508,-41.504,-21.484,-60.059,-111.816
1688468614.618,-15.137,-57.617,-11.230,-42.480,-149.902
1688468614.622,-20.020,-60.059,-7.812,-27.344,123.047
1688468614.626,-24.414,-53.711,-11.230,-22.461,121.094
1688468614.629,-19.531,-61.035,-5.859,-16.602,-42.969
1688468614.633,-22.949,-62.012,-2.930,-17.090,-46.387
1688468614.637,-37.109,-55.176,-12.695,-20.996,233.887
1688468614.641,-41.504,-54.688,-14.160,-19.043,209.473
1688468614.645,-38.086,-60.059,-18.066,-19.531,-217.773
1688468614.631,-39.551,-64.453,-13.184,-12.207,-172.363
1688468614.635,-36.133,-63.965,-3.418,-10.254,224.121
1688468614.639,-34.180,-66.406,-4.395,-6.836,29.297
1688468614.643,-24.414,-61.035,-7.324,-7.812,-200.195
1688468614.647,-3.418,-55.664,-15.625,-6.836,-137.207
1688468614.651,0.977,-60.547,-12.207,-1.953,-106.445
1688468614.655,-10.742,-50.293,-4.883,-7.324,-60.059
1688468614.658,-5.859,-68.359,-10.254,-5.371,-75.684
1688468614.662,6.836,-68.359,-14.160,-21.973,-72.754
1688468614.666,18.066,-39.062,-13.184,-26.855,-59.082
1688468614.670,27.832,-37.109,-9.277,-20.508,-78.613
1688468614.674,25.879,-30.273,-5.859,-24.414,-163.086
1688468614.676,30.762,-19.531,-7.324,-12.207,-23.926
1688468614.680,34.180,-22.461,-13.184,-5.859,153.320
1688468614.684,28.809,-26.855,-15.625,-13.672,-130.371
1688468614.688,32.227,-26.367,-19.043,-22.461,-160.645
1688468614.692,31.250,-27.832,-24.414,-16.602,31.738
1688468614.696,37.109,-23.926,-25.391,-9.766,18.555
1688468614.700,36.621,-20.508,-25.879,-18.066,-59.082
1688468614.703,41.992,-29.297,-24.902,-14.648,-135.742
1688468614.707,41.992,-32.715,-26.367,-12.695,201.172
1688468614.711,35.156,-25.879,-30.273,-8.789,329.590
1688468614.715,42.969,-23.926,-30.762,-10.742,-95.703
1688468614.719,41.016,-23.926,-27.344,-12.695,-153.809
1688468614.721,42.480,-16.602,-33.203,-13.672,-104.980
1688468614.725,48.828,-16.602,-38.086,-25.391,-209.961
1688468614.729,42.969,-23.438,-37.109,-28.320,-176.758
1688468614.733,40.039,-28.320,-30.762,-20.996,-127.441
1688468614.737,49.805,-25.879,-31.250,-15.625,-119.629
1688468614.741,49.316,-21.484,-31.738,-20.508,-80.566
1688468614.745,38.086,-25.391,-29.297,-33.691,-41.016
1688468614.748,38.574,-30.762,-38.574,-36.621,79.590
1688468614.752,42.480,-28.809,-41.504,-30.273,355.957
1688468614.756,43.457,-25.391,-43.945,-31.738,116.699
1688468614.760,39.062,-23.926,-51.270,-43.457,-121.582
1688468614.764,41.016,-23.438,-43.945,-54.688,-42.480
1688468614.766,43.457,-29.785,-38.574,-51.758,-94.727
1688468614.770,44.434,-30.762,-39.062,-54.199,-151.855
1688468614.774,53.223,-29.297,-40.527,-55.176,-117.676
1688468614.778,44.434,-29.297,-45.898,-62.988,-22.461
1688468614.782,41.992,-31.738,-54.199,-60.547,-56.152
1688468614.786,42.969,-36.621,-55.664,-58.594,-83.496
1688468614.790,42.969,-34.668,-47.852,-61.523,-63.965
1688468614.793,55.176,-31.250,-43.945,-47.852,265.137
1688468614.797,55.664,-22.461,-43.457,-39.062,347.656
1688468614.801,60.547,-13.184,-38.086,-46.387,-94.238
1688468614.805,71.289,-15.137,-38.574,-51.758,-160.156
1688468614.809,74.219,-23.438,-38.574,-55.664,161.621
1688468614.811,79.102,-18.066,-32.715,-48.340,0.488
1688468614.815,81.543,-9.277,-31.250,-30.273,-233.398
1688468614.819,85.938,-14.648,-37.109,-27.344,-167.969
1688468614.823,99.609,-17.090,-42.969,-28.809,-142.578
1688468614.827,100.586,-17.090,-30.762,-28.809,-132.812
1688468614.831,90.332,-17.090,-22.949,-41.504,-166.992
1688468614.835,82.031,-20.996,-34.180,-58.594,-73.730
1688468614.838,82.520,-28.809,-39.062,-62.012,169.922
1688468614.842,97.168,-20.996,-35.156,-57.129,-101.562
1688468614.846,99.609,-14.160,-35.156,-42.480,-273.438
1688468614.850,104.492,-28.320,-33.203,-39.551,-45.898
1688468614.854,110.840,-31.738,-34.668,-46.875,-45.898
1688468614.856,116.699,-23.926,-40.527,-42.480,-171.387
1688468614.860,123.047,-32.227,-39.551,-36.133,-206.055
1688468614.864,126.953,-19.043,-33.203,-41.504,-67.383
1688468614.868,123.047,-8.301,-41.016,-49.316,-55.664
1688468614.872,122.559,-21.484,-45.410,-42.969,-180.664
1688468614.876,134.277,-20.996,-44.434,-39.062,-67.383
1688468614.880,132.812,-14.648,-46.875,-34.180,275.879
