timestamps,TP9,AF7,AF8,TP10,Right AUX
1688255582.885,37.598,-30.762,-39.062,-50.293,-259.766
1688255582.889,-9.277,-9.277,-40.039,-53.223,-223.633
1688255582.893,-88.867,-8.789,-39.551,-18.066,-183.594
1688255582.897,-101.074,-17.578,-40.039,-22.949,-105.957
1688255582.901,-13.184,-13.184,-30.273,-59.082,-91.309
1688255582.905,18.555,-14.648,-23.926,-66.406,-25.391
1688255582.909,-21.973,-18.066,-35.645,-55.664,-30.273
1688255582.912,-80.078,-20.020,-36.621,-21.973,-92.285
1688255582.916,-79.590,-36.621,-32.715,-5.859,254.395
1688255582.920,2.930,-35.156,-40.527,-35.156,430.176
1688255582.924,32.227,-20.020,-35.156,-69.336,-97.656
1688255582.928,-10.254,-23.438,-28.320,-64.941,-283.203
1688255582.931,-81.055,-29.785,-37.109,-17.578,-101.562
1688255582.935,-104.004,-27.832,-40.039,3.906,-25.391
1688255582.939,-23.438,-27.344,-37.109,-32.715,-36.621
1688255582.943,28.809,-29.785,-35.156,-63.477,-124.023
1688255582.947,13.184,-27.344,-41.992,-60.547,-115.234
1688255582.951,-39.551,-32.715,-51.270,-14.648,10.742
1688255582.955,-79.102,-32.715,-41.992,26.855,77.637
1688255582.958,-9.766,-22.949,-27.832,-19.043,94.238
1688255582.962,31.250,-25.391,-23.926,-74.219,291.016
1688255582.966,-7.812,-29.785,-24.902,-66.406,130.859
1688255582.970,-68.848,-31.738,-27.344,-20.020,-61.035
1688255582.974,-108.887,-29.785,-29.297,25.391,152.344
1688255582.975,-37.109,-22.461,-26.855,27.832,310.059
1688255582.979,41.992,-19.043,-29.297,-29.785,-154.297
1688255582.983,26.367,-27.344,-45.410,-70.801,-336.426
1688255582.987,-39.062,-23.438,-35.156,-35.645,-166.992
1688255582.991,-83.984,-20.996,-10.742,22.461,-128.418
1688255582.995,-26.367,-20.020,-10.742,20.508,-34.180
1688255582.999,46.387,-14.648,-20.508,-17.578,-31.250
1688255583.002,47.363,-20.996,-25.879,-26.855,34.668
1688255583.006,1.465,-16.602,-26.855,-3.906,52.246
1688255583.010,-62.500,-13.672,-39.062,31.738,-118.652
1688255583.014,-32.227,-17.578,-44.922,23.926,-75.684
1688255583.018,44.922,-15.137,-32.227,-32.715,-82.031
1688255583.022,58.105,-6.836,-19.531,-31.250,-180.176
1688255583.026,16.602,2.441,-12.207,13.184,-163.574
1688255583.030,-64.941,4.883,-8.789,53.711,-24.414
1688255583.034,-37.109,-5.371,-19.043,49.805,152.344
1688255583.038,52.734,-8.789,-29.297,-10.254,-21.973
1688255583.042,58.105,-5.371,-30.762,-37.598,-193.848
1688255583.046,7.324,-20.508,-33.203,-28.809,-62.012
1688255583.049,-65.430,-27.344,-32.227,14.648,278.809
1688255583.053,-59.082,-22.949,-31.250,14.160,132.324
1688255583.057,33.691,-29.297,-37.598,-43.945,-133.789
1688255583.061,49.805,-24.414,-40.527,-52.734,-21.484
1688255583.065,-15.625,-8.789,-44.922,-34.180,24.902
1688255583.065,-79.102,-5.371,-55.176,-9.277,-124.512
1688255583.069,-73.730,-11.719,-43.945,7.324,-107.422
1688255583.073,-3.906,-12.207,-29.297,-21.973,-31.738
1688255583.077,34.668,-11.719,-26.855,-52.734,-47.852
1688255583.081,13.672,-18.555,-36.621,-28.809,-150.879
1688255583.085,-67.383,-16.113,-50.293,-5.859,-104.492
1688255583.089,-99.609,-11.230,-46.875,-11.719,291.504
1688255583.092,-12.207,-20.996,-50.293,-37.109,452.637
1688255583.096,45.898,-29.785,-48.828,-57.129,-58.105
1688255583.100,13.672,-37.109,-45.898,-38.574,-281.738
1688255583.104,-54.688,-36.621,-49.805,-24.414,-96.191
1688255583.108,-82.520,-34.180,-36.621,-24.902,-36.133
1688255583.111,-22.949,-29.297,-22.949,-38.086,-103.027
1688255583.115,20.020,-25.391,-26.855,-82.031,-175.781
1688255583.119,4.883,-28.809,-31.738,-89.355,-132.812
1688255583.123,-69.336,-52.734,-38.574,-46.875,-119.141
1688255583.127,-124.512,-84.473,-36.133,-12.695,-109.375
1688255583.131,-56.641,-89.844,-31.738,-21.484,44.922
1688255583.135,16.113,-79.590,-31.250,-70.312,100.098
1688255583.138,-4.883,-67.383,-28.809,-64.941,-39.551
1688255583.142,-66.895,-54.199,-19.043,-32.227,-157.715
1688255583.146,-109.863,-60.547,-11.230,-25.391,-70.312
1688255583.150,-61.523,-72.266,-8.789,-41.992,416.016
1688255583.154,5.371,-65.430,-14.160,-81.055,198.242
1688255583.170,0.000,-62.500,-9.766,-57.617,-268.555
1688255583.174,-60.547,-64.941,-0.488,-7.324,-203.613
1688255583.178,-90.820,-64.453,-7.324,14.160,-79.590
1688255583.182,-24.414,-54.199,-12.207,-5.859,-77.148
1688255583.186,38.574,-39.062,-8.301,-33.691,-171.875
1688255583.190,1.953,-33.691,-17.578,-28.320,-47.852
1688255583.194,-59.082,-29.297,-36.621,-23.438,-19.043
1688255583.197,-99.121,-28.320,-26.855,-1.465,-91.797
1688255583.201,-67.383,-22.949,-11.719,15.625,27.832
1688255583.205,4.395,-25.391,-19.043,-12.207,225.586
1688255583.209,10.254,-34.180,-20.508,-39.062,162.598
1688255583.213,-20.020,-25.391,-6.836,-48.340,-218.750
1688255583.216,-85.938,-30.762,-17.578,-18.066,-195.801
1688255583.220,-93.262,-40.527,-28.809,-1.465,-5.859
1688255583.224,11.230,-27.832,-14.648,-30.762,-76.172
1688255583.228,48.340,-15.137,-17.090,-48.828,-187.988
1688255583.232,4.395,-13.184,-23.926,-28.320,-104.980
1688255583.236,-62.500,-15.625,-20.508,7.812,114.746
1688255583.240,-76.660,-17.090,-19.043,23.926,142.578
1688255583.243,13.184,-21.484,-19.531,6.348,-35.645
1688255583.247,52.734,-16.602,-11.719,-18.066,-127.930
1688255583.251,25.879,-4.883,-14.648,-26.855,129.395
1688255583.255,-62.012,-17.578,-32.715,-13.672,41.504
1688255583.259,-94.238,-21.973,-35.156,8.789,-95.703
1688255583.261,10.254,-15.625,-25.879,-8.301,39.062
1688255583.265,39.551,-25.391,-26.367,-37.598,156.738
1688255583.269,-1.953,-36.133,-34.668,-33.691,-168.457
1688255583.273,-69.336,-37.109,-43.457,-5.371,-291.016
1688255583.277,-101.074,-40.527,-38.086,17.090,-113.770
1688255583.281,-12.695,-41.504,-38.574,-29.785,-48.340
1688255583.285,37.598,-35.645,-50.293,-72.754,-93.262
1688255583.288,0.977,-33.203,-51.270,-51.270,-229.004
1688255583.292,-74.707,-33.691,-33.691,-6.836,15.137
1688255583.296,-114.746,-41.992,-28.809,-3.418,229.492
1688255583.300,-33.691,-32.715,-46.875,-34.180,2.930
1688255583.304,37.109,-21.973,-51.270,-52.246,-147.949
1688255583.307,11.719,-37.598,-43.945,-55.176,-187.500
1688255583.311,-46.875,-37.598,-39.551,-16.113,-109.863
1688255583.315,-103.027,-39.062,-39.551,18.555,-28.320
1688255583.319,-44.434,-43.457,-38.086,-6.348,-29.297
1688255583.323,37.598,-33.203,-39.551,-42.480,20.508
1688255583.327,24.414,-18.555,-34.180,-57.129,-35.156
1688255583.331,-34.180,-8.789,-28.809,-39.551,-59.570
1688255583.334,-107.910,-12.695,-36.133,-2.930,112.305
1688255583.338,-71.777,-22.461,-37.109,-11.719,384.766
1688255583.342,22.461,-15.625,-30.762,-61.035,120.605
1688255583.346,26.367,-23.438,-41.504,-62.012,-134.277
1688255583.350,-28.320,-48.340,-46.387,-2.930,-67.383
1688255583.351,-93.262,-44.922,-29.297,19.043,203.613
1688255583.355,-67.871,-23.926,-26.367,-6.836,-17.578
1688255583.359,37.109,-4.395,-23.926,-28.809,-296.875
1688255583.363,49.805,-12.207,-27.344,-60.059,-218.262
1688255583.367,-24.902,-24.902,-48.340,-56.641,-204.102
1688255583.371,-88.379,-25.879,-49.805,-11.719,-92.773
1688255583.375,-70.312,-26.367,-44.434,3.906,-2.930
1688255583.378,19.531,-21.973,-45.898,-31.250,125.977
1688255583.382,43.945,-19.531,-34.668,-46.387,258.789
1688255583.386,-23.926,-19.531,-27.344,-19.531,-137.207
1688255583.390,-94.238,-26.855,-33.203,11.230,-200.684
1688255583.394,-78.613,-23.438,-30.762,22.461,-10.742
1688255583.396,9.766,-23.438,-27.832,-18.555,-122.070
1688255583.400,44.922,-30.762,-30.273,-62.012,-263.184
1688255583.404,-7.324,-31.738,-26.367,-34.668,-164.062
1688255583.408,-99.609,-33.203,-33.203,12.207,6.836
1688255583.412,-103.027,-28.320,-37.598,1.953,20.996
1688255583.416,-5.371,-29.297,-31.250,-44.922,6.348
1688255583.420,36.133,-38.086,-25.879,-63.477,-17.578
1688255583.423,-10.254,-47.852,-25.879,-55.176,272.949
1688255583.427,-68.848,-40.039,-34.180,-30.762,207.520
1688255583.431,-88.379,-29.785,-40.527,-13.672,-76.660
1688255583.435,-2.441,-33.203,-36.621,-41.016,58.105
1688255583.439,45.898,-39.551,-27.344,-69.824,18.555
1688255583.440,-20.996,-42.480,-31.250,-59.082,-268.555
1688255583.444,-102.051,-25.391,-34.668,-21.484,-231.445
1688255583.448,-122.070,-16.113,-34.668,0.000,3.906
1688255583.452,-32.715,-14.160,-31.738,-11.719,-19.043
1688255583.456,39.062,-5.371,-27.344,-43.457,-180.176
1688255583.460,17.578,-14.160,-42.969,-47.363,-176.758
1688255583.464,-58.105,-27.344,-52.734,-24.902,179.199
1688255583.467,-102.539,-23.926,-32.715,-1.953,335.449
1688255583.471,-14.648,-22.461,-28.809,-25.391,-36.621
1688255583.475,51.758,-30.762,-41.504,-67.871,-210.938
1688255583.479,25.879,-40.039,-43.457,-55.176,-121.582
1688255583.483,-53.223,-54.199,-49.805,-20.508,-133.301
1688255583.485,-121.094,-44.434,-47.363,-14.648,-191.406
1688255583.489,-62.988,-29.297,-40.039,-27.832,-82.031
1688255583.493,33.691,-25.391,-44.922,-46.875,-14.648
1688255583.497,35.645,-16.602,-43.945,-66.895,-154.785
1688255583.501,-37.598,-10.254,-33.691,-40.527,-248.047
1688255583.505,-106.934,-18.555,-24.414,-1.465,11.719
1688255583.509,-74.219,-25.879,-29.297,-25.391,408.691
1688255583.512,9.766,-27.832,-50.293,-61.523,86.914
1688255583.516,14.648,-49.316,-52.246,-68.359,-277.344
1688255583.520,-36.133,-49.805,-43.945,-45.898,-89.844
1688255583.524,-111.328,-40.527,-48.828,-2.441,232.422
1688255583.528,-96.191,-40.527,-42.969,-9.766,108.398
1688255583.545,9.277,-28.320,-35.156,-58.105,-189.453
1688255583.549,25.391,-27.832,-41.992,-82.031,-141.113
1688255583.553,-13.184,-41.016,-41.504,-59.570,41.992
1688255583.557,-82.520,-31.738,-40.039,-10.742,-65.918
1688255583.561,-89.355,-30.273,-41.992,2.441,-85.938
1688255583.565,18.066,-39.062,-34.180,-33.691,-9.277
1688255583.569,31.250,-42.969,-44.922,-67.383,6.836
1688255583.572,-26.855,-34.180,-67.871,-65.918,-153.320
1688255583.576,-87.402,-30.273,-52.246,-42.480,-149.414
1688255583.580,-91.309,-31.738,-29.785,-20.020,104.980
1688255583.584,-8.789,-30.273,-31.738,-49.316,29.785
1688255583.588,32.227,-44.434,-49.805,-74.707,-192.871
1688255583.591,2.441,-48.828,-58.105,-53.223,-236.816
1688255583.595,-89.355,-39.551,-49.805,-15.137,173.340
1688255583.599,-116.211,-36.621,-48.340,1.953,307.617
1688255583.603,-3.906,-40.039,-47.852,-28.320,-47.852
1688255583.607,54.199,-41.504,-54.199,-59.570,-176.758
1688255583.611,4.395,-30.762,-46.387,-33.691,-92.773
1688255583.615,-79.590,-32.227,-34.180,-4.883,6.348
1688255583.618,-113.281,-40.527,-39.062,-12.207,-12.207
1688255583.622,-31.250,-37.598,-41.992,-34.668,29.785
1688255583.626,40.527,-35.645,-40.527,-66.406,242.676
1688255583.630,11.719,-36.133,-43.945,-77.637,-7.324
1688255583.634,-66.895,-41.992,-55.664,-63.477,-268.066
1688255583.635,-99.121,-45.898,-63.965,-36.133,-56.152
1688255583.639,-41.992,-47.363,-54.688,-43.457,129.883
1688255583.643,30.762,-39.062,-38.086,-80.078,-121.582
1688255583.647,20.020,-37.598,-31.738,-80.566,-233.398
1688255583.651,-60.547,-45.410,-39.062,-59.570,-51.758
1688255583.655,-119.629,-46.875,-54.688,-18.066,44.434
1688255583.659,-50.293,-43.945,-44.922,-13.184,61.035
1688255583.662,40.527,-38.574,-27.832,-51.270,-115.234
1688255583.666,24.902,-41.504,-27.832,-56.641,-35.156
1688255583.670,-54.688,-35.645,-33.691,-29.785,212.891
1688255583.674,-131.836,-29.785,-34.180,-16.602,-1.465
1688255583.678,-79.102,-33.691,-28.320,-33.691,-82.520
1688255583.681,11.719,-34.180,-27.344,-62.012,-76.660
1688255583.685,-7.324,-42.480,-28.320,-71.777,-194.336
1688255583.689,-60.059,-47.852,-20.996,-50.781,-205.566
1688255583.693,-106.934,-58.105,-21.484,-16.602,-107.910
1688255583.697,-81.055,-57.129,-24.902,-10.742,11.230
1688255583.701,3.906,-41.992,-19.043,-43.457,-23.438
1688255583.705,28.809,-37.109,-28.320,-74.707,-136.719
1688255583.708,-12.207,-55.176,-30.273,-59.082,-25.879
1688255583.712,-103.027,-62.012,-14.648,-24.414,266.113
1688255583.716,-101.074,-55.664,-15.137,-8.301,150.879
1688255583.720,7.812,-48.828,-23.438,-39.062,-73.730
1688255583.724,41.504,-46.875,-29.785,-68.848,-56.152
1688255583.725,-34.180,-63.965,-34.180,-37.598,227.051
1688255583.729,-113.770,-55.664,-30.762,-1.465,102.539
1688255583.733,-99.121,-35.156,-26.367,6.348,-86.426
1688255583.737,-8.789,-23.438,-28.809,-26.367,-28.320
1688255583.741,44.922,-17.578,-32.227,-53.223,-153.809
1688255583.745,12.207,-20.020,-29.785,-33.203,-117.676
1688255583.749,-83.008,-31.738,-27.832,1.953,-17.090
1688255583.752,-98.633,-42.480,-22.949,10.742,192.871
1688255583.756,-0.488,-33.203,-28.320,-33.691,209.473
1688255583.760,47.852,-21.484,-36.621,-70.801,-141.113
1688255583.764,13.184,-25.879,-43.945,-61.523,-219.238
1688255583.768,-57.129,-27.832,-36.133,-17.090,35.156
1688255583.770,-91.797,-29.297,-22.949,15.137,38.574
1688255583.774,-13.184,-25.391,-42.480,-7.812,-93.262
1688255583.778,42.480,-20.020,-51.270,-41.016,-108.887
1688255583.782,11.719,-32.227,-34.668,-46.875,-159.180
1688255583.786,-74.219,-43.945,-21.484,-33.203,-115.723
1688255583.790,-104.492,-42.480,-21.973,-26.367,47.363
1688255583.794,-30.762,-49.805,-37.109,-45.898,125.000
1688255583.797,23.438,-46.387,-44.434,-63.477,234.375
1688255583.801,4.395,-31.738,-47.852,-49.316,-48.828
1688255583.805,-73.242,-33.691,-49.805,-11.230,-270.508
1688255583.809,-126.465,-41.504,-43.945,3.418,35.645
1688255583.813,-62.500,-36.133,-27.344,-11.719,213.379
1688255583.816,22.949,-26.855,-20.996,-70.801,-79.102
1688255583.820,10.742,-26.367,-37.598,-84.473,-321.777
1688255583.824,-64.941,-36.133,-51.758,-32.715,-84.961
1688255583.828,-112.793,-42.969,-43.457,1.953,91.309
1688255583.832,-44.434,-39.551,-38.086,-19.531,-25.879
1688255583.836,30.762,-33.203,-38.086,-52.246,-145.020
1688255583.840,9.766,-26.855,-42.480,-66.406,19.531
1688255583.843,-54.199,-39.551,-38.574,-72.266,141.113
1688255583.847,-119.629,-46.387,-42.480,-38.574,-105.957
1688255583.851,-79.590,-41.992,-50.781,-31.250,-110.840
1688255583.855,9.277,-41.016,-43.457,-53.711,-58.594
1688255583.859,23.926,-38.574,-37.109,-62.988,-190.430
1688255583.862,-29.785,-43.945,-43.457,-72.266,-274.414
1688255583.866,-108.398,-49.805,-47.363,-33.203,-57.617
1688255583.870,-100.098,-47.363,-51.758,-13.672,229.004
1688255583.874,-1.465,-43.457,-51.270,-51.758,25.391
1688255583.878,36.133,-27.832,-41.992,-56.641,-224.609
1688255583.882,-6.836,-21.973,-34.668,-41.992,-50.293
1688255583.886,-88.379,-34.180,-29.297,-9.277,448.730
1688255583.889,-94.727,-34.180,-33.203,11.230,293.457
1688255583.893,-1.465,-22.949,-20.508,-24.414,-176.270
1688255583.897,39.062,-18.555,-14.160,-64.453,-145.996
1688255583.901,-0.488,-25.391,-24.414,-45.410,32.715
1688255583.905,-65.430,-30.273,-22.461,1.953,-106.934
1688255583.920,-84.473,-31.738,-26.367,19.531,-131.348
1688255583.924,-7.812,-36.133,-32.227,-8.789,-80.078
1688255583.928,53.711,-28.320,-28.809,-34.668,-168.945
1688255583.932,13.672,-28.320,-32.715,-39.551,-268.066
1688255583.936,-71.777,-29.297,-35.156,-23.438,-226.562
1688255583.940,-86.426,-28.809,-14.648,3.906,122.070
1688255583.944,7.324,-29.297,-8.789,-25.391,270.508
1688255583.947,44.922,-29.785,-23.438,-74.707,-62.012
1688255583.951,-1.465,-33.203,-29.785,-68.848,-246.094
1688255583.955,-71.289,-34.668,-27.832,-16.602,44.922
1688255583.959,-113.281,-31.738,-31.738,9.766,159.668
1688255583.963,-31.250,-27.832,-25.391,-12.695,-81.543
1688255583.965,50.781,-26.367,-6.836,-32.227,-218.262
1688255583.969,20.020,-22.461,-6.836,-21.484,-219.727
1688255583.973,-49.805,-19.531,-18.555,-3.418,-185.547
1688255583.977,-86.914,-20.020,-30.762,2.441,-71.777
1688255583.981,-33.203,-29.297,-33.203,-15.625,9.766
1688255583.985,38.574,-40.039,-17.578,-32.715,-15.137
1688255583.989,22.949,-34.668,-16.113,-28.809,-42.969
1688255583.992,-31.738,-25.879,-25.391,-19.531,-45.410
1688255583.996,-86.914,-24.902,-27.832,8.789,24.414
1688255584.000,-28.320,-29.297,-22.949,2.441,450.195
1688255584.004,35.645,-27.832,-26.367,-47.852,429.688
1688255584.008,9.766,-16.602,-20.508,-59.082,-161.133
1688255584.010,-50.293,-13.672,-19.043,-25.879,-187.500
1688255584.014,-97.656,-12.695,-36.621,-0.977,-50.781
1688255584.018,-40.039,-15.137,-49.805,-19.043,-145.508
1688255584.022,31.738,-22.461,-40.527,-47.852,-216.309
1688255584.026,30.762,-28.320,-23.926,-54.199,-169.434
1688255584.030,-29.297,-46.875,-21.973,-39.062,-105.957
1688255584.034,-105.957,-44.434,-30.762,-10.742,-62.500
1688255584.037,-73.242,-20.508,-36.621,-19.043,-53.711
1688255584.041,29.297,-13.184,-29.297,-41.992,168.457
1688255584.045,32.715,-17.090,-20.508,-58.105,190.430
1688255584.049,-8.789,-20.508,-22.949,-56.641,-187.988
1688255584.053,-69.336,-24.902,-19.531,-14.648,-184.570
1688255584.055,-81.543,-24.414,-21.484,-6.836,101.074
1688255584.059,17.090,-22.949,-35.645,-40.527,-27.344
1688255584.063,31.250,-32.227,-34.668,-57.617,-231.934
1688255584.067,-32.227,-38.086,-21.973,-55.664,-213.379
1688255584.071,-94.238,-28.809,-16.113,-20.996,-109.863
1688255584.075,-100.098,-31.250,-15.625,7.812,45.410
1688255584.079,9.277,-30.273,-19.043,-9.766,21.484
1688255584.082,55.664,-20.020,-22.461,-47.363,-54.199
1688255584.086,-22.461,-15.625,-26.367,-62.988,132.324
1688255584.090,-99.121,-15.625,-29.785,-21.973,104.492
1688255584.094,-103.516,-22.461,-33.203,-3.906,8.301
1688255584.098,-20.996,-19.043,-34.180,-44.922,87.402
1688255584.101,18.555,-19.531,-26.367,-84.473,204.102
1688255584.105,-26.367,-27.344,-32.715,-82.520,-130.859
1688255584.109,-105.469,-27.344,-45.410,-46.387,-243.164
1688255584.113,-121.094,-17.578,-60.059,-24.902,-29.297
1688255584.117,-36.133,-6.836,-57.617,-44.434,-70.801
1688255584.121,30.762,-3.418,-36.621,-81.055,-166.992
1688255584.125,11.230,-4.395,-30.762,-89.355,-127.441
1688255584.128,-73.242,-15.625,-28.320,-49.805,114.258
1688255584.132,-110.840,-24.902,-18.555,-15.137,243.164
1688255584.136,-23.438,-22.461,-18.555,-39.062,-55.664
1688255584.140,45.410,-18.555,-19.531,-64.453,-210.938
1688255584.144,9.277,-20.996,-24.902,-79.102,-145.508
1688255584.147,-69.336,-19.531,-32.227,-59.082,-84.473
1688255584.151,-97.656,-11.230,-40.039,-4.883,-50.293
1688255584.155,-26.367,-7.812,-45.410,-1.465,48.340
1688255584.159,38.086,-11.230,-51.758,-37.598,113.281
1688255584.163,19.531,-15.137,-39.062,-47.852,-96.191
1688255584.167,-42.480,-14.160,-16.113,-17.090,-145.508
1688255584.171,-109.863,-22.949,-21.973,8.789,71.777
1688255584.174,-66.895,-31.738,-30.762,-7.324,338.379
1688255584.178,41.016,-21.484,-27.832,-41.504,40.039
1688255584.182,52.246,-20.020,-28.809,-69.824,-298.828
1688255584.186,-31.250,-33.203,-33.203,-55.664,-108.887
1688255584.190,-97.168,-31.738,-32.715,0.488,99.121
1688255584.190,-56.152,-38.086,-34.180,6.348,-38.574
1688255584.194,38.086,-45.898,-53.711,-48.340,-146.973
1688255584.198,41.016,-43.457,-44.922,-60.059,-149.414
1688255584.202,-30.273,-40.039,-20.996,-27.344,-148.438
1688255584.206,-95.215,-33.203,-20.996,12.207,-55.664
1688255584.210,-91.309,-21.484,-23.926,16.602,54.199
1688255584.214,9.277,-16.113,-17.578,-32.715,255.371
1688255584.217,56.641,-25.391,-24.414,-57.129,361.328
1688255584.221,-5.371,-36.133,-30.273,-51.270,-131.836
1688255584.225,-98.145,-37.109,-16.602,-20.996,-263.672
1688255584.229,-92.285,-29.297,-17.090,-1.953,11.719
1688255584.233,19.531,-26.855,-33.691,-35.156,-82.031
1688255584.236,40.039,-29.297,-32.227,-74.219,-263.184
1688255584.240,-16.113,-34.180,-22.461,-63.477,-216.797
1688255584.244,-78.125,-37.598,-18.066,-20.508,-47.363
1688255584.248,-90.820,-33.203,-14.160,-0.977,30.762
1688255584.252,-17.578,-37.109,-21.484,-29.785,-117.676
1688255584.256,33.203,-39.551,-24.414,-58.105,-48.828
1688255584.260,13.184,-45.410,-21.973,-39.551,238.770
1688255584.263,-63.965,-46.875,-29.297,-19.531,92.285
1688255584.267,-124.023,-43.457,-27.344,-12.695,-124.023
1688255584.271,-49.316,-42.480,-21.484,-26.367,4.883
1688255584.275,25.391,-35.156,-17.090,-66.406,294.922
1688255584.279,-2.930,-33.691,-14.648,-80.078,-49.805
1688255584.296,-74.219,-38.574,-34.180,-37.109,-249.512
1688255584.300,-107.910,-33.691,-41.504,9.277,12.207
1688255584.304,-24.414,-28.320,-25.879,-14.648,76.172
1688255584.308,52.246,-35.645,-21.484,-56.152,-187.500
1688255584.312,33.691,-36.621,-21.484,-46.875,-288.574
1688255584.316,-40.039,-35.156,-23.926,-14.648,-78.613
1688255584.320,-102.051,-41.992,-25.391,15.137,146.973
1688255584.323,-52.246,-38.086,-28.809,-11.719,61.523
1688255584.327,27.344,-34.668,-36.133,-72.266,-157.227
1688255584.331,30.273,-27.832,-33.203,-85.938,51.758
1688255584.335,-18.555,-23.926,-32.227,-46.875,169.922
1688255584.339,-104.492,-20.508,-46.387,-6.836,-53.223
1688255584.341,-76.172,-23.438,-32.715,-33.203,-36.133
1688255584.345,20.020,-33.203,-11.719,-69.336,-59.570
1688255584.349,24.414,-38.574,-11.230,-73.730,-174.805
1688255584.353,-34.180,-39.551,-13.672,-49.805,-212.891
1688255584.357,-113.281,-45.410,-19.531,8.789,-76.172
1688255584.361,-95.703,-45.898,-30.762,-3.418,121.582
1688255584.365,21.484,-38.086,-25.879,-56.641,49.316
1688255584.368,41.992,-29.297,-16.113,-63.965,-148.438
1688255584.372,-28.320,-32.227,-26.367,-35.645,-141.602
1688255584.376,-104.004,-43.945,-33.203,-5.859,306.152
1688255584.380,-85.938,-49.805,-37.598,-14.648,309.082
1688255584.384,7.812,-46.875,-48.828,-54.199,-97.656
1688255584.402,29.297,-43.945,-44.434,-73.730,-35.645
1688255584.406,-23.438,-42.480,-27.832,-51.270,160.645
1688255584.410,-97.656,-30.273,-25.391,-16.113,-85.449
1688255584.414,-83.984,-24.902,-26.855,-1.953,-198.242
1688255584.418,9.766,-27.344,-18.066,-6.836,-145.508
1688255584.422,45.410,-26.855,-11.230,-43.457,-206.055
1688255584.426,13.184,-24.414,-19.531,-61.523,-303.711
1688255584.429,-67.871,-15.625,-19.043,-13.672,-259.277
1688255584.433,-92.773,-22.949,-31.738,5.859,62.988
1688255584.437,-10.254,-32.715,-54.199,-28.809,99.609
1688255584.441,29.297,-20.508,-40.039,-47.363,-256.348
1688255584.445,1.953,-16.113,-22.461,-51.758,-321.289
1688255584.430,-61.523,-20.996,-17.090,-21.973,-144.531
1688255584.434,-83.008,-30.762,-17.578,10.254,-76.660
1688255584.438,0.000,-31.738,-23.438,-21.973,-148.438
1688255584.442,53.223,-24.414,-31.250,-61.035,-62.012
1688255584.446,16.602,-25.879,-35.156,-46.875,-76.660
1688255584.450,-59.570,-21.973,-33.203,-8.301,-113.770
1688255584.454,-84.961,-18.066,-26.855,25.879,42.969
1688255584.457,-6.348,-17.578,-22.949,6.348,74.219
1688255584.461,55.176,-17.578,-27.344,-38.086,41.992
1688255584.465,30.273,-15.625,-20.020,-42.969,-117.188
1688255584.469,-43.945,-11.230,-4.395,-5.371,-138.184
1688255584.473,-93.262,-5.859,-0.488,30.762,1.465
1688255584.476,-27.344,-9.277,-11.230,12.207,401.367
1688255584.480,38.086,-12.695,-26.367,-48.828,337.402
1688255584.484,20.508,-13.184,-36.133,-72.266,-197.754
1688255584.488,-41.016,-21.484,-35.156,-26.367,-214.844
1688255584.492,-92.285,-31.250,-33.203,12.207,-25.391
1688255584.496,-32.227,-34.668,-38.574,-0.977,103.516
1688255584.500,37.109,-35.645,-41.504,-43.457,10.254
1688255584.503,9.766,-45.410,-39.062,-69.824,106.445
1688255584.507,-56.152,-50.781,-36.621,-49.316,335.938
1688255584.511,-125.000,-41.504,-26.855,-17.578,20.020
1688255584.515,-88.379,-32.227,-21.484,-16.113,-141.602
1688255584.519,23.926,-37.109,-28.809,-47.852,-70.312
1688255584.535,25.391,-37.109,-29.297,-64.941,-225.098
1688255584.539,-33.691,-34.180,-24.902,-46.875,-314.453
1688255584.543,-94.727,-33.691,-20.508,-10.742,-130.371
1688255584.547,-91.797,-44.922,-21.484,-10.742,-7.812
1688255584.551,-2.441,-48.340,-30.273,-36.133,-117.188
1688255584.555,29.785,-42.969,-35.156,-64.941,-158.691
1688255584.559,-8.789,-42.480,-34.180,-45.410,-38.086
1688255584.562,-94.238,-45.410,-32.715,-8.789,259.277
1688255584.566,-100.586,-47.852,-31.250,-15.137,166.992
1688255584.570,-11.230,-46.875,-32.715,-39.551,-124.023
1688255584.574,30.273,-36.621,-31.250,-61.035,-113.281
1688255584.578,-7.324,-31.738,-25.391,-57.617,140.137
1688255584.580,-92.773,-33.203,-28.809,-27.832,64.453
1688255584.584,-97.168,-30.273,-26.855,-10.254,-115.234
1688255584.588,5.859,-32.227,-20.996,-26.367,-75.684
1688255584.592,56.152,-26.367,-18.555,-39.551,-149.902
1688255584.596,8.301,-31.250,-20.996,-33.691,-245.605
1688255584.600,-63.965,-40.039,-20.020,-22.949,-184.082
1688255584.604,-75.195,-24.902,-16.602,3.418,143.066
1688255584.607,-4.883,-13.184,-19.043,-5.859,82.520
1688255584.611,51.758,-16.113,-18.555,-40.039,-203.613
1688255584.615,28.320,-21.973,-22.949,-58.105,-273.438
1688255584.619,-54.199,-27.832,-23.438,-30.273,91.309
1688255584.623,-104.004,-29.297,-32.227,-0.977,391.113
1688255584.611,-22.461,-33.691,-38.086,-23.926,-27.344
1688255584.615,48.828,-28.320,-25.391,-52.246,-236.816
1688255584.619,13.184,-20.996,-23.926,-47.363,-220.703
1688255584.623,-75.684,-24.902,-27.344,-8.301,-218.750
1688255584.627,-108.398,-21.484,-17.090,22.461,-91.309
1688255584.631,-16.602,-19.043,-10.742,-7.812,61.523
1688255584.635,50.781,-13.184,-27.344,-49.316,133.301
1688255584.638,27.344,-3.906,-41.992,-66.895,-60.547
1688255584.642,-43.457,-10.742,-32.227,-41.016,-225.098
1688255584.646,-89.844,-14.160,-14.160,13.672,-61.035
1688255584.650,-41.016,-20.508,-15.625,7.812,417.480
1688255584.654,32.227,-23.438,-31.250,-44.922,221.680
1688255584.657,20.996,-21.973,-30.762,-65.918,-253.906
1688255584.661,-52.734,-25.391,-35.645,-43.457,-180.176
1688255584.665,-107.910,-14.648,-39.062,0.000,50.293
1688255584.669,-54.199,-11.719,-29.785,-7.324,-0.977
1688255584.673,36.621,-19.043,-27.344,-49.316,-197.266
1688255584.677,43.945,-19.043,-33.691,-56.641,-146.484
1688255584.681,-30.273,-15.137,-30.762,-29.785,-98.145
1688255584.684,-107.422,-13.184,-12.695,1.465,-115.234
1688255584.688,-73.242,-16.602,-12.695,3.418,-16.602
1688255584.692,19.043,-14.648,-20.996,-32.227,176.270
1688255584.696,26.367,-15.137,-31.250,-46.387,95.215
1688255584.700,-20.508,-16.602,-34.668,-24.414,-158.203
1688255584.715,-92.285,-18.555,-38.086,1.465,-57.617
1688255584.719,-85.449,-22.461,-34.668,-0.977,69.336
1688255584.723,14.648,-25.391,-22.461,-40.527,-41.504
1688255584.727,38.574,-30.273,-28.320,-65.430,-124.512
1688255584.731,-9.766,-31.250,-39.551,-39.062,-24.414
1688255584.735,-82.031,-24.414,-28.809,2.441,296.387
1688255584.739,-89.355,-20.508,-15.137,9.277,229.492
1688255584.742,14.648,-19.531,-16.602,-29.297,-51.270
1688255584.746,55.664,-16.113,-29.785,-63.965,-72.754
1688255584.750,-1.953,-16.113,-38.574,-34.668,107.422
1688255584.754,-92.773,-23.438,-40.039,-1.953,3.418
1688255584.758,-104.492,-29.785,-41.016,-3.418,-99.609
1688255584.760,0.488,-33.203,-35.156,-33.691,-31.738
1688255584.764,37.109,-46.387,-35.156,-73.242,-1.465
1688255584.768,3.906,-41.504,-31.738,-51.270,-181.641
1688255584.772,-64.941,-33.691,-34.180,-6.348,-187.500
1688255584.776,-103.027,-38.574,-42.480,-20.996,33.203
1688255584.780,-9.277,-32.227,-44.434,-52.246,70.801
1688255584.784,40.527,-29.785,-50.781,-64.453,-57.129
1688255584.787,3.906,-40.039,-53.711,-66.406,-116.211
1688255584.791,-62.012,-51.270,-53.711,-32.715,95.703
1688255584.795,-108.398,-47.363,-49.316,6.348,365.234
1688255584.799,-29.785,-30.762,-38.574,-22.949,64.941
1688255584.803,49.316,-23.438,-35.645,-59.082,-157.227
1688255584.805,26.855,-27.832,-28.320,-56.641,-112.793
1688255584.809,-50.293,-25.391,-20.020,-28.320,-143.555
1688255584.813,-114.746,-28.809,-30.762,10.742,-68.359
1688255584.817,-49.316,-38.086,-46.387,1.465,-9.766
1688255584.821,34.180,-36.133,-44.434,-54.199,-63.477
1688255584.825,29.297,-26.367,-36.133,-71.289,-30.273
1688255584.829,-42.480,-20.996,-30.762,-44.434,-62.500
1688255584.832,-102.539,-20.996,-23.438,-2.441,-35.645
1688255584.836,-35.645,-15.625,-20.508,4.883,433.594
1688255584.840,43.457,-13.184,-34.668,-46.387,286.133
1688255584.844,40.039,-10.742,-39.551,-64.941,-128.418
1688255584.848,-23.438,-7.812,-25.391,-34.668,-82.031
1688255584.850,-112.305,-28.320,-29.297,-14.648,98.633
1688255584.854,-70.801,-41.016,-35.645,-7.324,10.742
1688255584.858,32.715,-34.180,-31.250,-36.621,-128.906
1688255584.862,37.598,-23.438,-21.973,-52.734,-176.758
1688255584.866,-27.344,-13.184,-17.578,-23.926,-174.316
1688255584.870,-88.867,-10.254,-24.414,5.859,-36.133
1688255584.874,-65.430,-20.508,-30.762,-1.465,-51.270
1688255584.877,16.602,-28.320,-41.992,-40.527,68.848
1688255584.881,41.016,-25.879,-50.781,-64.941,199.219
1688255584.885,-9.766,-20.020,-31.250,-50.781,-159.668
1688255584.889,-98.145,-19.531,-13.184,-0.977,-177.246
1688255584.893,-102.051,-19.043,-20.996,12.695,127.930
1688255584.895,8.789,-18.555,-20.996,-32.715,-5.859
1688255584.899,53.223,-20.508,-21.973,-63.965,-223.145
1688255584.903,-0.977,-19.531,-20.508,-55.664,-189.453
1688255584.907,-85.938,-21.973,-16.113,-19.043,-30.273
1688255584.911,-95.703,-29.297,-16.113,0.000,28.320
1688255584.915,4.395,-30.273,-9.766,-30.273,-24.414
1688255584.919,44.922,-19.531,-8.789,-58.594,-23.438
1688255584.922,-5.371,-24.902,-13.672,-45.898,171.875
1688255584.926,-84.961,-28.809,-22.949,-3.906,38.086
1688255584.930,-110.840,-24.902,-32.227,12.207,-100.586
1688255584.934,-8.789,-19.043,-24.902,-9.766,77.637
1688255584.938,48.828,-23.438,-19.531,-49.805,91.309
1688255584.941,3.418,-29.785,-19.531,-68.359,-148.926
1688255584.945,-75.684,-22.949,-19.043,-42.480,-182.617
1688255584.949,-111.328,-17.578,-8.789,4.395,11.719
1688255584.953,-29.785,-19.043,-0.488,8.789,32.715
1688255584.957,28.320,-25.879,-6.836,-33.691,-153.320
1688255584.961,6.836,-22.949,-11.719,-57.129,-252.441
1688255584.965,-45.410,-14.648,-12.207,-22.949,20.020
1688255584.968,-94.727,-22.949,-20.996,17.578,310.059
1688255584.972,-41.992,-30.762,-23.926,-11.719,-3.906
1688255584.976,43.945,-27.344,-23.438,-46.875,-205.078
1688255584.980,25.391,-19.531,-31.738,-51.758,-167.969
1688255584.984,-48.340,-20.508,-21.484,-15.625,-165.039
1688255584.985,-108.887,-26.855,-5.859,17.090,-89.844
1688255584.989,-57.617,-23.438,-9.277,-12.207,-13.672
1688255584.993,35.645,-17.578,-17.090,-51.758,-55.176
1688255584.997,34.668,-18.066,-20.996,-59.082,-155.273
1688255585.001,-40.039,-20.996,-25.391,-41.016,-157.227
1688255585.005,-114.746,-20.020,-23.926,0.977,40.527
1688255585.009,-86.914,-30.762,-26.367,5.371,470.703
1688255585.012,12.207,-32.227,-42.480,-46.875,301.270
1688255585.016,38.574,-27.344,-49.805,-72.754,-232.910
1688255585.020,-32.715,-41.504,-42.480,-45.898,-240.234
1688255585.024,-115.234,-41.504,-32.227,-11.719,27.832
1688255585.028,-86.426,-34.180,-26.855,-9.277,-10.254
1688255585.031,5.859,-28.809,-20.996,-32.227,-151.367
1688255585.035,28.809,-34.668,-22.461,-67.871,-135.742
1688255585.039,-10.254,-51.270,-22.461,-69.336,-84.473
1688255585.043,-96.680,-52.246,-23.926,-24.414,-94.238
1688255585.047,-100.098,-37.109,-22.949,-11.719,-81.055
1688255585.051,15.137,-25.391,-14.648,-43.945,51.758
1688255585.055,41.016,-33.203,-24.414,-72.266,15.137
1688255585.058,-42.969,-37.598,-26.367,-83.008,-79.590
1688255585.062,-135.742,-47.852,-20.996,-48.340,-68.848
1688255585.066,-142.578,-52.246,-12.207,-21.484,186.035
1688255585.070,-57.129,-43.945,-2.930,-68.359,307.129
1688255585.074,-19.531,-36.133,2.930,-124.512,-162.598
1688255585.091,-69.336,-36.621,10.254,-102.539,-295.410
1688255585.095,-182.129,-35.156,7.812,-66.406,-99.609
1688255585.099,-203.125,-26.855,9.766,-80.078,3.418
1688255585.103,-95.215,-19.043,18.555,-116.211,-19.043
1688255585.107,-70.312,-17.090,4.395,-170.898,-118.164
1688255585.111,-110.840,-26.367,-2.441,-191.895,-95.215
1688255585.115,-180.176,-30.762,17.578,-150.391,-9.766
1688255585.118,-259.277,-27.832,25.391,-124.512,-11.230
1688255585.122,-182.617,-24.902,25.879,-149.414,26.367
1688255585.126,-76.172,-29.785,28.320,-153.809,414.551
1688255585.130,-88.379,-27.832,8.789,-128.906,274.414
1688255585.134,-146.973,-29.297,3.418,-112.305,-157.227
1688255585.135,-177.246,-34.180,15.625,-73.242,-82.031
1688255585.139,-69.336,-30.273,14.160,-48.828,4.395
1688255585.143,35.645,-22.949,2.930,-76.172,-163.086
1688255585.147,11.230,-30.273,-5.859,-73.242,-306.641
1688255585.151,-50.781,-44.434,1.465,-16.113,-221.680
1688255585.155,-95.215,-37.109,8.789,20.996,16.113
1688255585.159,-41.992,-36.621,4.883,0.000,67.871
1688255585.162,54.199,-41.016,-8.301,-32.227,-135.742
1688255585.166,65.918,-40.527,-23.438,-31.738,-45.898
1688255585.170,-8.301,-44.922,-42.969,1.953,57.129
1688255585.174,-75.195,-46.387,-46.875,56.641,-67.383
1688255585.178,-2.930,-39.551,-41.504,55.176,64.453
1688255585.181,94.238,-34.668,-41.504,13.184,167.480
1688255585.185,77.148,-35.645,-49.316,18.555,-49.805
1688255585.189,14.160,-42.480,-64.453,48.340,-194.336
1688255585.193,-67.383,-46.875,-70.312,50.293,-69.824
1688255585.197,-42.480,-47.852,-54.688,22.949,20.996
1688255585.201,65.430,-40.527,-45.410,-13.184,56.641
1688255585.205,66.895,-45.410,-52.734,-33.691,-39.062
1688255585.208,4.883,-52.246,-56.641,-18.555,-123.047
1688255585.212,-72.754,-51.758,-53.223,37.109,235.352
1688255585.216,-62.500,-43.945,-50.781,55.176,176.758
1688255585.220,60.547,-35.156,-52.246,31.250,-138.672
1688255585.224,89.844,-32.227,-57.617,14.160,-112.305
1688255585.227,21.484,-40.527,-65.918,9.766,-49.805
1688255585.231,-57.129,-44.434,-52.734,39.062,-94.238
1688255585.235,-59.082,-43.457,-33.691,45.898,-60.059
1688255585.239,27.832,-52.734,-29.297,-0.488,-68.848
1688255585.243,78.613,-51.270,-25.879,-6.836,-134.277
1688255585.247,24.902,-50.781,-29.297,18.555,-162.109
1688255585.251,-54.199,-56.152,-40.039,40.039,-148.438
1688255585.254,-62.012,-56.152,-46.875,57.617,117.188
1688255585.258,22.949,-49.805,-51.270,14.648,210.449
1688255585.262,82.520,-42.480,-46.387,-30.273,-182.129
1688255585.266,56.641,-36.621,-41.992,-25.391,-276.855
1688255585.270,-35.156,-44.922,-41.992,4.883,-124.023
1688255585.271,-77.637,-48.340,-44.922,37.598,-46.875
1688255585.275,14.160,-41.992,-45.410,20.508,-110.840
1688255585.279,63.965,-41.016,-36.621,-31.250,-202.148
1688255585.283,35.156,-50.781,-39.062,-50.781,-164.551
1688255585.287,-48.828,-57.129,-48.828,-16.602,-60.547
1688255585.291,-104.004,-45.410,-32.227,14.648,-6.348
1688255585.295,-21.484,-35.645,-17.090,-2.930,2.930
1688255585.298,51.758,-41.504,-26.367,-42.969,254.395
1688255585.302,23.438,-39.551,-35.645,-49.805,194.336
1688255585.306,-55.176,-32.715,-41.992,-13.184,-64.453
1688255585.310,-100.098,-30.273,-50.781,20.020,141.113
1688255585.314,-39.062,-27.344,-48.340,16.113,183.594
1688255585.316,46.387,-28.320,-30.273,-20.508,-149.902
1688255585.320,48.340,-27.344,-27.344,-36.133,-313.965
1688255585.324,-14.160,-26.855,-33.691,-22.461,-194.824
1688255585.328,-92.773,-29.785,-34.668,12.207,-71.777
1688255585.332,-40.527,-28.320,-40.039,10.254,-74.707
1688255585.336,62.988,-26.855,-42.480,-28.809,-23.438
1688255585.340,57.129,-20.508,-45.410,-41.504,11.230
1688255585.343,-3.418,-19.531,-42.969,-38.086,-22.949
1688255585.347,-68.359,-20.020,-32.227,-8.301,1.465
1688255585.351,-53.223,-18.555,-41.504,3.418,-6.836
1688255585.355,40.039,-24.902,-52.246,-30.762,146.484
1688255585.359,62.012,-36.133,-38.086,-43.945,178.711
1688255585.361,-8.789,-41.992,-31.738,-18.066,-166.992
1688255585.365,-102.539,-41.504,-38.086,8.301,-159.668
1688255585.369,-77.637,-34.668,-31.738,10.254,-19.043
1688255585.373,31.738,-23.438,-20.508,-17.090,-120.605
1688255585.377,33.691,-24.902,-20.020,-41.504,-266.602
1688255585.381,-16.602,-23.438,-27.832,-44.922,-144.531
1688255585.385,-81.055,-24.414,-30.762,-7.812,280.273
1688255585.388,-93.262,-31.250,-32.227,-4.395,180.176
1688255585.392,2.441,-31.250,-33.691,-47.363,-135.742
1688255585.396,36.133,-34.180,-38.086,-56.152,-35.156
1688255585.400,-13.672,-44.922,-41.992,-19.043,329.102
1688255585.404,-92.285,-44.434,-34.668,10.742,117.676
1688255585.421,-91.309,-36.133,-22.949,-0.488,-127.930
1688255585.425,13.672,-33.691,-19.531,-38.086,-58.105
1688255585.429,49.316,-29.785,-21.973,-71.289,-113.770
1688255585.433,-1.465,-27.832,-27.832,-68.848,-257.324
1688255585.437,-82.031,-29.785,-24.902,-35.645,-272.461
1688255585.441,-98.633,-33.203,-22.461,-10.254,40.039
1688255585.445,10.742,-23.926,-21.973,-24.902,164.062
1688255585.448,64.941,-14.160,-23.438,-55.664,-98.633
1688255585.452,2.441,-18.066,-32.715,-55.176,-246.582
1688255585.456,-77.148,-19.043,-39.062,-16.602,21.484
1688255585.460,-110.840,-19.531,-47.363,-0.488,154.785
1688255585.464,-33.203,-15.625,-51.270,-31.250,-33.691
1688255585.465,39.551,-14.160,-34.180,-53.223,-50.781
1688255585.469,9.766,-18.066,-29.297,-49.316,11.719
1688255585.473,-77.637,-28.809,-40.039,-22.949,-96.680
1688255585.477,-124.023,-38.086,-36.621,14.648,-98.633
1688255585.481,-43.945,-33.203,-32.227,-8.301,-45.410
1688255585.485,24.902,-28.320,-34.668,-78.125,-39.062
1688255585.489,1.953,-25.391,-32.715,-96.191,-60.547
1688255585.492,-66.406,-22.461,-34.668,-55.664,-135.254
1688255585.496,-115.723,-21.973,-34.668,-6.348,-42.969
1688255585.500,-52.734,-18.066,-32.715,0.488,346.191
1688255585.504,33.691,-14.160,-39.062,-50.293,145.020
1688255585.508,41.504,-5.859,-27.832,-60.059,-260.742
1688255585.527,-15.137,-6.348,-17.090,-10.742,-153.809
1688255585.531,-95.703,-21.484,-21.973,9.766,37.598
1688255585.535,-54.199,-25.391,-31.738,-18.555,30.273
1688255585.539,48.340,-24.902,-34.180,-62.988,-149.414
1688255585.543,50.293,-26.855,-37.109,-86.426,-185.547
1688255585.547,-11.719,-28.809,-34.180,-52.246,20.996
1688255585.551,-80.078,-26.855,-22.461,-1.953,-8.301
1688255585.554,-38.574,-12.695,-20.508,1.953,-144.531
1688255585.558,49.316,-19.531,-29.785,-25.879,33.203
1688255585.562,46.875,-29.297,-39.062,-40.039,113.281
1688255585.566,-9.277,-23.926,-30.762,-26.367,-171.387
1688255585.570,-93.750,-24.414,-16.602,8.789,-106.445
1688255585.555,-93.750,-28.809,-23.438,24.902,27.344
1688255585.559,20.996,-22.949,-25.391,-8.789,-90.820
1688255585.563,58.105,-16.602,-16.113,-70.801,-249.512
1688255585.567,-4.883,-28.320,-24.902,-75.684,-206.543
1688255585.571,-87.891,-31.250,-41.992,-22.461,14.160
1688255585.575,-94.238,-22.461,-43.945,-6.348,81.543
1688255585.579,7.812,-17.090,-38.086,-38.086,-4.883
1688255585.582,53.711,-19.043,-37.109,-72.754,-79.590
1688255585.586,-3.906,-33.691,-35.645,-57.129,-59.570
1688255585.590,-87.402,-41.992,-34.180,-9.277,-28.320
1688255585.594,-110.840,-48.340,-42.969,-4.395,51.270
1688255585.598,-20.020,-43.945,-55.176,-40.527,17.578
1688255585.600,36.621,-36.621,-46.875,-60.547,272.949
1688255585.604,-7.812,-34.668,-33.691,-50.781,328.613
1688255585.608,-83.008,-27.344,-38.086,-20.020,-44.922
1688255585.612,-96.191,-34.180,-35.156,21.484,-49.316
1688255585.616,-11.719,-50.293,-30.762,0.000,-33.691
1688255585.620,42.969,-54.688,-31.738,-56.641,-103.516
1688255585.624,6.836,-49.805,-22.949,-59.570,-187.988
1688255585.627,-71.289,-46.387,-19.531,-16.113,80.078
1688255585.631,-107.422,-42.969,-19.043,-2.441,431.152
1688255585.635,-21.484,-28.809,-13.672,-24.414,18.555
1688255585.639,58.105,-25.391,-17.090,-44.434,-259.277
1688255585.643,14.160,-38.086,-30.273,-56.152,-179.688
1688255585.645,-72.754,-40.527,-34.180,-36.621,-182.129
1688255585.649,-112.793,-32.715,-31.250,-2.930,-134.766
1688255585.653,-41.016,-36.621,-37.598,-21.973,-62.012
1688255585.657,49.316,-36.621,-39.551,-44.922,-108.887
1688255585.661,41.992,-29.785,-23.926,-35.156,-176.270
1688255585.665,-47.363,-32.227,-20.508,-26.367,-83.008
1688255585.669,-125.977,-40.039,-26.855,-1.465,113.770
1688255585.672,-67.871,-37.109,-25.879,7.324,396.484
1688255585.676,37.109,-37.109,-28.809,-44.922,121.094
1688255585.680,45.898,-35.156,-24.414,-65.430,-190.430
1688255585.684,-15.137,-26.367,-19.043,-28.320,-42.480
1688255585.688,-100.586,-29.785,-27.344,-13.672,38.574
1688255585.690,-69.336,-24.414,-34.668,-23.438,-17.578
1688255585.694,41.504,-28.320,-32.715,-42.969,-154.785
1688255585.698,57.129,-44.922,-33.203,-56.152,-198.730
1688255585.702,-10.254,-40.527,-36.133,-41.504,65.430
1688255585.706,-80.566,-28.320,-35.156,-5.859,-43.945
1688255585.710,-68.848,-30.273,-38.574,-15.625,-162.109
1688255585.714,31.250,-29.785,-31.738,-42.480,77.637
1688255585.717,63.477,-26.367,-24.414,-57.617,86.426
1688255585.721,0.977,-21.973,-29.785,-42.480,-237.305
1688255585.725,-81.543,-20.020,-19.531,21.973,-186.035
1688255585.729,-84.473,-21.973,-13.672,20.020,-5.859
1688255585.733,6.348,-22.949,-20.020,-36.621,-93.262
1688255585.736,32.715,-30.273,-24.902,-54.688,-167.969
1688255585.740,-17.578,-32.227,-30.762,-42.969,-206.055
1688255585.744,-86.426,-25.879,-40.527,-11.230,-0.977
1688255585.748,-97.168,-26.855,-42.969,17.090,58.105
1688255585.752,1.953,-36.133,-31.738,-17.578,-145.996
1688255585.756,53.711,-36.621,-31.738,-58.594,-69.824
1688255585.760,8.789,-42.969,-32.227,-28.809,254.395
1688255585.763,-75.195,-40.039,-40.039,-22.949,14.648
1688255585.767,-105.469,-27.832,-39.062,-25.879,-190.918
1688255585.771,-16.602,-28.809,-38.086,-31.738,-3.906
1688255585.775,43.457,-33.691,-38.086,-58.105,26.855
1688255585.779,13.672,-24.902,-23.926,-55.664,-218.750
1688255585.796,-58.594,-13.672,-12.207,-16.113,-231.934
1688255585.800,-98.145,-14.160,-11.719,17.090,15.625
1688255585.804,-27.344,-16.113,-14.160,-3.418,101.562
1688255585.808,45.898,-16.602,-19.531,-50.781,-101.562
1688255585.812,20.508,-17.578,-25.391,-53.223,-236.816
1688255585.816,-50.293,-21.484,-25.879,-15.625,74.219
1688255585.820,-102.539,-30.762,-29.785,0.977,441.895
1688255585.823,-47.852,-28.809,-32.715,-16.113,54.199
1688255585.827,38.086,-29.785,-24.902,-39.551,-233.887
1688255585.831,31.738,-38.574,-27.344,-42.969,-105.469
1688255585.835,-36.133,-28.320,-36.133,-19.043,-82.031
1688255585.839,-113.281,-16.602,-28.809,0.977,-121.094
1688255585.840,-70.801,-25.879,-24.902,-9.766,-86.914
1688255585.844,16.113,-39.062,-39.551,-30.762,-102.051
1688255585.848,21.973,-31.250,-38.574,-44.434,-219.238
1688255585.852,-35.645,-22.461,-28.320,-31.738,-224.609
1688255585.856,-109.863,-26.855,-36.133,7.324,-37.109
1688255585.860,-70.801,-32.715,-41.016,15.625,189.453
1688255585.864,32.227,-32.715,-35.156,-34.668,53.223
1688255585.867,46.875,-33.691,-41.016,-67.383,-176.758
1688255585.871,-26.855,-48.828,-45.898,-56.152,-146.973
1688255585.875,-115.234,-61.523,-33.203,2.441,282.227
1688255585.879,-84.961,-52.246,-19.531,45.898,324.707
1688255585.883,29.785,-46.875,-27.344,-9.766,-103.516
1688255585.885,62.500,-43.945,-31.250,-66.406,-218.262
1688255585.889,-0.488,-47.363,-26.367,-41.504,-152.832
1688255585.893,-93.750,-53.711,-43.945,-12.695,-150.391
1688255585.897,-86.914,-54.688,-60.059,-11.230,-65.430
1688255585.901,18.066,-63.965,-36.621,-31.738,-18.555
1688255585.905,52.734,-61.035,-16.113,-45.410,-90.820
1688255585.909,-16.602,-49.316,-20.996,-27.832,-98.145
1688255585.912,-93.750,-45.898,-36.621,-15.137,-42.480
1688255585.916,-97.656,-48.828,-41.992,-13.184,207.520
1688255585.920,-12.695,-50.293,-39.062,-29.297,389.160
1688255585.924,36.133,-39.062,-39.062,-68.359,-72.754
1688255585.928,0.488,-36.133,-40.527,-65.430,-271.484
1688255585.930,-82.520,-47.852,-43.945,-1.465,-46.387
1688255585.934,-101.074,-44.434,-46.387,6.836,-41.016
1688255585.938,-7.324,-42.480,-44.434,-34.668,-105.469
1688255585.942,38.086,-46.875,-38.574,-59.082,-136.719
1688255585.946,-3.418,-51.758,-39.551,-72.754,-161.621
1688255585.950,-78.125,-46.875,-45.898,-41.992,-81.543
1688255585.954,-106.934,-36.133,-49.805,5.371,47.852
1688255585.957,-20.020,-33.203,-44.434,-0.977,-1.465
1688255585.961,57.129,-34.668,-33.691,-52.734,116.211
1688255585.965,24.414,-36.133,-30.762,-45.410,0.488
1688255585.969,-66.895,-36.621,-43.457,-13.672,-137.207
1688255585.973,-125.977,-37.598,-44.434,-2.441,98.145
1688255585.975,-51.270,-41.016,-41.016,-27.344,351.562
1688255585.979,50.781,-34.668,-39.062,-65.918,-4.395
1688255585.983,35.645,-32.227,-33.203,-62.500,-322.754
1688255585.987,-46.387,-33.691,-30.273,-38.574,-112.305
1688255585.991,-128.906,-39.062,-34.180,-28.809,85.449
1688255585.995,-57.129,-34.668,-38.574,-29.297,179.199
1688255585.999,45.410,-21.484,-34.180,-66.895,23.926
1688255586.002,28.809,-29.785,-29.297,-90.332,0.000
1688255586.006,-48.340,-22.949,-33.691,-62.988,139.160
1688255586.010,-139.160,-11.230,-45.898,-24.902,3.418
1688255586.014,-94.727,-23.926,-40.527,-26.367,-52.246
1688255586.018,6.836,-23.926,-20.020,-73.730,-42.969
1688255586.022,31.738,-22.461,-16.113,-84.961,-134.277
1688255586.026,-21.484,-29.297,-25.879,-65.918,-188.965
1688255586.030,-103.027,-24.902,-26.855,-20.996,-53.711
1688255586.034,-73.730,-20.508,-23.926,-10.742,174.805
1688255586.038,26.367,-20.508,-23.438,-51.758,50.781
1688255586.042,38.574,-22.949,-21.484,-71.289,-66.895
1688255586.046,-34.180,-31.738,-28.809,-54.688,-9.277
1688255586.049,-104.492,-33.691,-42.480,-15.137,258.301
1688255586.053,-76.660,-25.879,-44.434,-17.578,144.531
1688255586.057,15.625,-26.855,-33.203,-53.711,-162.598
1688255586.061,47.852,-25.391,-30.762,-58.594,-99.609
1688255586.065,-3.906,-23.926,-47.363,-48.828,27.832
1688255586.065,-78.613,-28.320,-52.734,-18.555,-103.027
1688255586.069,-88.379,-30.273,-40.527,6.348,-112.793
1688255586.073,2.930,-37.598,-33.203,-44.922,16.113
1688255586.077,59.570,-33.691,-37.598,-76.172,-10.254
1688255586.081,13.184,-22.949,-26.855,-37.598,-130.859
1688255586.085,-84.473,-32.715,-21.484,-17.090,-99.609
1688255586.089,-107.910,-41.992,-29.297,-16.113,242.188
1688255586.092,-5.371,-46.387,-27.832,-7.324,466.309
1688255586.096,58.105,-37.598,-19.043,-41.016,-30.273
1688255586.100,30.273,-31.250,-19.043,-53.711,-323.242
1688255586.104,-49.316,-31.738,-24.414,-18.555,-172.363
1688255586.108,-106.445,-28.320,-22.949,6.348,-92.773
1688255586.110,-20.508,-26.855,-23.926,0.488,-110.840
1688255586.114,52.246,-24.414,-28.320,-34.668,-158.203
1688255586.118,19.531,-37.598,-33.691,-54.688,-145.508
1688255586.122,-62.012,-36.133,-41.016,-29.785,-115.723
1688255586.126,-106.934,-28.809,-35.645,14.648,-65.430
1688255586.130,-25.879,-33.203,-21.484,1.953,120.605
1688255586.134,60.059,-28.320,-20.508,-37.109,258.301
1688255586.137,44.434,-23.438,-16.113,-49.805,-0.488
1688255586.141,-40.527,-22.949,-12.695,-22.461,-146.973
1688255586.145,-83.496,-20.508,-25.391,20.996,51.758
1688255586.149,-15.137,-29.785,-22.949,18.555,375.000
1688255586.153,56.152,-25.879,-19.531,-13.672,124.512
1688255586.170,47.852,-11.230,-19.043,-31.738,-243.652
1688255586.174,-27.344,-22.461,-17.578,-8.789,-203.613
1688255586.178,-121.582,-38.574,-23.926,17.578,-109.375
1688255586.182,-70.801,-44.922,-29.785,-3.906,-107.422
1688255586.186,48.828,-38.574,-25.879,-25.879,-175.293
1688255586.190,59.082,-30.273,-33.203,-23.926,-53.711
1688255586.194,-17.578,-30.762,-48.340,-16.602,41.992
1688255586.197,-83.496,-30.762,-40.527,4.883,-13.672
1688255586.201,-51.758,-25.391,-27.344,-1.953,-12.207
1688255586.205,23.926,-28.809,-25.391,-34.668,105.957
1688255586.209,41.016,-35.645,-28.320,-55.176,71.777
1688255586.213,-23.926,-35.156,-30.762,-52.246,-195.801
1688255586.215,-104.980,-42.480,-31.738,-13.672,-109.375
1688255586.219,-81.543,-51.270,-38.086,-6.836,57.617
1688255586.223,23.926,-51.270,-35.156,-38.086,-80.078
1688255586.227,55.664,-46.875,-34.668,-63.477,-236.816
1688255586.231,-1.953,-40.527,-43.457,-72.266,-200.195
1688255586.235,-95.215,-37.598,-33.203,-17.578,18.555
1688255586.239,-89.355,-37.598,-26.367,1.465,125.977
1688255586.242,31.250,-33.203,-33.691,-55.664,-46.387
1688255586.246,61.523,-33.203,-31.250,-78.125,-166.016
1688255586.250,-16.113,-37.598,-26.367,-65.430,197.754
1688255586.254,-90.332,-32.715,-29.785,-23.438,214.355
1688255586.258,-99.609,-33.691,-27.344,1.465,-46.387
1688255586.260,-4.883,-32.227,-22.461,-16.602,-34.668
1688255586.264,36.621,-29.785,-26.855,-58.105,78.613
1688255586.268,-12.695,-33.691,-34.668,-63.477,-129.395
1688255586.272,-87.891,-34.180,-31.250,-35.156,-226.074
1688255586.276,-114.746,-43.457,-20.508,-14.648,-50.781
1688255586.280,-19.531,-52.734,-24.414,-17.578,39.062
1688255586.284,46.387,-45.410,-25.879,-50.293,-11.230
1688255586.287,11.719,-33.203,-26.367,-66.895,-154.785
1688255586.291,-60.059,-28.320,-27.832,-31.738,-47.363
1688255586.295,-100.586,-22.949,-20.020,10.742,29.297
1688255586.299,-29.785,-25.879,-16.113,-28.320,-69.824
1688255586.303,62.500,-25.391,-18.066,-50.781,-207.031
1688255586.305,56.641,-35.156,-24.902,-28.809,26.855
1688255586.309,-35.156,-43.457,-33.691,-43.457,333.008
1688255586.313,-120.605,-37.598,-30.273,-14.160,-9.277
1688255586.317,-59.570,-36.133,-31.738,-11.719,-130.371
1688255586.321,42.969,-45.410,-29.297,-63.477,-90.332
1688255586.325,35.156,-39.062,-19.531,-75.684,-117.188
1688255586.329,-39.062,-38.574,-17.090,-35.156,-128.906
1688255586.332,-105.469,-53.223,-22.949,18.555,-57.617
1688255586.336,-69.336,-54.688,-32.715,6.836,265.625
1688255586.340,34.668,-38.086,-35.156,-36.621,146.484
1688255586.344,54.199,-31.738,-31.250,-57.129,-149.902
1688255586.348,-27.344,-26.367,-28.320,-39.551,-144.043
1688255586.365,-116.211,-29.297,-20.508,-4.395,80.078
1688255586.369,-72.754,-45.898,-20.508,-4.883,17.090
1688255586.373,28.320,-51.758,-20.020,-39.062,-118.652
1688255586.377,39.062,-49.805,-25.879,-57.129,-130.859
1688255586.381,-32.227,-44.922,-34.668,-34.180,-143.555
1688255586.385,-111.816,-38.574,-29.297,-7.812,-73.242
1688255586.389,-76.172,-39.062,-25.391,-15.625,-3.906
1688255586.392,40.039,-41.992,-23.438,-41.992,108.887
1688255586.396,52.734,-45.410,-25.879,-58.105,105.469
1688255586.400,-28.320,-49.316,-26.855,-30.762,-232.910
1688255586.404,-111.328,-42.969,-31.738,11.719,-215.820
1688255586.408,-92.773,-30.762,-39.062,9.277,17.090
1688255586.395,9.277,-30.273,-42.969,-33.691,-61.523
1688255586.399,39.551,-37.109,-35.645,-67.871,-227.539
1688255586.403,-16.113,-44.434,-25.879,-51.270,-186.035
1688255586.407,-86.426,-49.805,-31.250,-23.926,17.578
1688255586.411,-93.750,-41.504,-36.133,-18.555,39.551
1688255586.415,6.836,-41.504,-25.391,-26.855,-60.059
1688255586.419,57.617,-53.223,-14.648,-33.691,-25.391
1688255586.422,-1.465,-45.410,-20.020,-41.504,116.211
1688255586.426,-98.145,-35.645,-38.086,-17.090,-10.254
1688255586.430,-122.070,-41.504,-47.852,3.418,-65.430
1688255586.434,-12.207,-43.457,-38.086,-38.574,35.156
1688255586.438,71.777,-41.016,-41.992,-66.895,256.348
1688255586.440,25.879,-39.551,-53.223,-62.988,99.121
1688255586.444,-76.660,-39.551,-46.875,-46.387,-190.918
1688255586.448,-112.793,-41.016,-27.832,-18.555,-29.785
1688255586.452,-26.855,-41.016,-23.438,-37.598,78.613
1688255586.456,42.480,-37.598,-34.180,-73.242,-145.020
1688255586.460,-4.883,-36.133,-42.480,-63.965,-228.516
1688255586.464,-86.426,-38.086,-45.410,-24.902,65.430
1688255586.467,-126.465,-40.039,-38.086,2.930,314.453
1688255586.471,-38.574,-36.621,-29.785,2.441,45.410
1688255586.475,62.012,-33.691,-35.156,-43.457,-213.867
1688255586.479,27.832,-37.598,-35.156,-76.660,-111.328
1688255586.483,-63.965,-35.156,-37.109,-43.945,-108.398
1688255586.485,-120.605,-30.273,-48.340,-22.461,-114.258
1688255586.489,-57.129,-32.715,-41.016,-29.785,-26.855
1688255586.493,41.992,-29.297,-23.926,-49.316,-51.758
1688255586.497,40.527,-20.508,-18.555,-65.430,-153.320
1688255586.501,-33.203,-14.160,-23.926,-48.340,-221.680
1688255586.505,-107.422,-18.555,-27.832,-12.695,-22.949
1688255586.509,-49.316,-23.438,-30.273,-6.348,358.398
1688255586.512,59.082,-20.508,-25.879,-32.227,120.605
1688255586.516,40.527,-17.578,-21.484,-49.316,-191.406
1688255586.520,-47.363,-23.438,-27.832,-51.270,-94.727
1688255586.524,-126.465,-29.297,-50.293,-20.020,134.766
1688255586.528,-98.145,-34.668,-63.965,-24.414,98.145
1688255586.531,18.555,-32.227,-38.086,-83.008,-181.641
1688255586.535,45.410,-27.344,-20.020,-86.426,-207.520
1688255586.539,-34.180,-41.992,-32.227,-39.551,66.406
1688255586.543,-119.629,-48.828,-38.574,-10.742,-35.645
1688255586.547,-83.984,-44.922,-19.043,-8.789,-99.609
1688255586.551,27.344,-42.969,-22.461,-31.250,36.133
1688255586.555,49.805,-33.691,-48.340,-61.035,18.066
1688255586.558,-15.137,-32.227,-51.758,-66.406,-173.340
1688255586.562,-109.863,-32.715,-50.781,-39.062,-169.434
1688255586.566,-92.773,-24.902,-49.316,-22.949,164.551
1688255586.570,25.879,-19.531,-40.039,-32.227,209.473
1688255586.574,42.480,-22.949,-25.879,-67.383,-176.758
1688255586.590,-15.137,-32.715,-16.113,-52.734,-252.930
1688255586.594,-88.867,-35.645,-17.090,-0.977,12.695
1688255586.598,-101.562,-32.227,-20.508,0.000,55.664
1688255586.602,3.418,-26.855,-18.555,-40.039,-121.582
1688255586.606,70.312,-31.738,-27.832,-75.195,-165.527
1688255586.610,28.809,-41.016,-30.273,-41.992,79.590
1688255586.614,-80.566,-39.551,-28.320,-5.859,96.680
1688255586.617,-114.746,-24.902,-30.273,-7.324,-44.922
1688255586.621,-1.953,-14.160,-33.691,-17.578,-42.480
1688255586.625,72.266,-10.254,-41.504,-46.875,181.152
1688255586.629,16.113,-13.184,-48.340,-79.590,49.805
1688255586.633,-88.379,-27.344,-38.574,-60.059,-195.312
1688255586.635,-135.742,-33.691,-17.578,-10.254,-28.809
1688255586.639,-49.805,-36.133,-11.719,-0.488,154.785
1688255586.643,34.180,-32.227,-20.508,-36.621,-111.816
1688255586.647,7.812,-40.527,-34.668,-40.527,-273.438
1688255586.651,-76.660,-56.152,-45.410,-20.508,-56.641
1688255586.655,-126.953,-51.758,-40.039,-15.625,186.035
1688255586.659,-48.340,-40.039,-35.645,-37.109,104.980
1688255586.662,40.039,-35.645,-37.598,-59.082,-179.688
1688255586.666,27.832,-44.922,-41.504,-66.406,-110.840
1688255586.670,-56.152,-44.922,-45.898,-63.965,85.449
1688255586.674,-115.234,-31.738,-46.387,-30.273,-56.152
1688255586.678,-54.688,-26.855,-41.504,-27.344,-33.203
1688255586.680,33.691,-29.785,-36.621,-55.664,-19.531
1688255586.684,43.457,-31.738,-37.109,-67.383,-214.355
1688255586.688,-38.086,-32.227,-39.062,-46.387,-248.535
1688255586.692,-136.719,-31.738,-38.086,-7.324,-94.238
1688255586.696,-98.145,-31.738,-22.461,-16.113,25.391
1688255586.700,15.137,-28.320,-20.020,-56.641,-23.926
1688255586.704,28.320,-24.902,-29.785,-69.336,-135.254
1688255586.707,-28.809,-27.344,-37.109,-44.434,-124.512
1688255586.711,-100.098,-31.738,-37.109,-2.441,274.414
1688255586.715,-90.332,-39.062,-48.340,-4.395,296.875
1688255586.719,9.766,-38.574,-50.293,-44.434,-72.266
1688255586.723,30.762,-36.133,-34.180,-76.172,-151.855
1688255586.725,-26.855,-40.039,-23.438,-56.152,-76.172
1688255586.729,-106.445,-31.738,-26.367,-16.602,-146.973
1688255586.733,-107.422,-21.484,-22.949,-9.766,-97.168
1688255586.737,-2.930,-9.277,-19.531,-31.738,-60.059
1688255586.741,51.270,-6.836,-28.809,-65.918,-171.875
1688255586.745,0.977,-13.672,-48.340,-58.594,-169.434
1688255586.749,-80.566,-15.137,-38.086,-14.160,-88.867
1688255586.752,-93.750,-27.344,-17.090,-7.812,99.609
1688255586.756,-23.438,-29.297,-17.090,-33.691,230.469
1688255586.760,21.484,-16.602,-29.297,-58.594,-91.797
1688255586.764,-2.930,-10.742,-34.180,-52.734,-271.973
1688255586.768,-91.797,-11.230,-21.973,-11.230,-6.836
1688255586.770,-125.977,-6.836,-24.902,4.883,105.469
1688255586.774,-15.625,-8.301,-29.297,-23.926,-81.055
1688255586.778,48.828,-20.508,-22.461,-57.129,-132.324
1688255586.782,17.090,-21.973,-17.578,-54.199,-82.520
1688255586.786,-69.336,-21.484,-28.320,-27.344,-57.617
1688255586.790,-118.652,-24.902,-34.180,-1.953,85.449
1688255586.794,-31.250,-22.949,-25.391,-20.020,161.621
1688255586.797,36.621,-33.691,-19.531,-47.363,260.254
1688255586.801,0.488,-28.809,-37.109,-63.477,1.953
1688255586.805,-62.500,-10.254,-36.133,-35.645,-212.402
1688255586.809,-110.840,-10.742,-18.555,13.184,40.039
1688255586.813,-54.199,-14.648,-18.066,-1.953,245.117
1688255586.815,30.273,-12.695,-20.508,-56.641,-34.668
1688255586.819,20.996,-10.254,-21.973,-77.148,-282.227
1688255586.823,-43.457,-16.113,-29.297,-47.852,-150.879
1688255586.827,-113.281,-21.484,-48.340,-30.762,39.551
1688255586.831,-60.547,-23.926,-54.688,-42.480,-24.902
1688255586.835,45.898,-28.320,-35.645,-65.918,-124.512
1688255586.839,51.270,-24.414,-29.785,-71.289,85.449
1688255586.842,-23.438,-25.391,-39.062,-36.621,204.102
1688255586.846,-126.953,-35.645,-46.387,-17.090,-48.828
1688255586.850,-87.402,-29.785,-22.949,-26.367,-65.430
1688255586.854,27.344,-27.344,-13.672,-60.547,-73.242
1688255586.858,41.016,-30.273,-26.855,-83.984,-227.539
1688255586.861,-21.973,-25.391,-20.508,-49.316,-252.441
1688255586.865,-102.051,-26.367,-20.020,0.977,-55.664
1688255586.869,-71.289,-31.250,-36.133,-4.395,256.348
1688255586.873,16.113,-31.738,-34.668,-43.457,35.645
1688255586.877,28.320,-33.691,-37.109,-62.500,-254.883
1688255586.881,-27.344,-34.668,-31.738,-42.480,-5.859
1688255586.885,-107.910,-39.551,-26.367,-17.090,314.941
1688255586.888,-99.121,-41.504,-32.715,-9.277,170.410
1688255586.892,20.996,-37.598,-33.691,-18.066,-97.656
1688255586.896,51.270,-48.340,-41.016,-47.363,-167.969
1688255586.900,-17.090,-53.711,-36.133,-38.086,120.605
1688255586.904,-98.145,-36.133,-22.461,-21.484,48.340
1688255586.920,-97.656,-25.879,-13.672,-14.648,-80.078
1688255586.924,3.906,-27.344,-18.066,-46.387,-23.438
1688255586.928,46.387,-38.574,-31.250,-82.520,-157.715
1688255586.932,4.883,-42.969,-26.855,-59.082,-263.184
1688255586.936,-97.168,-40.039,-31.250,-21.484,-198.242
1688255586.940,-115.234,-41.992,-31.738,-7.324,140.625
1688255586.944,-5.859,-45.410,-21.973,-32.227,467.773
1688255586.947,45.410,-43.945,-29.785,-73.242,-29.785
1688255586.951,3.418,-44.434,-48.828,-61.523,-331.543
1688255586.955,-84.473,-46.387,-46.387,-7.812,-91.797
1688255586.959,-130.859,-38.086,-34.668,5.371,-23.438
1688255586.963,-37.109,-30.273,-31.250,-14.648,-121.094
1688255586.965,38.574,-39.551,-27.344,-35.645,-154.297
1688255586.969,9.277,-47.363,-17.578,-41.504,-152.832
1688255586.973,-65.430,-43.457,-12.695,-14.648,-148.438
1688255586.977,-110.840,-47.363,-22.461,5.371,-74.219
1688255586.981,-41.992,-51.270,-29.785,-20.508,-8.301
1688255586.985,41.016,-44.434,-30.273,-47.363,8.789
1688255586.989,34.668,-38.574,-30.273,-53.711,-83.984
1688255586.992,-48.340,-34.180,-35.156,-24.414,-53.223
1688255586.996,-117.676,-30.762,-29.785,7.812,139.160
1688255587.000,-51.758,-36.133,-22.461,11.230,471.191
1688255587.004,44.434,-44.922,-28.320,-22.949,370.605
1688255587.008,43.945,-39.062,-30.762,-62.500,-183.594
1688255587.011,-31.250,-33.203,-31.250,-34.180,-154.785
1688255587.015,-112.305,-41.992,-34.180,12.207,212.402
1688255587.019,-65.430,-47.852,-36.621,-8.301,69.824
1688255587.023,39.062,-51.270,-41.992,-55.176,-193.848
1688255587.027,32.227,-58.594,-46.387,-60.547,-224.609
1688255587.031,-47.852,-53.223,-48.828,-33.691,-88.867
1688255587.035,-121.582,-48.340,-51.758,0.977,18.066
1688255587.038,-81.055,-45.898,-37.598,1.465,-71.777
1688255587.042,36.133,-38.086,-23.438,-22.461,84.961
1688255587.046,45.898,-30.273,-26.855,-49.805,330.078
1688255587.050,-25.879,-22.461,-24.902,-55.176,-95.215
1688255587.054,-102.539,-21.484,-21.973,-16.602,-226.074
1688255587.056,-95.703,-28.320,-20.508,8.789,24.902
1688255587.060,15.137,-37.598,-21.484,-19.531,-65.918
1688255587.064,58.105,-41.504,-20.996,-66.406,-235.352
1688255587.068,-8.789,-37.598,-20.020,-68.848,-212.402
1688255587.072,-116.699,-37.598,-26.855,-26.855,-66.895
1688255587.076,-115.234,-40.039,-23.926,1.953,54.199
1688255587.080,-5.371,-39.551,-12.695,-28.320,-37.598
1688255587.083,48.828,-34.668,-19.531,-49.805,-121.094
1688255587.087,16.113,-24.414,-18.555,-32.715,126.465
1688255587.091,-73.242,-32.715,-15.137,-15.137,61.523
1688255587.095,-101.562,-47.363,-18.555,4.883,-83.984
1688255587.099,-5.371,-41.504,-19.043,-18.066,65.918
1688255587.100,58.594,-27.344,-16.602,-40.527,216.797
1688255587.104,21.484,-22.949,-20.508,-42.480,-103.027
1688255587.108,-66.406,-20.996,-34.668,-14.648,-235.840
1688255587.112,-92.773,-19.531,-26.855,23.926,-35.645
1688255587.116,4.883,-23.438,-12.207,-8.789,-68.848
1688255587.120,57.617,-29.785,-17.090,-60.059,-123.047
1688255587.124,20.996,-31.738,-21.973,-48.340,-118.652
1688255587.127,-47.852,-16.602,-13.184,3.906,21.484
1688255587.131,-103.516,-15.625,-3.906,20.508,211.914
1688255587.135,-37.109,-33.691,-10.254,-17.090,-18.555
1688255587.139,34.180,-35.156,-15.137,-49.805,-191.895
1688255587.143,15.625,-36.621,-10.742,-57.129,-183.594
1688255587.147,-57.129,-41.504,-23.438,-27.344,-190.430
1688255587.151,-108.887,-35.156,-25.879,9.766,-89.844
1688255587.155,-45.898,-35.645,-27.344,-2.930,95.215
1688255587.159,41.504,-34.668,-22.949,-50.293,97.168
1688255587.163,31.738,-32.715,-13.672,-64.941,-128.418
1688255587.167,-56.152,-38.574,-20.020,-35.156,-144.043
1688255587.171,-121.582,-39.062,-29.297,-16.602,48.828
1688255587.174,-70.801,-37.109,-30.762,-20.508,322.754
1688255587.178,23.438,-42.969,-36.621,-52.246,94.238
1688255587.182,40.527,-41.016,-27.832,-51.758,-255.859
1688255587.186,-31.250,-45.410,-17.578,-29.297,-87.402
1688255587.190,-110.840,-42.969,-20.508,-13.184,172.363
1688255587.191,-76.172,-31.738,-19.043,4.395,-2.441
1688255587.195,25.391,-25.879,-13.672,-27.344,-201.660
1688255587.199,47.363,-20.020,-12.695,-56.641,-132.324
1688255587.203,-18.555,-20.508,-12.207,-31.250,-125.977
1688255587.207,-89.844,-29.785,-16.602,-14.160,-64.453
1688255587.211,-72.754,-43.457,-20.996,-29.785,22.949
1688255587.215,29.297,-44.922,-16.113,-60.547,131.348
1688255587.218,59.082,-39.551,-19.531,-79.102,308.594
1688255587.222,-4.883,-37.598,-27.832,-66.895,-116.211
1688255587.226,-86.426,-34.668,-31.738,-20.508,-266.113
1688255587.230,-103.516,-34.180,-21.973,0.977,-22.949
1688255587.234,-5.371,-34.668,-20.020,-43.457,-116.699
1688255587.236,40.527,-34.668,-27.832,-78.613,-312.500
1688255587.240,-13.184,-30.762,-25.879,-55.664,-278.320
1688255587.244,-95.703,-26.367,-20.996,-14.160,-73.730
1688255587.248,-97.656,-24.902,-25.879,7.324,-26.855
1688255587.252,14.648,-22.461,-29.297,-23.438,-130.371
1688255587.256,59.082,-21.484,-20.508,-65.918,-25.391
1688255587.260,6.836,-31.250,-18.555,-50.293,275.879
1688255587.263,-76.660,-41.016,-28.320,-8.789,94.727
1688255587.267,-96.191,-32.715,-32.715,14.160,-162.598
1688255587.271,-13.184,-28.320,-28.809,-0.977,-93.262
1688255587.275,37.109,-37.109,-24.414,-26.367,203.125
1688255587.279,4.395,-27.344,-31.250,-46.387,1.953
1688255587.280,-84.473,-20.508,-30.273,-20.508,-180.176
1688255587.284,-133.301,-30.273,-25.879,0.488,35.156
1688255587.288,-35.645,-32.715,-33.691,-31.250,55.664
1688255587.292,63.477,-30.762,-38.086,-62.988,-134.766
1688255587.296,34.668,-35.645,-31.250,-63.477,-254.883
1688255587.300,-57.129,-36.133,-18.066,-28.809,-43.945
1688255587.304,-112.793,-31.250,-17.578,-8.301,120.605
1688255587.307,-48.340,-20.020,-27.344,-38.574,-34.180
1688255587.311,43.945,-17.090,-31.250,-78.613,-219.238
1688255587.315,31.250,-20.508,-23.438,-70.801,-34.180
1688255587.319,-44.922,-19.531,-19.531,-33.691,224.121
1688255587.323,-115.234,-21.484,-28.809,-4.395,19.531
1688255587.341,-63.965,-29.785,-24.414,4.395,-67.383
1688255587.345,27.832,-37.598,-27.344,-40.039,-70.801
1688255587.349,22.461,-32.227,-33.203,-80.566,-149.414
1688255587.353,-40.527,-29.785,-20.508,-42.969,-170.898
1688255587.357,-121.094,-41.504,-16.602,16.602,-30.762
1688255587.361,-84.961,-48.828,-28.320,7.812,176.758
1688255587.365,19.531,-42.480,-29.297,-45.410,20.508
1688255587.368,28.320,-34.668,-29.297,-77.637,-199.707
1688255587.372,-39.062,-39.551,-26.367,-51.758,-151.855
1688255587.376,-125.977,-47.852,-30.762,-9.766,265.137
1688255587.380,-88.379,-43.457,-48.828,-7.324,290.527
1688255587.384,31.250,-37.109,-46.387,-44.922,-97.168
1688255587.386,41.016,-38.574,-31.250,-84.473,-80.566
1688255587.390,-38.574,-45.898,-25.879,-73.242,179.688
1688255587.394,-119.141,-45.898,-26.367,-43.457,9.277
1688255587.398,-92.773,-41.504,-24.414,-27.344,-121.582
1688255587.402,32.227,-38.574,-24.902,-57.617,-74.219
1688255587.406,41.016,-44.922,-15.137,-78.125,-74.707
1688255587.410,-41.992,-52.734,-10.254,-69.336,-129.395
1688255587.413,-122.559,-43.945,-16.113,-30.762,-159.668
1688255587.417,-140.137,-34.668,-14.160,-8.301,118.164
1688255587.421,-66.895,-34.180,-16.113,-78.613,229.980
1688255587.425,-0.488,-29.297,-15.137,-124.023,-195.801
1688255587.429,-20.508,-33.203,-5.859,-88.867,-267.090
1688255587.431,-123.047,-26.367,-16.602,-56.641,-39.062
1688255587.435,-153.320,-19.531,-22.949,-55.176,27.832
1688255587.439,-74.219,-20.996,-13.184,-73.730,6.836
1688255587.443,-32.715,-16.602,-11.230,-118.164,-104.492
1688255587.447,-32.715,-18.066,-17.578,-127.930,-82.520
1688255587.451,-112.793,-12.695,-24.902,-100.586,-83.496
1688255587.455,-186.035,-12.207,-19.531,-83.496,-57.129
1688255587.458,-113.770,-14.648,-12.695,-94.238,54.688
1688255587.462,-33.203,-20.508,-6.836,-137.695,194.336
1688255587.466,-46.875,-20.020,0.488,-158.691,9.277
1688255587.470,-116.211,-17.578,-20.508,-117.188,-68.359
1688255587.474,-152.344,-22.949,-46.387,-78.613,62.500
1688255587.475,-103.027,-21.484,-32.227,-110.352,31.738
1688255587.479,-55.664,-8.301,-17.090,-162.598,-155.762
1688255587.483,-82.031,-5.371,-21.484,-166.504,-268.555
1688255587.487,-139.648,-18.066,-19.531,-125.977,-104.980
1688255587.491,-159.180,-14.648,-16.113,-99.609,140.625
1688255587.495,-76.172,-6.836,-27.344,-94.727,145.020
1688255587.499,3.906,-15.137,-39.062,-95.703,-58.594
1688255587.502,-4.395,-19.043,-39.551,-103.027,-54.199
1688255587.506,-64.941,-0.488,-23.438,-72.266,265.625
1688255587.510,-124.512,12.207,-10.742,-28.809,58.594
1688255587.514,-42.480,-6.348,-5.859,-15.137,-119.141
1688255587.518,25.391,-11.230,-7.324,-48.340,-82.031
1688255587.521,3.418,3.906,-12.695,-61.523,-240.723
1688255587.525,-43.945,10.742,-20.020,-32.715,-259.277
1688255587.529,-91.797,0.977,-31.738,8.789,-74.707
1688255587.533,-42.969,-5.859,-45.410,7.324,97.168
1688255587.537,33.691,-17.578,-47.363,-41.504,-0.488
1688255587.541,57.617,-41.016,-38.574,-64.453,-118.652
1688255587.545,29.785,-40.527,-39.062,-23.438,-41.016
1688255587.548,-42.969,-30.273,-44.434,31.738,372.070
1688255587.552,-32.715,-47.363,-42.480,27.832,378.906
1688255587.556,58.594,-55.176,-32.715,-2.441,-39.551
1688255587.560,63.965,-38.574,-27.344,-23.926,-89.355
1688255587.564,17.090,-28.320,-33.691,-24.414,-21.973
1688255587.566,-42.480,-27.344,-44.434,22.461,-116.211
1688255587.570,-46.387,-23.438,-42.480,44.922,-73.730
1688255587.574,44.434,-30.762,-36.621,13.184,-14.160
1688255587.578,80.078,-38.574,-40.527,10.254,-96.191
1688255587.582,32.227,-32.227,-46.875,20.020,-183.105
1688255587.586,-18.066,-39.062,-52.734,50.781,-125.977
1688255587.590,-6.836,-45.898,-57.617,66.895,195.312
1688255587.593,60.547,-44.434,-65.430,15.137,319.336
1688255587.597,74.219,-33.203,-64.453,-15.625,-158.691
1688255587.601,62.988,-33.691,-50.781,0.488,-298.828
1688255587.605,31.738,-35.645,-42.480,30.762,16.113
1688255587.609,-33.691,-36.133,-46.387,70.801,63.477
1688255587.611,15.625,-42.969,-47.363,55.176,-115.723
1688255587.615,81.055,-35.645,-41.504,10.254,-187.500
1688255587.619,64.941,-40.039,-35.645,17.578,-106.934
1688255587.623,13.184,-42.969,-33.203,75.684,-48.828
1688255587.627,-16.113,-35.156,-38.086,106.934,-43.457
1688255587.631,41.992,-32.715,-42.969,76.172,135.742
1688255587.635,79.590,-34.180,-45.898,5.859,304.688
1688255587.638,65.430,-35.645,-46.387,-11.230,-23.926
1688255587.642,29.785,-34.668,-48.828,30.762,-218.262
1688255587.646,-16.113,-34.668,-49.316,63.965,33.691
1688255587.650,43.457,-40.039,-51.758,33.203,168.457
1688255587.654,91.309,-49.316,-48.828,-17.090,-50.781
1688255587.657,59.082,-48.340,-50.781,-25.391,-255.859
1688255587.661,24.414,-44.922,-47.852,4.883,-145.996
1688255587.665,-42.480,-48.340,-46.387,67.383,169.922
1688255587.669,-19.531,-37.598,-48.828,52.734,10.742
1688255587.673,60.547,-28.809,-52.246,8.301,-213.867
1688255587.677,71.289,-38.574,-63.477,13.184,-92.773
1688255587.681,19.043,-45.898,-55.176,3.906,20.508
1688255587.684,-41.992,-48.828,-43.945,19.043,-21.973
1688255587.688,-5.371,-53.711,-40.527,37.598,-67.383
1688255587.692,58.105,-51.758,-37.109,6.348,8.301
1688255587.696,70.312,-30.762,-32.227,-10.742,-19.531
1688255587.700,32.715,-25.879,-27.832,18.555,-226.562
1688255587.731,-45.410,-42.969,-21.484,49.316,-126.465
1688255587.735,-32.715,-49.805,-26.367,49.316,44.922
1688255587.739,40.527,-37.109,-34.668,8.789,-30.273
1688255587.743,41.992,-24.414,-32.227,-38.574,-177.734
1688255587.747,9.277,-33.203,-37.598,-23.438,-246.582
1688255587.751,-53.223,-47.363,-46.875,29.785,251.465
1688255587.755,-71.289,-52.246,-41.504,26.367,343.750
1688255587.758,10.254,-53.223,-34.668,-27.832,-93.262
1688255587.762,53.223,-48.340,-25.879,-47.852,-189.941
1688255587.766,31.738,-46.875,-20.020,-23.438,0.488
1688255587.770,-30.273,-40.527,-19.043,20.996,83.984
1688255587.774,-61.523,-33.203,-21.973,47.363,5.859
1688255587.761,5.371,-28.809,-32.227,11.230,2.930
1688255587.765,41.504,-27.832,-30.273,-36.133,46.875
1688255587.769,9.277,-32.227,-24.902,-46.387,-156.250
1688255587.773,-53.711,-36.621,-25.879,-6.348,-177.734
1688255587.777,-66.406,-37.109,-20.996,28.320,41.016
1688255587.781,1.953,-35.645,-20.020,18.066,159.668
1688255587.785,34.180,-33.691,-29.785,-19.531,-8.301
1688255587.788,27.344,-35.645,-39.551,-36.621,-131.348
1688255587.792,1.465,-43.457,-27.832,-0.977,10.254
1688255587.796,-43.457,-45.410,-17.578,35.645,46.875
1688255587.800,-6.348,-36.621,-30.762,10.254,-48.828
1688255587.804,19.531,-27.344,-33.691,-41.992,-208.008
1688255587.806,0.977,-32.715,-27.344,-43.457,-10.254
1688255587.810,-12.695,-32.715,-31.738,12.695,311.035
1688255587.814,-47.852,-26.367,-37.598,40.527,20.508
1688255587.818,-31.738,-27.832,-40.039,7.324,-121.094
1688255587.822,11.719,-19.531,-28.320,-44.434,-105.957
1688255587.826,1.953,-7.812,-11.719,-55.664,-148.926
1688255587.830,-59.570,-16.602,-19.531,-32.715,-138.672
1688255587.833,-106.934,-28.320,-27.832,0.000,-5.859
1688255587.837,-34.180,-32.715,-23.438,17.090,434.082
1688255587.841,36.621,-45.410,-27.832,-0.488,220.215
1688255587.845,7.812,-47.852,-38.086,-43.457,-208.984
1688255587.849,-52.734,-30.273,-45.898,-57.617,-120.605
1688255587.850,-108.398,-13.672,-45.410,-8.789,89.844
1688255587.854,-63.965,-14.160,-48.340,17.578,-24.902
1688255587.858,13.672,-23.926,-50.781,-22.461,-201.172
1688255587.862,18.066,-20.996,-51.270,-65.430,-230.957
1688255587.866,-25.879,-14.160,-55.664,-68.359,-198.730
1688255587.870,-76.660,-19.531,-52.734,5.371,-92.773
1688255587.874,-40.039,-21.973,-46.387,29.297,-51.758
1688255587.877,40.039,-20.020,-45.410,-21.484,48.340
1688255587.881,33.203,-23.438,-53.223,-41.504,104.492
1688255587.885,-15.625,-25.391,-52.246,-30.762,-195.312
1688255587.889,-44.922,-39.062,-38.086,21.484,-112.793
1688255587.893,-40.039,-45.898,-35.645,29.785,203.125
1688255587.895,2.441,-30.273,-39.551,-33.203,64.941
1688255587.899,26.367,-16.602,-35.156,-64.941,-244.141
1688255587.903,4.395,-17.578,-23.926,-52.734,-187.012
1688255587.907,-68.848,-21.484,-20.996,-11.719,115.234
1688255587.911,-85.938,-27.832,-24.902,26.367,120.117
1688255587.915,-0.977,-31.738,-25.879,-0.488,49.805
1688255587.919,36.133,-25.879,-38.574,-52.734,-19.531
1688255587.922,-14.160,-27.832,-49.805,-52.246,78.613
1688255587.926,-69.336,-22.949,-38.574,5.371,38.086
1688255587.930,-70.801,-19.531,-24.414,31.738,-76.660
1688255587.934,-5.371,-31.738,-22.949,-8.789,118.164
1688255587.938,39.062,-37.598,-14.160,-34.668,60.059
1688255587.941,17.578,-39.062,-11.719,-34.668,-174.805
1688255587.945,-31.250,-30.273,-20.996,-13.184,-104.492
1688255587.949,-56.641,-22.949,-16.113,16.113,23.926
1688255587.953,-4.883,-23.926,-12.695,10.254,31.738
1688255587.957,35.645,-19.043,-20.508,-16.602,-191.895
1688255587.961,22.949,-20.508,-21.484,-51.270,-244.629
1688255587.965,-27.832,-30.762,-23.438,-15.137,48.340
1688255587.968,-87.402,-43.457,-32.227,24.902,311.035
1688255587.972,-42.969,-39.551,-39.551,-14.160,-10.254
1688255587.976,19.043,-21.484,-41.016,-51.270,-245.117
1688255587.980,6.836,-20.020,-33.203,-49.805,-189.453
1688255587.984,-32.227,-25.391,-18.066,-13.184,-181.641
1688255587.985,-66.895,-12.695,-4.883,9.277,-124.512
1688255587.989,-32.227,-13.184,-4.395,8.301,-87.402
1688255587.993,35.156,-22.461,-8.789,-10.742,-114.258
1688255587.997,36.621,-22.949,-7.324,-55.664,-142.090
1688255588.001,-34.180,-29.785,-15.625,-48.828,-166.504
1688255588.005,-84.473,-34.668,-24.414,-0.977,9.766
1688255588.009,-36.621,-35.645,-27.832,12.207,402.344
1688255588.012,23.926,-31.738,-28.809,-27.832,259.766
1688255588.016,2.441,-34.180,-35.156,-73.242,-233.887
1688255588.020,-44.922,-36.621,-38.086,-44.922,-190.918
1688255588.024,-104.980,-39.551,-31.738,7.812,67.383
1688255588.028,-87.402,-44.434,-33.691,3.418,60.547
1688255588.031,-2.930,-42.480,-25.879,-31.738,-108.398
1688255588.035,13.184,-42.480,-15.137,-71.289,-180.664
1688255588.039,-30.762,-42.969,-18.555,-55.176,-68.359
1688255588.043,-75.684,-41.504,-13.672,6.348,-80.566
1688255588.047,-69.336,-46.387,-20.020,13.672,-19.043
1688255588.051,-5.371,-40.527,-27.832,-22.949,145.996
1688255588.055,20.996,-36.621,-27.832,-60.059,72.754
1688255588.058,-5.859,-37.109,-32.715,-60.059,-90.332
1688255588.062,-64.453,-28.809,-38.086,-33.691,-108.887
1688255588.066,-84.473,-31.738,-45.898,-9.277,159.668
1688255588.070,-7.812,-34.668,-47.852,-39.062,343.262
1688255588.074,17.578,-33.203,-36.621,-88.867,-127.441
1688255588.091,-15.625,-36.621,-27.344,-64.453,-289.551
1688255588.095,-63.477,-34.180,-30.273,-17.578,-100.098
1688255588.099,-101.074,-40.039,-32.227,1.465,-20.020
1688255588.103,-40.527,-49.316,-32.715,-37.109,-73.242
1688255588.107,-1.465,-54.688,-43.945,-83.008,-191.406
1688255588.111,-27.832,-55.664,-33.691,-67.383,-94.727
1688255588.115,-71.289,-52.734,-11.230,-35.645,-6.836
1688255588.118,-91.797,-57.617,-13.672,-9.766,-10.742
1688255588.122,-28.809,-53.711,-16.602,-7.812,44.434
1688255588.126,32.227,-50.781,0.977,-44.434,361.328
1688255588.130,13.184,-56.641,4.883,-65.430,313.965
1688255588.134,-55.176,-51.758,-11.230,-33.203,-153.809
1688255588.136,-119.141,-46.387,-23.438,7.324,-100.098
1688255588.140,-71.289,-42.480,-29.785,-23.926,-57.129
1688255588.144,8.789,-33.691,-32.715,-71.777,-208.008
1688255588.148,-16.113,-34.668,-39.062,-71.777,-286.133
1688255588.152,-65.430,-35.645,-48.828,-33.691,-252.441
1688255588.156,-71.289,-30.762,-43.945,15.137,-17.090
1688255588.160,-45.898,-31.738,-34.668,11.719,80.078
1688255588.163,-7.812,-37.598,-29.785,-55.176,-125.488
1688255588.167,1.953,-37.598,-22.949,-88.867,-68.848
1688255588.171,-47.363,-39.062,-22.461,-64.941,80.078
1688255588.175,-93.262,-27.344,-27.344,-22.461,-5.859
1688255588.179,-55.176,-18.066,-24.414,-9.277,62.500
1688255588.180,13.672,-15.137,-20.996,-49.316,36.133
1688255588.184,16.602,-10.742,-25.391,-74.219,-238.770
1688255588.188,-6.836,-18.555,-30.762,-47.852,-340.332
1688255588.192,-56.152,-29.785,-33.691,-15.625,-104.980
1688255588.196,-56.152,-28.809,-30.762,-6.348,55.176
1688255588.200,-7.324,-27.344,-31.250,-58.105,-10.254
1688255588.204,3.418,-25.391,-32.227,-95.703,-112.305
1688255588.207,-17.090,-22.949,-35.156,-63.477,-163.086
1688255588.211,-66.895,-30.762,-37.598,10.742,210.938
1688255588.215,-55.664,-42.969,-29.297,34.668,233.398
1688255588.219,20.996,-43.945,-28.320,-22.461,-20.508
1688255588.223,32.227,-30.762,-27.344,-53.223,-26.855
1688255588.242,-7.324,-30.273,-22.949,-42.969,45.410
1688255588.246,-82.520,-31.738,-31.738,-33.691,-24.902
1688255588.250,-101.074,-26.855,-38.086,-9.277,-83.008
1688255588.254,-24.902,-29.297,-33.203,-23.438,-38.574
1688255588.258,4.883,-32.227,-25.391,-52.734,-16.113
1688255588.262,-29.785,-37.109,-27.832,-41.992,-96.680
1688255588.266,-70.312,-34.180,-32.227,-15.137,-109.375
1688255588.269,-66.406,-31.250,-34.180,-11.719,139.160
1688255588.273,3.906,-27.344,-46.875,-46.387,332.031
1688255588.277,23.438,-21.973,-44.922,-86.914,-64.941
1688255588.281,-6.348,-30.273,-27.344,-81.543,-276.367
1688255588.285,-47.363,-35.156,-20.996,-36.621,-81.055
1688255588.270,-69.824,-29.297,-26.855,1.465,-14.160
1688255588.274,-20.508,-24.414,-29.785,-13.672,-97.168
1688255588.278,12.695,-26.855,-23.438,-64.941,-202.637
1688255588.282,-13.184,-31.250,-16.602,-79.590,-187.988
1688255588.286,-61.035,-34.180,-22.461,-24.902,-99.609
1688255588.290,-82.520,-27.344,-15.625,35.156,46.875
1688255588.294,-29.297,-20.020,-13.184,16.602,108.398
1688255588.297,10.742,-24.902,-17.090,-47.363,-1.465
1688255588.301,-5.859,-24.902,-16.113,-74.707,-190.430
1688255588.305,-24.902,-23.438,-30.273,-51.270,-195.801
1688255588.309,-71.289,-31.250,-22.949,-2.930,48.340
1688255588.313,-54.199,-29.785,-11.230,-7.324,414.551
1688255588.315,-0.488,-27.344,-19.043,-60.059,384.277
1688255588.319,1.953,-23.438,-24.414,-78.613,-145.996
1688255588.323,-35.645,-21.973,-26.367,-33.203,-230.469
1688255588.327,-81.543,-27.832,-21.973,16.602,-33.203
1688255588.331,-42.969,-31.250,-20.020,9.766,-47.852
1688255588.335,30.762,-26.855,-24.414,-47.852,-122.070
1688255588.339,32.227,-21.973,-22.461,-85.938,4.883
1688255588.342,-28.320,-29.297,-28.320,-69.824,150.391
1688255588.346,-103.027,-37.109,-28.320,-11.230,-6.348
1688255588.350,-65.430,-32.227,-29.785,3.418,-94.238
1688255588.354,-3.906,-27.344,-34.668,-34.668,61.035
1688255588.358,-0.488,-27.344,-28.809,-55.664,85.938
1688255588.361,-14.648,-21.973,-26.855,-43.457,-247.559
1688255588.365,-75.195,-17.090,-24.414,-5.371,-193.848
1688255588.369,-75.195,-17.578,-20.508,7.812,3.418
1688255588.373,4.883,-20.020,-21.484,-51.758,-109.863
1688255588.377,26.855,-22.949,-19.531,-102.051,-272.949
1688255588.381,-34.180,-32.227,-20.020,-81.543,-70.801
1688255588.385,-89.355,-38.574,-20.020,-24.414,324.219
1688255588.388,-84.473,-38.574,-14.648,-3.418,197.754
1688255588.392,-14.648,-40.527,-15.625,-34.668,-8.301
1688255588.396,5.859,-39.062,-18.066,-76.660,-10.254
1688255588.400,-32.715,-41.992,-18.555,-71.289,171.387
1688255588.404,-73.242,-46.875,-15.137,-6.348,90.820
1688255588.405,-83.008,-43.945,-14.648,17.090,-90.820
1688255588.409,-31.250,-39.551,-15.625,-26.855,-91.797
1688255588.413,7.324,-35.156,-12.695,-61.035,-179.199
1688255588.417,-4.883,-28.809,-24.902,-52.246,-273.438
1688255588.421,-67.383,-27.832,-25.879,-15.137,-211.426
1688255588.425,-89.844,-27.344,-7.812,21.973,102.539
1688255588.429,-24.414,-32.227,-4.883,-0.488,138.184
1688255588.432,15.137,-35.645,-7.812,-48.340,-148.438
1688255588.436,-1.465,-36.621,-3.418,-45.410,-274.902
1688255588.440,-52.734,-41.504,-9.766,-0.977,-81.543
1688255588.444,-103.516,-40.039,-16.113,36.133,101.562
1688255588.448,-45.898,-32.227,-13.184,22.949,51.758
1688255588.481,22.461,-28.320,-22.949,-48.828,-119.629
1688255588.485,12.207,-31.738,-27.344,-85.938,-104.492
1688255588.489,-28.320,-28.320,-28.809,-52.246,-32.227
1688255588.493,-80.566,-22.949,-39.062,-12.695,-57.129
1688255588.497,-45.410,-25.391,-26.855,-12.207,-26.367
1688255588.501,21.973,-23.926,-12.207,-56.641,78.613
1688255588.505,1.953,-26.855,-14.160,-75.195,-109.375
1688255588.508,-56.152,-34.668,-18.555,-41.016,-203.613
1688255588.512,-81.543,-37.109,-23.438,2.441,-7.324
1688255588.516,-28.320,-31.250,-25.391,0.977,110.352
1688255588.520,9.277,-33.203,-29.297,-44.434,41.016
1688255588.524,-25.391,-41.504,-32.715,-77.148,-135.742
1688255588.511,-46.875,-41.992,-30.762,-59.570,-201.660
1688255588.515,-87.402,-42.480,-21.484,-7.324,332.031
1688255588.519,-75.195,-43.457,-30.273,-5.859,420.898
1688255588.523,-11.230,-39.062,-52.734,-60.059,-111.816
1688255588.527,10.742,-33.691,-44.922,-88.379,-252.930
1688255588.531,-46.875,-32.227,-23.926,-46.875,-102.539
1688255588.535,-111.816,-33.691,-19.531,-4.883,1.465
1688255588.538,-87.402,-33.691,-26.855,-14.648,4.395
1688255588.542,2.930,-20.020,-26.367,-39.062,22.949
1688255588.546,26.367,-18.555,-22.949,-63.477,-129.395
1688255588.550,-25.391,-25.879,-21.973,-63.477,-210.449
1688255588.554,-76.172,-24.902,-20.508,-36.133,-119.629
1688255588.555,-69.336,-25.391,-28.320,-14.160,158.203
1688255588.559,5.859,-26.855,-30.273,-33.203,208.008
1688255588.563,24.902,-26.367,-26.855,-74.219,-157.715
1688255588.567,-25.879,-35.156,-30.762,-61.523,-213.867
1688255588.571,-79.102,-36.621,-28.320,-9.277,-22.461
1688255588.575,-88.867,-37.598,-30.273,-3.418,35.156
1688255588.579,-15.625,-46.387,-28.320,-39.551,-19.043
1688255588.582,10.742,-45.410,-15.137,-57.129,-105.957
1688255588.586,-25.879,-38.574,-16.113,-50.293,117.676
1688255588.590,-80.566,-31.250,-23.438,-11.719,140.625
1688255588.594,-80.566,-26.855,-21.973,14.648,17.090
1688255588.598,9.766,-30.273,-21.973,-20.020,-4.395
1688255588.600,53.711,-33.203,-25.879,-60.547,-20.508
1688255588.604,18.555,-32.227,-24.414,-78.613,-234.863
1688255588.608,-54.688,-32.227,-23.438,-53.223,-275.391
1688255588.612,-77.637,-29.297,-17.578,-3.418,-85.449
1688255588.616,-5.371,-23.926,-24.414,-17.578,-80.566
1688255588.620,32.715,-21.484,-30.273,-51.758,-128.418
1688255588.624,-4.883,-25.391,-20.996,-43.945,-178.711
1688255588.627,-64.941,-43.457,-24.414,-18.555,95.703
1688255588.631,-96.191,-47.363,-28.809,24.414,465.332
1688255588.635,-32.227,-28.320,-21.484,14.648,140.625
1688255588.639,20.996,-20.020,-14.160,-34.668,-191.406
1688255588.643,12.207,-34.180,-16.113,-41.016,-196.289
1688255588.645,-23.926,-44.922,-17.090,-19.043,-166.992
1688255588.649,-70.801,-43.945,-16.602,-0.488,-103.516
1688255588.653,-27.344,-38.574,-25.391,-2.930,-43.457
1688255588.657,16.113,-37.109,-29.297,-34.668,-52.734
1688255588.661,-9.766,-45.898,-31.250,-60.059,-174.805
1688255588.665,-43.457,-46.875,-35.156,-32.715,-116.211
1688255588.669,-94.238,-50.781,-35.156,-12.695,97.656
1688255588.672,-74.219,-60.059,-28.320,-12.695,335.938
1688255588.676,9.766,-44.922,-27.344,-43.945,176.270
1688255588.680,32.715,-36.133,-23.926,-67.383,-110.840
1688255588.684,-3.418,-42.969,-16.602,-20.996,-104.004
1688255588.688,-38.574,-37.109,-25.879,30.273,199.219
1688255588.690,-23.926,-34.668,-40.039,20.508,63.477
1688255588.694,20.996,-35.645,-41.992,-22.949,-270.508
1688255588.698,32.227,-28.809,-33.203,-42.969,-270.996
1688255588.702,2.441,-27.344,-28.320,-10.742,-207.520
1688255588.706,-54.688,-38.574,-27.344,26.855,-110.840
1688255588.710,-50.781,-46.387,-25.391,12.207,-32.715
1688255588.714,8.789,-42.969,-21.484,-39.062,93.262
1688255588.717,2.930,-35.156,-23.926,-83.984,138.672
1688255588.721,-30.273,-30.273,-29.297,-79.590,-187.988
1688255588.725,-61.035,-36.621,-26.855,-17.578,-185.059
1688255588.729,-69.336,-41.016,-27.344,18.555,106.934
1688255588.733,-14.648,-34.180,-30.273,-7.324,78.125
1688255588.736,21.484,-24.902,-28.809,-45.410,-149.414
1688255588.740,6.348,-21.973,-27.344,-49.805,-236.816
1688255588.744,-63.965,-23.926,-25.391,2.930,60.547
1688255588.748,-90.820,-29.297,-25.391,23.438,117.676
1688255588.752,-23.438,-32.227,-30.762,-21.973,-95.215
1688255588.756,-1.953,-31.738,-35.156,-60.547,-81.543
1688255588.760,-26.855,-30.762,-20.996,-61.035,158.203
1688255588.763,-54.199,-29.297,-8.301,-23.438,103.516
1688255588.767,-63.965,-34.180,-11.230,28.809,-49.805
1688255588.771,-17.090,-35.645,-18.066,0.977,1.953
1688255588.775,25.879,-28.320,-22.949,-49.316,27.832
1688255588.779,18.555,-28.320,-32.227,-53.223,-141.113
1688255588.782,-59.570,-33.203,-44.434,-21.484,-212.891
1688255588.786,-98.145,-29.785,-51.758,26.367,32.715
1688255588.790,-37.598,-30.273,-48.340,8.301,219.727
1688255588.794,10.742,-27.832,-41.992,-53.711,-84.473
1688255588.798,-0.977,-8.789,-47.852,-92.773,-330.566
1688255588.802,-41.992,-3.418,-52.246,-66.406,-79.102
1688255588.806,-60.059,-6.348,-59.570,-25.391,270.020
1688255588.809,-53.711,-4.883,-59.082,-45.410,56.641
1688255588.813,-5.371,-6.836,-56.152,-66.406,-226.562
1688255588.817,1.953,-2.441,-58.594,-80.566,-126.953
1688255588.821,-42.480,0.000,-61.035,-73.730,-76.660
1688255588.825,-64.453,-0.488,-53.223,-28.320,-105.469
1688255588.840,-44.922,2.441,-44.434,-23.438,-21.484
1688255588.844,-3.418,-3.418,-54.688,-60.059,-30.273
1688255588.848,8.789,-7.324,-71.289,-91.797,-183.105
1688255588.852,-10.254,-9.277,-61.035,-47.363,-235.840
1688255588.856,-53.223,-7.324,-56.641,14.160,36.621
1688255588.860,-34.180,-2.930,-53.223,-2.930,423.340
1688255588.864,36.621,-4.395,-50.781,-34.668,204.102
1688255588.867,45.410,-7.812,-49.805,-44.434,-202.148
1688255588.871,11.719,-10.742,-40.527,-23.438,-194.336
1688255588.875,-49.316,-17.578,-32.715,17.090,264.648
1688255588.879,-48.340,-16.113,-25.879,13.184,228.516
1688255588.883,21.484,-20.996,-29.297,-31.250,-132.812
1688255588.885,49.805,-21.973,-41.016,-44.922,-146.484
1688255588.889,25.391,-11.230,-42.480,-35.156,-18.066
1688255588.893,-41.992,-8.789,-39.062,0.977,-5.371
1688255588.897,-51.758,-14.648,-30.273,13.672,-0.977
1688255588.901,22.461,-21.973,-25.879,-14.160,-51.270
1688255588.905,54.688,-27.832,-27.832,-28.320,-85.449
1688255588.909,33.691,-30.273,-33.691,-33.691,-85.938
1688255588.912,-38.086,-22.461,-41.992,-14.160,-84.961
1688255588.916,-68.359,-22.949,-40.527,22.461,139.160
1688255588.920,10.742,-19.531,-31.250,1.953,417.480
1688255588.924,59.082,-11.230,-30.762,-54.688,-20.996
1688255588.928,0.488,-28.809,-32.715,-50.293,-326.172
1688255588.930,-64.941,-38.574,-41.504,4.883,-139.160
1688255588.934,-63.477,-27.832,-41.992,36.133,-45.410
1688255588.938,-5.371,-27.832,-24.414,8.301,-72.266
1688255588.942,20.508,-29.297,-25.391,-42.480,-149.902
1688255588.946,-5.371,-21.484,-35.156,-58.594,-132.324
1688255588.950,-61.035,-19.043,-36.621,-37.598,-1.953
1688255588.954,-87.402,-23.926,-34.180,-8.301,109.375
1688255588.957,-31.738,-30.273,-38.574,-12.207,65.430
1688255588.961,2.930,-40.527,-47.852,-47.363,144.043
1688255588.965,-23.438,-48.828,-48.828,-67.383,79.102
1688255588.969,-66.406,-48.340,-41.992,-49.316,-150.391
1688255588.973,-83.984,-35.645,-31.250,-7.812,-49.805
1688255588.975,-39.062,-31.738,-32.715,-13.184,244.141
1688255588.979,12.207,-31.738,-42.969,-59.570,-34.180
1688255588.983,14.160,-31.738,-36.621,-61.523,-325.684
1688255588.987,-41.016,-38.086,-31.250,-22.949,-182.129
1688255588.991,-94.727,-34.668,-29.297,14.160,-43.945
1688255588.995,-50.781,-30.273,-23.926,-4.395,21.484
1688255588.999,8.789,-33.691,-26.855,-38.574,-43.457
1688255589.002,24.414,-41.504,-30.273,-66.895,-80.078
1688255589.006,-25.391,-41.016,-34.180,-78.613,15.137
1688255589.010,-109.863,-34.668,-34.180,-43.457,-60.059
1688255589.014,-91.309,-28.809,-28.320,-20.508,-77.148
1688255589.018,-13.672,-30.762,-28.809,-39.062,49.805
1688255589.021,-0.488,-28.320,-32.715,-68.848,-44.434
1688255589.025,-28.320,-14.648,-30.762,-67.871,-199.219
1688255589.029,-80.078,-14.160,-25.879,-29.785,-49.316
1688255589.033,-75.195,-22.949,-24.902,-11.719,160.645
1688255589.037,0.000,-26.367,-32.715,-43.457,-18.066
1688255589.041,10.742,-31.250,-36.133,-85.938,-229.004
1688255589.045,-32.715,-33.691,-34.668,-68.359,-102.051
1688255589.048,-98.145,-32.715,-27.832,-13.184,215.332
1688255589.052,-84.961,-29.297,-18.555,-1.465,131.348
1688255589.056,-5.371,-26.855,-23.438,-33.203,-174.316
1688255589.060,12.695,-27.832,-28.809,-59.570,-119.141
1688255589.064,-16.602,-37.598,-33.691,-32.227,157.227
1688255589.066,-71.777,-37.109,-36.621,9.277,50.293
1688255589.070,-68.359,-18.555,-27.832,7.812,-97.168
1688255589.074,-3.418,-16.602,-22.461,-22.461,41.016
1688255589.078,25.391,-16.602,-25.879,-62.012,-78.613
1688255589.082,5.859,-18.555,-24.414,-58.105,-275.879
1688255589.086,-49.316,-18.555,-24.414,-6.836,-168.945
1688255589.090,-73.242,-4.883,-16.602,22.949,193.359
1688255589.093,-20.508,-4.883,-11.230,-28.809,428.711
1688255589.097,-1.465,-15.625,-17.578,-76.660,19.043
1688255589.101,-20.020,-16.113,-15.137,-55.176,-332.031
1688255589.105,-51.270,-12.207,-10.742,-17.090,-219.727
1688255589.109,-80.566,-13.184,-14.160,25.391,-98.145
1688255589.110,-23.438,-15.625,-20.020,20.996,-142.578
1688255589.114,25.879,-17.578,-21.484,-39.551,-221.680
1688255589.118,14.648,-13.184,-27.344,-62.988,-177.246
1688255589.122,-55.176,-19.531,-30.273,-41.016,-124.023
1688255589.126,-104.980,-26.367,-22.461,-9.766,-61.523
1688255589.130,-31.738,-28.320,-17.090,-11.230,19.043
1688255589.134,31.250,-32.227,-20.996,-37.598,322.754
1688255589.137,-0.488,-25.391,-32.715,-52.734,202.148
1688255589.141,-64.941,-18.555,-34.180,-33.691,-226.562
1688255589.145,-92.285,-21.973,-29.785,-7.812,-74.707
1688255589.149,-44.434,-29.785,-24.902,-24.414,167.480
1688255589.153,5.371,-28.809,-25.391,-62.988,-90.820
1688255589.155,0.488,-28.320,-29.297,-90.820,-290.527
1688255589.159,-36.621,-33.203,-30.762,-54.688,-158.203
1688255589.163,-68.848,-32.227,-43.457,5.371,61.523
1688255589.167,-42.969,-23.926,-37.109,12.695,63.477
1688255589.171,-2.930,-22.949,-22.461,-34.668,-50.781
1688255589.175,-7.324,-20.508,-19.043,-69.336,2.930
1688255589.179,-41.992,-12.207,-25.879,-54.199,100.098
1688255589.182,-94.238,-18.066,-36.621,-17.090,44.434
1688255589.186,-58.105,-21.484,-39.551,-7.324,-28.320
1688255589.190,14.648,-24.902,-30.273,-29.297,50.781
1688255589.194,0.000,-31.738,-39.551,-75.195,70.801
1688255589.198,-35.156,-19.531,-43.945,-83.984,-225.586
1688255589.215,-90.820,-8.301,-21.484,-19.043,-177.246
1688255589.219,-69.824,-11.719,-15.625,3.906,53.711
1688255589.223,17.578,-9.766,-23.926,-37.598,-3.906
1688255589.227,13.184,-12.207,-31.250,-81.543,-194.336
1688255589.231,-33.203,-21.484,-33.691,-69.336,-184.570
1688255589.235,-87.402,-24.414,-42.480,-8.301,26.367
1688255589.239,-81.543,-26.367,-51.270,3.906,95.215
1688255589.242,4.883,-31.738,-41.992,-43.457,-4.883
1688255589.246,31.250,-33.203,-38.086,-66.895,-57.129
1688255589.250,-6.836,-25.391,-43.945,-52.734,174.316
1688255589.254,-53.711,-27.832,-37.598,-34.668,138.672
1688255589.258,-62.988,-29.785,-25.391,-17.090,70.312
1688255589.260,-13.184,-27.344,-21.973,-27.832,41.504
1688255589.264,-0.977,-38.086,-20.508,-53.223,130.859
1688255589.268,-25.391,-43.945,-24.414,-65.918,-68.359
1688255589.272,-74.219,-37.598,-29.785,-33.203,-266.113
1688255589.276,-92.285,-25.879,-24.902,7.324,-59.570
1688255589.280,-38.574,-16.113,-25.391,-13.672,44.922
1688255589.284,-7.324,-13.672,-36.621,-48.340,-40.527
1688255589.287,-24.414,-18.555,-44.922,-46.875,-222.656
1688255589.291,-70.312,-22.949,-30.762,-3.418,-29.785
1688255589.295,-106.445,-25.391,-11.719,45.410,286.621
1688255589.299,-42.480,-28.320,-11.230,6.836,-21.973
1688255589.303,29.785,-41.016,-12.695,-60.059,-205.078
1688255589.306,0.488,-51.270,-21.484,-64.941,-64.453
1688255589.310,-53.711,-43.945,-38.574,-54.688,-131.348
1688255589.314,-95.703,-36.621,-42.969,-9.766,-62.988
1688255589.318,-27.344,-26.367,-49.316,-8.789,53.223
1688255589.322,53.711,-15.625,-41.504,-94.727,5.371
1688255589.326,1.953,-10.254,-14.648,-112.305,-45.410
1688255589.330,-62.012,-19.531,-1.465,-59.082,-104.980
1688255589.333,-113.770,-26.367,-0.977,23.926,-55.664
1688255589.337,-83.496,-28.809,-6.348,51.758,240.723
1688255589.341,-8.301,-36.133,-10.742,3.906,76.172
1688255589.345,-16.602,-39.062,-12.695,0.488,-258.789
1688255589.349,-45.898,-42.480,-20.996,-5.859,-198.730
1688255589.350,-73.242,-40.527,-38.086,-35.156,86.914
1688255589.354,-49.316,-26.367,-57.617,-26.367,13.672
1688255589.358,17.578,-16.602,-46.875,-31.738,-171.875
1688255589.362,26.367,-13.672,-11.719,-41.504,-139.160
1688255589.366,-12.207,-15.625,-7.324,-22.949,-120.117
1688255589.370,-90.332,-23.438,-6.836,23.438,-30.762
1688255589.374,-79.590,-34.180,-1.953,62.988,59.570
1688255589.377,17.578,-43.945,-22.949,10.742,81.543
1688255589.381,27.832,-48.828,-46.875,-73.730,211.914
1688255589.385,-16.113,-42.480,-50.781,-81.543,-96.191
1688255589.389,-66.895,-36.621,-42.480,-50.781,-229.980
1688255589.393,-79.102,-37.598,-36.621,-16.113,12.207
1688255589.395,-28.809,-26.367,-37.598,-9.277,-38.086
1688255589.399,7.324,-18.066,-32.227,-84.961,-210.449
1688255589.403,-19.043,-22.949,-19.043,-110.352,-215.820
1688255589.407,-97.168,-23.926,-31.738,-16.602,-60.059
1688255589.411,-105.469,-25.391,-46.875,4.883,28.320
1688255589.415,-14.648,-38.086,-21.973,-18.066,39.551
1688255589.419,41.992,-47.363,-22.461,-62.988,4.395
1688255589.422,23.438,-53.711,-28.809,-48.340,284.668
1688255589.426,-60.547,-38.574,-7.324,5.859,297.852
1688255589.430,-97.168,-17.090,3.906,20.020,-46.387
1688255589.434,-14.648,-18.555,9.277,6.836,-42.480
1688255589.438,37.109,-20.996,-9.277,-62.500,34.180
1688255589.440,-3.906,-21.973,-24.902,-94.238,-203.125
1688255589.444,-49.805,-8.301,-37.109,-17.578,-286.133
1688255589.448,-56.641,-4.395,-35.645,23.438,-80.078
1688255589.452,-10.742,-16.113,-30.273,-59.570,-30.762
1688255589.456,30.273,-18.066,-23.438,-98.633,-206.055
1688255589.460,-7.324,-23.438,-15.625,-99.609,-306.641
1688255589.464,-80.566,-29.785,-24.902,-70.801,43.457
1688255589.467,-106.934,-41.016,-19.043,-16.602,448.730
1688255589.471,-63.477,-32.715,-14.160,-48.340,114.746
1688255589.475,-37.109,-15.625,-5.859,-107.422,-196.777
1688255589.479,-77.637,-8.301,-4.883,-136.230,-93.262
1688255589.483,-151.367,-10.254,0.000,-82.031,-104.004
1688255589.485,-208.008,-5.859,-2.441,-56.641,-116.699
1688255589.489,-183.594,-7.324,-2.930,-135.742,-26.855
1688255589.493,-121.094,-9.277,18.066,-198.242,-79.590
1688255589.497,-136.719,-13.184,2.441,-222.168,-253.906
1688255589.501,-217.285,-17.578,18.066,-201.172,-237.305
1688255589.505,-281.738,-4.395,54.199,-178.223,-13.672
1688255589.509,-231.445,6.348,60.547,-208.984,358.887
1688255589.512,-143.066,7.324,23.438,-249.023,113.281
1688255589.516,-142.090,-8.789,23.438,-243.164,-270.996
1688255589.520,-185.059,-9.766,49.316,-177.734,-190.918
1688255589.524,-252.441,-2.930,40.039,-123.535,74.707
1688255589.528,-211.914,-25.391,47.363,-129.395,130.859
1688255589.530,-88.379,-41.016,40.527,-186.035,-117.676
1688255589.534,-35.156,-44.922,40.527,-199.707,-151.855
1688255589.538,-78.613,-57.617,74.707,-128.418,108.398
1688255589.542,-183.594,-54.199,62.500,-58.594,45.898
1688255589.546,-149.414,-43.945,23.438,-28.320,-25.391
1688255589.550,-16.602,-37.109,23.438,-63.965,99.609
1688255589.554,20.020,-43.945,10.254,-107.422,26.367
1688255589.557,-30.762,-52.246,-20.020,-86.426,-164.551
1688255589.561,-111.816,-51.758,-25.391,-27.344,-159.668
1688255589.565,-108.398,-53.711,-19.043,18.066,62.500
1688255589.569,-4.395,-41.992,-27.832,-33.691,98.145
1688255589.573,52.246,-58.105,-48.828,-62.988,-202.637
1688255589.590,2.930,-93.750,-62.500,-30.762,-257.324
1688255589.594,-77.148,-86.426,-58.594,-0.977,39.062
1688255589.598,-82.520,-60.059,-34.180,25.391,96.680
1688255589.602,33.203,-45.410,-14.648,26.367,-45.898
1688255589.606,110.840,-56.152,-38.086,11.719,-112.305
1688255589.610,10.254,-49.805,-38.574,-0.977,-55.664
1688255589.614,-72.266,-41.504,-12.207,40.039,72.754
1688255589.617,-69.824,-51.270,-12.695,69.824,79.590
1688255589.621,-13.184,-60.059,-9.766,34.180,25.879
1688255589.625,57.129,-66.406,-19.531,-6.348,201.660
1688255589.629,50.293,-70.801,-33.691,-19.043,14.648
1688255589.633,-23.926,-55.176,-34.180,9.766,-216.309
1688255589.635,-76.172,-34.668,-35.645,58.105,-58.105
1688255589.639,-13.672,-25.391,-38.574,35.645,98.633
1688255589.643,70.801,-10.254,-42.969,-10.742,-85.449
1688255589.647,63.965,-9.277,-32.227,10.254,-224.609
1688255589.651,-17.578,-14.648,-27.344,39.551,-113.281
1688255589.655,-70.801,-14.160,-29.297,56.152,115.234
1688255589.659,2.441,-17.090,-13.672,21.973,140.625
1688255589.662,87.891,-26.367,-25.879,-22.949,-110.840
1688255589.666,69.824,-47.852,-36.621,-21.973,-85.938
1688255589.670,-26.367,-43.945,-31.250,0.000,131.836
1688255589.674,-97.168,-11.230,-28.320,18.555,-78.125
1688255589.678,-44.922,-10.254,-36.133,-17.090,-151.855
1688255589.680,68.359,-32.227,-28.809,-41.504,-118.164
1688255589.684,86.426,-38.086,-23.926,-39.062,-222.168
1688255589.688,16.113,-29.785,-42.969,-13.184,-226.074
1688255589.692,-81.055,-27.832,-38.086,28.809,-66.406
1688255589.696,-47.852,-31.738,-18.066,29.297,66.406
1688255589.700,67.871,-28.320,-16.113,15.625,11.230
1688255589.704,77.637,-27.832,-32.715,-24.414,-89.355
1688255589.707,-1.465,-44.922,-47.852,-31.250,-45.898
1688255589.711,-95.703,-51.270,-44.434,27.344,263.672
1688255589.715,-72.754,-53.223,-40.527,36.133,323.730
1688255589.719,60.059,-35.156,-21.973,-8.789,-43.457
1688255589.723,72.754,-23.438,-25.391,-46.387,-197.754
1688255589.725,6.348,-29.785,-38.086,-29.297,-37.598
1688255589.729,-77.148,-31.738,-36.133,6.348,-62.012
1688255589.733,-70.801,-30.273,-27.832,1.465,-86.426
1688255589.737,52.734,-34.668,-18.555,-35.156,-61.523
1688255589.741,102.539,-37.598,-31.250,-26.855,-151.367
1688255589.745,43.457,-25.879,-53.711,-33.691,-130.371
1688255589.749,-64.941,-12.207,-48.340,-20.508,-68.848
1688255589.752,-117.676,-33.203,-39.551,3.906,115.234
1688255589.756,-35.645,-66.406,-56.152,-44.434,407.715
1688255589.760,29.785,-60.059,-55.176,-86.426,-9.766
1688255589.764,0.488,-40.039,-37.598,-75.195,-266.113
1688255589.768,-80.566,-32.227,-17.090,-13.672,-28.320
1688255589.771,-133.301,-31.738,-15.137,7.812,-27.832
1688255589.775,-36.621,-40.527,-23.438,-27.832,-133.789
1688255589.779,57.617,-46.387,-32.715,-54.199,-205.078
1688255589.783,41.504,-34.180,-33.203,-55.176,-158.203
1688255589.787,-29.785,-34.180,-35.645,-14.648,-88.867
1688255589.791,-80.566,-42.969,-40.039,41.016,-6.348
1688255589.795,-36.133,-38.574,-28.809,0.488,105.957
1688255589.798,16.113,-31.250,-26.367,-43.457,201.660
1688255589.802,-25.879,-29.785,-31.738,-43.945,19.531
1688255589.806,-83.496,-36.133,-33.203,-23.926,-176.270
1688255589.810,-123.047,-36.133,-32.227,1.953,-4.395
1688255589.814,-61.523,-27.832,-16.113,-10.254,307.129
1688255589.815,41.016,-32.227,-14.648,-35.156,39.062
1688255589.819,19.531,-41.016,-31.250,-51.270,-264.648
1688255589.823,-75.195,-44.922,-27.832,-40.039,-160.156
1688255589.827,-145.020,-35.156,-24.902,-6.348,-69.824
1688255589.831,-76.172,-29.297,-30.762,-15.137,-34.180
1688255589.835,42.480,-40.527,-27.344,-49.316,-20.020
1688255589.839,38.086,-45.898,-43.945,-79.102,105.469
1688255589.842,-39.062,-45.898,-65.430,-63.477,242.188
1688255589.846,-119.629,-38.574,-51.270,-15.137,3.906
1688255589.850,-67.871,-29.297,-33.203,11.230,-139.160
1688255589.854,49.316,-35.156,-24.414,-14.160,-125.000
1688255589.858,50.293,-37.109,-16.113,-58.594,-215.332
1688255589.862,-12.207,-26.367,-14.648,-69.824,-260.254
1688255589.866,-101.562,-29.297,-19.531,-21.484,-46.387
1688255589.870,-95.703,-42.480,-25.879,10.742,193.359
1688255589.874,16.602,-41.016,-41.504,-35.156,35.645
1688255589.878,60.547,-30.762,-43.457,-79.590,-241.211
1688255589.882,-6.836,-29.785,-38.574,-70.312,-121.582
1688255589.886,-104.980,-22.461,-49.805,-19.531,290.039
1688255589.889,-102.051,-18.066,-68.359,-2.930,160.645
1688255589.893,16.113,-16.113,-63.965,-26.367,-174.805
1688255589.897,53.711,-19.531,-44.922,-49.316,-195.312
1688255589.901,-7.324,-19.531,-39.551,-40.039,-80.566
1688255589.905,-86.914,-11.719,-26.367,4.395,-119.141
1688255589.905,-98.633,-17.578,-24.902,10.254,-91.797
1688255589.909,-3.418,-16.113,-33.691,-16.113,35.156
1688255589.913,66.895,-15.137,-32.227,-55.176,203.125
1688255589.917,29.785,-30.273,-36.621,-64.453,66.895
1688255589.921,-85.449,-26.855,-41.504,-22.461,-82.031
1688255589.925,-115.234,-24.414,-43.945,6.836,151.855
1688255589.929,2.930,-29.297,-54.199,-1.953,436.523
1688255589.932,78.613,-15.625,-49.805,-48.828,27.344
1688255589.936,17.090,-18.066,-38.086,-68.848,-249.023
1688255589.940,-69.336,-31.738,-35.156,-28.320,-59.082
1688255589.944,-114.258,-27.832,-46.387,8.789,0.000
1688255589.948,-46.387,-23.438,-40.039,-22.949,-100.586
1688255589.966,55.176,-12.207,-18.555,-56.641,-195.801
1688255589.970,42.969,-22.461,-26.855,-55.664,-150.391
1688255589.974,-39.551,-25.391,-27.344,-16.602,-118.652
1688255589.978,-99.609,-8.301,-17.578,9.766,-80.566
1688255589.982,-32.227,-11.230,-19.531,-13.672,-7.324
1688255589.986,45.898,-19.531,-32.227,-45.898,60.059
1688255589.990,23.926,-21.484,-42.480,-44.434,-79.102
1688255589.993,-45.898,-28.320,-34.668,-34.668,-142.090
1688255589.997,-118.652,-28.809,-24.902,-12.207,-38.574
1688255590.001,-51.758,-20.020,-30.273,2.930,344.727
1688255590.005,49.316,-17.578,-37.109,-34.668,322.754
1688255590.009,46.875,-26.367,-35.156,-83.008,-185.547
1688255590.011,-37.109,-37.598,-35.156,-73.730,-174.316
1688255590.015,-131.348,-35.156,-36.133,-35.156,17.090
1688255590.019,-76.172,-26.367,-34.668,-28.809,-51.270
1688255590.023,34.180,-29.297,-38.574,-56.641,-186.523
1688255590.027,41.992,-38.574,-23.926,-56.641,-217.285
1688255590.031,-26.855,-39.062,-20.996,-16.113,-107.910
1688255590.035,-109.863,-29.297,-40.527,-7.324,-8.789
1688255590.038,-83.496,-23.926,-27.832,-31.738,-67.383
1688255590.042,21.973,-25.391,-9.277,-45.410,66.406
1688255590.046,31.250,-32.227,-16.602,-53.223,323.242
1688255590.050,-48.828,-36.133,-27.832,-46.875,6.836
1688255590.054,-132.812,-41.992,-21.484,-3.418,-114.746
1688255590.055,-109.375,-41.016,-21.973,2.930,39.551
1688255590.059,7.812,-35.645,-41.016,-52.246,-97.656
1688255590.063,58.594,-35.645,-46.875,-71.289,-263.672
1688255590.067,-6.836,-33.691,-41.992,-49.316,-207.031
1688255590.071,-103.027,-36.133,-41.504,-7.812,-9.766
1688255590.075,-108.887,-34.668,-39.062,4.883,85.449
1688255590.079,-18.555,-29.785,-39.062,-48.828,-5.859
1688255590.082,52.246,-36.621,-39.551,-66.406,-90.332
1688255590.086,21.973,-39.551,-27.832,-32.227,127.441
1688255590.090,-107.422,-27.344,-27.832,-31.738,148.926
1688255590.094,-140.137,-24.414,-39.062,-34.180,41.016
1688255590.098,-25.879,-28.320,-42.480,-59.082,86.914
1688255590.100,38.086,-30.273,-40.527,-87.402,213.379
1688255590.104,-4.395,-28.809,-31.250,-58.105,-71.289
1688255590.108,-73.730,-19.043,-26.367,-27.344,-236.328
1688255590.112,-98.633,-13.672,-31.738,-6.836,-31.738
1688255590.116,-40.527,-20.508,-37.109,-13.184,-36.133
1688255590.120,31.738,-27.832,-39.062,-40.039,-27.344
1688255590.124,18.066,-28.320,-40.039,-43.945,-122.070
1688255590.127,-74.707,-28.320,-34.180,-20.508,-39.551
1688255590.131,-118.164,-20.020,-22.461,-8.301,289.551
1688255590.135,-35.645,-20.508,-17.578,-35.645,4.883
1688255590.139,49.805,-24.902,-22.949,-64.941,-237.305
1688255590.143,37.109,-22.949,-30.273,-73.730,-172.363
1688255590.146,-53.711,-16.602,-19.531,-38.574,-182.617
1688255590.150,-123.535,-15.625,-28.809,-17.090,-88.379
1688255590.154,-59.570,-26.367,-33.691,-30.273,33.691
1688255590.158,36.621,-30.762,-19.531,-58.105,49.805
1688255590.162,45.898,-30.762,-22.949,-59.082,-123.535
1688255590.166,-18.555,-26.855,-35.156,-34.180,-177.246
1688255590.170,-91.309,-20.020,-23.438,-15.137,6.836
1688255590.173,-41.504,-21.484,-1.465,2.930,342.773
1688255590.177,40.527,-16.113,2.441,-15.137,121.094
1688255590.181,40.039,-9.766,-4.395,-27.832,-254.395
1688255590.185,-32.715,-17.578,-9.766,-21.973,-97.656
1688255590.189,-126.953,-21.484,-20.996,-16.602,146.484
1688255590.191,-84.473,-16.113,-19.043,0.000,-7.812
1688255590.195,47.852,-13.672,-18.555,-27.832,-197.754
1688255590.199,66.895,-22.949,-32.227,-55.664,-217.773
1688255590.203,-27.344,-26.855,-22.949,-9.277,-119.141
1688255590.207,-107.910,-26.855,-20.996,32.227,23.926
1688255590.211,-83.984,-21.973,-28.320,15.137,-0.488
1688255590.215,4.395,-20.996,-21.973,-32.715,21.973
1688255590.218,42.969,-20.508,-21.973,-62.500,243.164
1688255590.222,-7.812,-16.113,-25.879,-48.828,-41.992
1688255590.226,-98.145,-23.926,-21.484,-29.785,-243.164
1688255590.230,-107.910,-29.785,-24.902,-26.855,-79.102
1688255590.234,10.254,-29.785,-26.367,-45.410,-119.629
1688255590.251,55.176,-31.738,-27.344,-61.035,-207.520
1688255590.255,-39.551,-33.691,-30.273,-62.500,-216.309
1688255590.259,-125.977,-32.715,-31.738,-25.391,-77.148
1688255590.263,-117.676,-26.855,-40.039,2.441,14.648
1688255590.267,-6.836,-25.879,-41.992,-37.109,-41.016
1688255590.271,81.055,-22.949,-24.902,-73.730,-16.602
1688255590.275,30.762,-20.996,-11.230,-69.336,305.664
1688255590.278,-92.773,-27.344,-7.812,-31.738,310.547
1688255590.282,-138.184,-37.109,-10.254,-0.977,0.977
1688255590.286,-39.062,-38.574,-13.184,6.836,-9.277
1688255590.290,43.945,-31.738,-20.996,-39.551,364.746
1688255590.294,27.344,-25.879,-33.203,-89.844,107.910
1688255590.281,-38.574,-21.973,-31.250,-46.387,-287.109
1688255590.285,-112.305,-25.879,-33.203,3.418,-114.746
1688255590.289,-53.223,-33.691,-31.738,-18.066,-65.430
1688255590.293,41.992,-31.250,-38.574,-63.965,-183.105
1688255590.297,23.438,-25.879,-49.805,-63.477,-260.742
1688255590.301,-64.941,-26.367,-24.902,-4.395,-98.145
1688255590.305,-117.676,-26.367,-2.930,15.625,208.008
1688255590.308,-45.410,-32.715,-9.766,-21.484,118.164
1688255590.312,53.711,-32.715,-18.066,-34.180,-166.504
1688255590.316,44.434,-26.367,-13.672,-12.207,-37.109
1688255590.320,-58.594,-33.203,-20.020,-8.301,267.090
1688255590.324,-128.418,-39.062,-29.785,0.000,6.348
1688255590.340,-54.688,-38.574,-22.461,-20.508,-142.090
1688255590.344,71.289,-39.062,-8.301,-46.387,-68.359
1688255590.348,84.473,-36.621,-17.090,-34.180,-234.375
1688255590.352,-8.789,-36.621,-34.180,-35.645,-283.691
1688255590.356,-96.680,-37.598,-30.762,-12.695,-104.004
1688255590.360,-70.801,-41.504,-21.484,5.859,148.438
1688255590.364,36.621,-41.992,-15.137,-31.738,71.777
1688255590.367,66.895,-36.133,-23.438,-35.156,-171.875
1688255590.371,-2.441,-36.133,-27.344,9.766,-174.316
1688255590.375,-83.008,-37.109,-20.508,28.809,189.453
1688255590.379,-84.473,-33.203,-19.043,7.324,146.484
1688255590.383,10.254,-30.273,-18.555,-24.902,-91.797
1688255590.385,61.523,-31.738,-26.855,-47.363,-125.977
1688255590.389,-4.395,-37.598,-36.133,-33.203,114.746
1688255590.393,-101.074,-34.668,-37.598,-2.930,59.082
1688255590.397,-101.562,-40.039,-39.551,2.441,-159.180
1688255590.401,18.555,-45.410,-39.062,-24.414,-123.535
1688255590.405,65.430,-32.227,-24.902,-62.988,-87.402
1688255590.409,-2.930,-36.621,-15.625,-57.617,-154.785
1688255590.412,-91.797,-39.062,-17.090,-20.508,-188.477
1688255590.416,-101.562,-38.574,-18.555,-1.465,83.496
1688255590.420,2.441,-36.133,-24.902,-24.414,291.016
1688255590.424,59.082,-26.855,-27.344,-30.762,-100.586
1688255590.428,22.461,-28.809,-26.367,-21.973,-275.879
1688255590.431,-51.758,-29.785,-27.832,3.418,-81.055
1688255590.435,-77.148,-35.156,-28.809,25.879,-5.859
1688255590.439,4.395,-48.340,-36.621,-11.719,-14.648
1688255590.443,69.824,-44.434,-46.875,-58.105,-148.438
1688255590.447,24.414,-37.598,-36.621,-40.039,-69.336
1688255590.451,-91.309,-40.527,-29.297,-5.859,40.039
1688255590.455,-129.395,-37.109,-39.551,15.625,56.641
1688255590.458,-30.273,-29.785,-43.945,-9.277,32.227
1688255590.462,46.875,-33.203,-42.480,-67.383,93.750
1688255590.466,32.227,-33.691,-37.109,-60.059,-0.977
1688255590.470,-62.500,-27.832,-32.715,-26.367,-184.570
1688255590.474,-132.812,-32.227,-16.602,-14.160,-65.430
1688255590.476,-33.691,-41.504,0.000,-33.691,102.539
1688255590.480,64.941,-42.969,-15.137,-58.594,-104.492
1688255590.484,41.992,-40.039,-20.020,-53.711,-295.898
1688255590.488,-56.152,-41.504,-24.414,-28.320,-248.047
1688255590.492,-126.465,-37.598,-33.203,1.465,-76.660
1688255590.496,-58.105,-32.715,-14.648,-3.906,59.570
1688255590.500,46.875,-32.227,-13.672,-40.527,-73.242
1688255590.503,37.598,-33.203,-22.461,-73.730,-58.594
1688255590.507,-64.941,-45.410,-23.438,-69.336,309.570
1688255590.511,-133.301,-48.340,-22.461,-17.578,132.812
1688255590.515,-81.055,-36.133,-17.578,-11.719,-138.672
1688255590.519,19.043,-28.809,-15.137,-57.617,-120.117
1688255590.521,32.715,-20.020,-31.738,-65.918,-130.859
1688255590.525,-41.016,-22.461,-49.316,-37.598,-162.109
1688255590.529,-134.277,-29.785,-43.945,0.977,-76.172
1688255590.533,-93.750,-39.062,-28.320,10.742,142.578
1688255590.537,41.992,-34.668,-12.695,-45.410,49.316
1688255590.541,67.871,-33.203,-10.742,-73.242,-61.035
1688255590.545,-2.930,-32.715,-21.484,-46.387,35.645
1688255590.548,-108.887,-37.598,-27.832,-21.973,393.555
1688255590.552,-101.562,-47.363,-22.949,-17.578,400.391
1688255590.556,19.043,-34.668,-12.207,-39.551,-70.801
1688255590.560,71.289,-32.715,-20.508,-77.637,-111.328
1688255590.564,20.020,-33.691,-34.668,-56.641,36.621
1688255590.565,-89.844,-32.715,-41.992,-10.254,-89.355
1688255590.569,-97.168,-40.527,-41.504,3.906,-161.133
1688255590.573,13.184,-42.969,-40.527,-28.809,-76.172
1688255590.577,41.016,-52.246,-39.551,-72.754,-136.719
1688255590.581,-22.461,-57.129,-33.203,-76.660,-266.602
1688255590.585,-104.980,-43.457,-32.715,-48.340,-144.043
1688255590.589,-109.375,-32.715,-29.785,-24.414,192.383
1688255590.592,-31.250,-36.621,-19.043,-50.781,324.707
1688255590.596,8.301,-40.527,-30.762,-86.426,-104.492
1688255590.600,-26.855,-40.039,-46.387,-75.684,-235.352
1688255590.604,-102.051,-38.086,-39.062,-50.293,-43.457
1688255590.608,-126.465,-38.086,-18.555,-50.781,-23.926
1688255590.610,-60.059,-37.598,-6.348,-82.520,-127.930
1688255590.614,19.531,-25.879,0.977,-74.707,-227.539
1688255590.618,-11.719,-20.996,-7.812,-88.379,-214.844
1688255590.622,-117.676,-19.043,-17.090,-62.500,-127.930
1688255590.626,-150.879,-15.137,-6.836,5.859,-72.754
1688255590.630,-38.086,-13.672,-4.395,-21.484,14.648
1688255590.634,62.012,-16.113,-6.348,-70.312,288.086
1688255590.637,42.480,-18.555,-14.160,-59.082,103.516
1688255590.641,-44.434,-27.832,-30.762,-24.902,-199.707
1688255590.645,-127.441,-38.086,-39.062,-26.855,-5.371
1688255590.649,-62.500,-33.203,-34.180,-40.039,277.344
1688255590.653,49.316,-27.344,-29.785,-59.082,28.320
1688255590.656,36.133,-27.344,-30.762,-79.102,-218.750
1688255590.660,-48.828,-22.949,-17.090,-53.711,-136.230
1688255590.664,-111.816,-20.508,-6.836,-15.625,115.234
1688255590.668,-56.641,-16.602,-8.301,-7.812,20.020
1688255590.672,42.969,-20.508,-13.672,-25.391,-181.641
1688255590.676,35.645,-25.879,-28.320,-39.551,0.000
1688255590.680,-38.574,-28.809,-34.180,-23.926,134.766
1688255590.683,-115.234,-40.039,-32.227,12.695,-81.055
1688255590.687,-79.590,-32.227,-29.297,10.742,-135.254
1688255590.691,28.320,-21.973,-18.066,-38.086,-80.078
1688255590.695,52.246,-24.414,-32.227,-84.473,-150.879
1688255590.699,-24.414,-31.250,-47.363,-53.711,-255.859
1688255590.717,-115.234,-39.062,-25.391,13.184,-113.281
1688255590.721,-80.566,-38.086,-24.414,-2.441,61.523
1688255590.725,6.348,-39.551,-42.480,-47.852,58.105
1688255590.729,11.719,-43.945,-41.016,-53.223,-84.961
1688255590.733,-10.742,-44.434,-32.227,-38.574,-152.344
1688255590.737,-75.195,-41.992,-33.691,-15.137,256.836
1688255590.741,-106.445,-31.738,-42.969,-2.930,323.730
1688255590.744,2.441,-25.391,-30.762,-27.832,-101.562
1688255590.748,54.199,-23.926,-12.695,-45.898,-176.758
1688255590.752,-7.812,-25.879,-18.066,-31.738,129.883
1688255590.756,-93.750,-22.949,-36.133,-24.414,136.230
1688255590.760,-104.980,-20.996,-58.594,-23.926,-60.547
1688255590.761,-4.883,-26.367,-48.340,-40.527,-42.480
1688255590.765,58.105,-23.926,-24.902,-59.082,12.207
1688255590.769,4.395,-31.738,-25.391,-67.383,-200.684
1688255590.773,-90.820,-35.156,-27.832,-34.668,-205.566
1688255590.777,-123.047,-20.996,-27.344,1.953,-7.324
1688255590.781,-26.367,-19.043,-27.344,-23.438,56.641
1688255590.785,60.059,-22.461,-25.391,-64.453,-7.324
1688255590.788,35.156,-24.902,-14.160,-52.246,-132.324
1688255590.792,-70.801,-21.973,-10.742,11.719,-15.137
1688255590.796,-125.000,-17.090,-17.578,56.152,416.504
1688255590.800,-30.273,-16.113,-34.668,10.742,87.891
1688255590.804,58.105,-20.020,-41.016,-59.570,-291.504
1688255590.806,41.016,-18.066,-18.066,-71.289,-183.105
1688255590.810,-48.340,-11.719,-3.906,-44.922,-130.859
1688255590.814,-119.141,-12.207,-10.254,-8.301,-85.449
1688255590.818,-50.781,-8.789,-25.391,-24.414,-20.020
1688255590.822,55.176,-7.812,-27.344,-57.129,-42.969
1688255590.826,41.504,-15.137,-18.555,-61.035,-94.238
1688255590.830,-52.734,-13.184,-9.277,-30.762,8.789
1688255590.833,-127.441,-10.742,-6.836,13.184,83.008
1688255590.837,-64.453,-18.066,-25.391,19.531,320.801
1688255590.841,54.688,-18.555,-35.645,-30.762,232.910
1688255590.845,49.805,-23.438,-26.855,-56.641,-173.340
1688255590.849,-38.086,-25.391,-21.484,-19.043,-218.262
1688255590.851,-105.957,-19.043,-19.043,34.668,15.137
1688255590.855,-59.082,-14.648,-18.555,11.230,-50.781
1688255590.859,40.527,-14.648,-22.461,-45.410,-212.891
1688255590.863,49.316,-13.672,-19.043,-49.316,-275.879
1688255590.867,-35.156,-8.789,-18.555,-35.156,-219.238
1688255590.871,-131.348,-14.648,-34.180,-1.953,-57.617
1688255590.875,-110.840,-13.672,-45.410,-22.461,-65.430
1688255590.878,13.184,-4.395,-20.508,-54.199,-24.414
1688255590.882,46.387,-5.371,-8.789,-27.344,92.285
1688255590.886,-16.602,-6.348,-22.949,-11.719,-144.043
1688255590.890,-112.793,-15.137,-29.297,-14.648,-129.395
1688255590.894,-106.445,-18.066,-35.645,-15.137,19.043
1688255590.895,15.625,-20.996,-36.133,-54.688,-52.734
1688255590.899,57.129,-29.297,-33.203,-88.867,-237.305
1688255590.903,-12.695,-29.297,-42.480,-71.289,-251.953
1688255590.907,-106.445,-18.066,-46.387,-26.855,-131.836
1688255590.911,-110.352,-18.066,-30.273,-16.602,-64.941
1688255590.915,8.789,-19.531,-28.809,-45.898,-24.414
1688255590.919,62.500,-16.113,-29.297,-48.828,-12.695
1688255590.922,19.531,-25.879,-31.250,-25.879,190.430
1688255590.926,-70.801,-38.086,-42.969,15.137,86.914
1688255590.930,-115.723,-30.273,-37.598,22.461,-83.496
1688255590.934,9.277,-21.973,-36.133,-16.602,54.688
1688255590.938,83.984,-21.484,-30.273,-35.156,146.973
1688255590.956,12.207,-30.273,-33.691,-46.387,-25.391
1688255590.960,-87.402,-31.738,-31.738,-21.484,-145.996
1688255590.964,-118.652,-26.367,-16.602,4.395,8.789
1688255590.968,-17.578,-25.879,-26.855,-23.438,64.941
1688255590.972,69.824,-13.184,-38.574,-63.965,-125.488
1688255590.976,28.809,-11.719,-28.809,-66.895,-234.375
1688255590.980,-63.965,-18.066,-33.691,-17.090,29.785
1688255590.983,-116.211,-18.555,-43.945,32.227,368.652
1688255590.987,-42.480,-22.461,-35.645,-6.348,20.020
1688255590.991,43.945,-22.461,-18.066,-61.035,-254.395
1688255590.995,34.668,-20.996,-11.719,-58.594,-184.082
1688255590.999,-48.340,-24.414,-24.902,-29.785,-167.969
1688255590.985,-123.047,-24.414,-39.062,1.953,-68.359
1688255590.989,-28.320,-18.555,-38.086,8.789,20.020
1688255590.993,75.195,-12.695,-33.203,-29.297,16.602
1688255590.997,39.062,-17.090,-35.156,-48.340,-59.570
1688255591.001,-42.969,-18.066,-34.668,-25.391,-161.133
1688255591.005,-110.352,-14.160,-24.414,-23.926,127.930
1688255591.009,-53.223,-5.859,-14.160,-26.367,294.434
1688255591.012,59.082,-3.906,-6.836,-38.086,-36.621
1688255591.016,51.758,-5.859,-20.020,-65.430,-241.699
1688255591.020,-36.621,-12.207,-29.297,-52.734,-229.980
1688255591.024,-103.516,-28.809,-28.809,1.953,281.250
1688255591.028,-72.754,-25.879,-44.922,13.184,499.023
1688255591.031,9.277,-15.137,-49.316,-40.039,-47.363
1688255591.035,41.016,-23.926,-30.273,-65.430,-254.395
1688255591.039,-31.250,-37.109,-27.832,-53.223,-172.852
1688255591.043,-131.836,-21.973,-37.109,-26.367,-103.027
1688255591.047,-112.793,-12.207,-33.691,-18.555,-46.387
1688255591.051,0.977,-19.531,-29.297,-43.945,26.855
1688255591.055,25.879,-27.832,-39.062,-64.941,46.875
1688255591.058,-34.668,-23.926,-37.598,-58.105,-154.785
1688255591.062,-102.539,-11.719,-27.832,-32.227,-254.883
1688255591.066,-99.609,-14.648,-24.414,-16.602,8.301
1688255591.070,1.465,-18.555,-21.484,-40.039,210.449
1688255591.074,64.453,-8.301,-28.320,-57.129,-155.762
1688255591.090,17.090,-4.883,-18.555,-45.898,-300.293
1688255591.094,-84.961,-10.254,-5.859,-18.066,-100.098
1688255591.098,-108.887,-23.438,-20.996,1.465,-27.344
1688255591.102,2.930,-29.297,-19.043,-22.949,-111.328
1688255591.106,92.773,-26.855,-2.930,-54.199,-173.340
1688255591.110,41.016,-22.461,2.441,-55.176,-59.082
1688255591.114,-85.449,-26.855,-17.578,-32.715,20.996
1688255591.117,-125.488,-32.227,-37.598,-0.488,62.988
1688255591.121,-29.297,-24.902,-39.062,-24.414,46.875
1688255591.125,46.387,-19.531,-39.551,-49.805,214.844
1688255591.129,15.137,-12.695,-43.457,-31.250,307.129
1688255591.133,-66.895,-9.766,-44.434,-20.508,-68.848
1688255591.137,-122.559,-23.438,-38.086,-11.230,-94.727
1688255591.141,-33.203,-32.227,-26.367,-24.414,36.621
1688255591.145,53.711,-33.691,-20.020,-65.430,-176.758
1688255591.149,11.230,-39.062,-33.203,-79.102,-294.922
1688255591.153,-63.965,-32.715,-28.320,-15.625,-100.586
1688255591.157,-101.074,-31.250,-28.809,19.531,129.883
1688255591.161,-27.344,-30.762,-44.434,3.418,107.422
1688255591.164,65.918,-30.273,-31.738,-38.574,-128.906
1688255591.168,42.480,-35.645,-30.762,-73.242,-97.168
1688255591.172,-45.898,-40.039,-36.621,-34.668,144.043
1688255591.176,-129.883,-29.297,-26.855,-0.977,60.547
1688255591.180,-83.008,-21.973,-17.090,-7.812,-28.809
1688255591.195,34.180,-34.180,-19.043,-51.270,-20.996
1688255591.199,31.738,-37.598,-31.738,-79.102,-143.555
1688255591.203,-43.457,-31.250,-26.367,-43.457,-243.164
1688255591.207,-109.375,-25.391,-8.301,-8.301,-60.059
1688255591.211,-75.684,-20.996,3.906,-10.742,23.926
1688255591.215,33.691,-20.020,-3.418,-53.711,-50.781
1688255591.219,43.945,-27.344,-21.484,-89.844,-114.746
1688255591.222,-14.648,-21.484,-28.809,-59.570,-96.191
1688255591.226,-90.820,-15.625,-20.508,1.465,284.180
1688255591.230,-94.727,-27.344,-16.602,4.395,279.785
1688255591.234,28.809,-28.320,-18.555,-32.227,-20.996
1688255591.238,55.664,-23.438,-10.742,-59.082,-118.652
1688255591.226,-22.949,-27.344,-15.625,-40.039,49.805
1688255591.230,-102.051,-29.785,-14.648,11.719,-11.230
1688255591.234,-89.355,-31.250,-11.230,27.344,-135.254
1688255591.238,19.043,-26.367,-7.324,-14.160,-75.195
1688255591.242,63.477,-17.578,-8.789,-36.133,-91.797
1688255591.246,-7.324,-21.484,-29.297,-14.160,-186.523
1688255591.250,-104.004,-24.902,-35.645,-12.695,-137.695
1688255591.253,-103.516,-27.344,-34.180,-16.113,21.973
1688255591.257,0.000,-30.762,-24.902,-42.480,-18.066
1688255591.261,59.570,-30.273,-25.879,-75.684,-206.055
1688255591.265,11.230,-32.715,-29.785,-79.590,-302.246
1688255591.269,-91.309,-41.992,-16.113,-45.410,-35.645
1688255591.271,-122.559,-44.434,-13.184,-21.484,270.996
1688255591.275,-21.973,-37.598,-14.648,-40.039,7.812
1688255591.279,45.410,-38.086,-15.625,-44.434,-143.066
1688255591.283,12.695,-39.551,-20.508,-39.551,45.898
1688255591.287,-68.848,-36.621,-14.648,-10.254,-12.695
1688255591.291,-123.535,-40.527,-13.184,23.926,9.277
1688255591.295,-35.645,-30.762,-25.879,-12.207,87.402
1688255591.298,50.781,-20.508,-24.902,-58.594,174.805
1688255591.302,23.438,-25.391,-24.414,-55.176,28.320
1688255591.306,-62.012,-20.996,-25.879,-22.461,-201.660
1688255591.310,-123.047,-22.461,-11.719,-6.348,7.812
1688255591.314,-59.570,-27.344,-4.395,-15.137,209.473
1688255591.316,48.340,-24.902,-5.859,-34.180,-62.988
1688255591.320,54.199,-26.367,-6.348,-45.410,-332.520
1688255591.324,-37.598,-23.926,-10.254,-24.902,-200.684
1688255591.328,-104.492,-20.508,-5.859,20.508,-24.414
1688255591.332,-61.035,-21.484,-7.324,-2.441,14.648
1688255591.336,39.551,-32.715,-21.973,-52.246,-45.898
1688255591.340,62.988,-29.785,-31.738,-54.199,-60.547
1688255591.343,-20.020,-25.879,-44.922,-28.809,302.734
1688255591.347,-111.328,-21.973,-32.715,-3.418,103.516
