timestamps,TP9,AF7,AF8,TP10,Right AUX
1689804494.153,1.953,-7.324,-27.832,6.348,-275.391
1689804494.157,3.906,-10.254,-35.156,50.781,-83.008
1689804494.161,8.789,-19.531,-30.273,42.480,-51.758
1689804494.165,4.395,-28.320,-21.973,-8.789,-126.953
1689804494.169,-2.441,-27.832,-19.531,-39.551,-185.059
1689804494.173,-1.465,-25.391,-29.297,-5.371,130.371
1689804494.177,4.883,-33.691,-27.832,53.711,390.625
1689804494.180,13.184,-31.250,-14.160,54.688,31.250
1689804494.184,11.230,-30.273,-12.207,2.441,-102.051
1689804494.188,0.488,-39.062,-20.996,-36.621,-56.641
1689804494.192,1.465,-35.645,-28.809,-9.277,-120.117
1689804494.196,10.254,-24.902,-29.297,50.781,-171.387
1689804494.198,10.254,-31.738,-20.996,58.105,-81.055
1689804494.202,-1.465,-47.852,-21.484,1.465,-31.250
1689804494.206,-16.113,-54.199,-41.016,-46.875,-125.488
1689804494.210,-19.531,-38.574,-39.551,-28.809,-205.078
1689804494.214,-7.324,-22.949,-39.551,25.879,-76.660
1689804494.218,-1.953,-20.508,-34.668,43.457,86.914
1689804494.222,-15.137,-22.461,-38.574,-11.719,76.660
1689804494.225,-23.438,-28.809,-36.133,-60.547,-28.320
1689804494.229,-24.902,-34.180,-21.484,-46.875,-39.062
1689804494.233,-11.719,-34.180,-17.578,17.578,301.270
1689804494.237,-5.371,-36.621,0.977,47.363,307.129
1689804494.241,-16.113,-32.715,5.371,-2.930,-149.414
1689804494.244,-18.555,-29.785,-11.719,-37.598,-169.434
1689804494.248,-14.648,-23.438,-25.391,-25.391,-138.672
1689804494.252,-14.160,-13.672,-18.555,16.602,-238.281
1689804494.256,-23.438,-14.648,-17.090,40.527,-135.742
1689804494.260,-19.531,-30.273,-30.273,12.695,-83.984
1689804494.264,-13.672,-36.133,-30.273,-38.086,-35.645
1689804494.268,-19.531,-19.043,-26.855,-44.434,-23.438
1689804494.271,-4.395,-22.949,-31.250,0.488,-170.898
1689804494.275,12.695,-40.527,-26.855,45.898,156.250
1689804494.279,7.812,-20.996,-28.320,35.645,397.461
1689804494.283,-20.508,-15.625,-45.898,-51.270,-80.078
1689804494.287,-32.715,-29.297,-51.270,-80.078,-249.023
1689804494.303,-21.484,-28.320,-28.809,-26.855,-87.402
1689804494.307,-27.344,-24.414,-18.066,12.695,-78.613
1689804494.311,-33.203,-28.809,-23.926,-1.465,-110.840
1689804494.315,-32.715,-40.039,-28.809,-53.711,-73.242
1689804494.319,-45.898,-41.016,-27.832,-83.008,-125.977
1689804494.323,-49.316,-39.062,-24.902,-46.387,-24.414
1689804494.327,-27.832,-29.785,-19.531,13.672,17.090
1689804494.330,-17.090,-23.926,-21.973,19.043,-52.246
1689804494.334,-29.297,-35.156,-33.691,-31.738,356.934
1689804494.338,-41.992,-38.574,-29.785,-75.684,254.883
1689804494.342,-36.621,-37.598,-22.461,-41.504,-250.000
1689804494.346,-24.414,-33.691,-14.648,19.531,-10.254
1689804494.333,-17.090,-38.574,-15.137,27.832,169.434
1689804494.337,-20.020,-45.410,-32.715,-16.602,-117.676
1689804494.341,-38.574,-45.898,-38.086,-65.918,-252.930
1689804494.345,-43.945,-48.340,-26.855,-49.805,-169.922
1689804494.349,-33.203,-43.945,-21.484,5.371,-67.871
1689804494.353,-21.973,-37.598,-26.367,21.484,-32.227
1689804494.357,-20.020,-29.785,-34.180,-22.949,53.223
1689804494.360,-22.949,-28.809,-32.227,-73.730,0.488
1689804494.364,-30.273,-27.832,-36.621,-62.500,-116.211
1689804494.368,-23.438,-30.762,-44.434,1.465,-118.164
1689804494.372,-11.719,-44.434,-45.410,23.926,-96.680
1689804494.376,-20.020,-34.668,-37.109,-17.578,178.711
1689804494.378,-34.180,-22.461,-20.020,-63.965,141.602
1689804494.382,-26.367,-29.785,-19.531,-57.129,-221.191
1689804494.386,-11.719,-20.508,-30.273,0.488,-111.816
1689804494.390,-12.695,-8.301,-24.902,21.973,56.152
1689804494.394,-18.555,-26.855,-16.602,-16.113,-70.801
1689804494.398,-31.738,-39.551,-24.902,-75.684,-161.621
1689804494.402,-40.039,-33.203,-39.551,-89.355,-25.391
1689804494.405,-30.273,-27.832,-41.016,-31.738,196.777
1689804494.409,-18.555,-24.414,-38.574,16.602,153.809
1689804494.413,-25.391,-29.785,-41.016,-14.648,-122.559
1689804494.417,-36.133,-41.016,-35.156,-72.754,-84.473
1689804494.421,-41.992,-46.387,-37.598,-78.125,-6.836
1689804494.423,-36.621,-51.758,-41.992,-24.902,-219.238
1689804494.427,-20.508,-51.270,-27.832,22.461,-177.246
1689804494.431,-22.461,-39.062,-22.949,-1.465,-62.500
1689804494.435,-39.551,-21.973,-30.762,-68.848,-151.367
1689804494.439,-47.852,-20.996,-35.645,-92.773,-187.500
1689804494.443,-43.945,-34.668,-35.645,-47.852,-76.660
1689804494.447,-28.320,-37.109,-44.434,4.395,253.906
1689804494.450,-23.438,-22.461,-43.457,-5.859,388.184
1689804494.454,-33.691,-12.695,-26.855,-59.082,-85.449
1689804494.458,-45.898,-28.809,-38.574,-91.309,-280.762
1689804494.462,-45.410,-37.598,-38.086,-53.223,-199.219
1689804494.466,-31.738,-35.156,-31.738,10.254,-132.324
1689804494.468,-33.691,-37.598,-33.203,1.465,-135.254
1689804494.472,-41.016,-36.621,-25.879,-54.688,-153.320
1689804494.476,-42.480,-39.062,-21.484,-87.891,-116.211
1689804494.480,-36.621,-47.363,-15.625,-53.223,-109.375
1689804494.484,-20.508,-41.992,-27.344,8.789,-113.281
1689804494.488,-8.789,-41.016,-41.016,22.461,113.281
1689804494.492,-22.461,-32.715,-28.320,-35.156,367.676
1689804494.495,-38.574,-19.043,-17.090,-86.914,93.262
1689804494.499,-38.086,-20.508,-26.367,-68.359,-95.703
1689804494.503,-24.902,-24.902,-31.738,-13.672,51.270
1689804494.507,-17.578,-26.855,-39.551,8.301,45.898
1689804494.511,-36.133,-25.391,-46.875,-43.457,-130.859
1689804494.528,-41.992,-18.066,-33.691,-84.961,-275.879
1689804494.532,-31.250,-30.273,-23.926,-57.617,-101.562
1689804494.536,-37.598,-36.621,-41.504,-15.625,253.418
1689804494.540,-23.438,-27.344,-50.781,5.859,58.105
1689804494.544,8.301,-27.832,-32.715,-2.441,-177.734
1689804494.548,-8.301,-34.180,-27.344,-45.410,-94.238
1689804494.552,-54.199,-32.715,-37.598,-71.289,-90.820
1689804494.555,-71.777,-28.809,-28.809,-35.645,-115.723
1689804494.559,-63.965,-33.691,-18.066,-11.230,-41.504
1689804494.563,-62.012,-32.227,-15.625,-51.758,103.027
1689804494.567,-94.727,-31.738,-14.160,-131.348,12.207
1689804494.571,-134.277,-35.156,-22.461,-168.457,-175.781
1689804494.572,-138.672,-37.598,-22.461,-117.188,-166.504
1689804494.576,-125.977,-34.668,-17.578,-72.266,204.102
1689804494.580,-135.254,-25.879,-22.461,-107.910,313.477
1689804494.584,-167.480,-23.438,-17.578,-181.641,-101.562
1689804494.588,-188.477,-27.832,-17.578,-207.031,-145.020
1689804494.592,-185.547,-28.809,-25.879,-166.992,36.621
1689804494.596,-189.453,-28.320,-9.766,-137.207,66.406
1689804494.599,-184.570,-30.762,2.441,-147.949,-64.453
1689804494.603,-192.871,-39.551,5.371,-196.777,-50.781
1689804494.607,-219.727,-38.086,10.742,-232.910,298.828
1689804494.611,-220.215,-30.273,8.301,-202.148,224.609
1689804494.615,-210.938,-33.691,3.418,-159.180,-133.301
1689804494.618,-189.941,-41.504,-14.648,-145.508,40.039
1689804494.622,-188.965,-41.992,-21.973,-187.012,49.316
1689804494.626,-197.266,-37.109,-14.648,-220.215,-210.938
1689804494.630,-173.828,-45.898,-13.184,-161.133,-204.590
1689804494.634,-157.227,-53.711,-2.930,-101.562,-95.215
1689804494.638,-146.973,-54.688,1.953,-110.840,-1.953
1689804494.642,-134.766,-51.270,2.441,-153.320,2.441
1689804494.645,-148.926,-45.898,5.371,-185.059,-153.809
1689804494.649,-132.812,-54.199,-5.371,-136.719,-29.297
1689804494.653,-98.145,-58.105,-11.230,-60.059,67.383
1689804494.657,-80.566,-49.316,-11.719,-47.363,-145.508
1689804494.661,-71.289,-42.480,-13.672,-82.031,-230.957
1689804494.663,-69.336,-54.199,-16.113,-106.445,-57.617
1689804494.667,-66.406,-47.852,-24.902,-79.102,-17.578
1689804494.671,-47.363,-30.762,-36.621,-13.184,-158.691
1689804494.675,-20.508,-36.133,-25.879,22.949,-38.086
1689804494.679,-22.461,-46.875,-24.414,-12.207,28.320
1689804494.683,-27.832,-49.805,-20.508,-53.711,-99.609
1689804494.687,-18.066,-39.062,-12.695,-36.621,-105.469
1689804494.690,1.953,-41.504,-17.090,29.297,-41.504
1689804494.694,14.648,-52.734,-14.160,66.406,382.812
1689804494.698,13.184,-40.527,-18.066,22.461,330.078
1689804494.702,10.742,-33.691,-19.531,-30.273,-258.301
1689804494.706,11.719,-52.246,-19.043,-15.625,-216.309
1689804494.708,31.250,-48.340,-18.066,58.594,-102.539
1689804494.712,52.734,-21.973,-21.973,100.098,-99.121
1689804494.716,41.016,-29.785,-27.344,46.875,-79.102
1689804494.720,30.273,-42.480,-24.414,-8.789,-107.910
1689804494.724,23.926,-41.016,-27.832,-6.348,-128.906
1689804494.728,24.902,-46.387,-29.297,43.457,-76.660
1689804494.732,38.086,-68.359,-29.297,89.844,-3.906
1689804494.735,31.738,-60.059,-33.691,58.105,270.020
1689804494.739,8.789,-29.785,-28.809,-11.719,370.605
1689804494.743,-5.859,-22.949,-31.250,-29.297,-103.516
1689804494.747,-2.441,-37.598,-35.645,19.043,-237.793
1689804494.751,4.883,-40.039,-30.273,57.617,-109.375
1689804494.752,6.348,-38.574,-30.273,25.879,-89.844
1689804494.756,-0.488,-42.969,-33.691,-30.273,-158.203
1689804494.760,-5.371,-47.852,-31.738,-44.434,-178.223
1689804494.764,-5.371,-43.457,-39.551,-3.906,-132.812
1689804494.768,3.906,-38.574,-35.156,48.828,-64.941
1689804494.772,10.254,-48.340,-21.973,46.387,-35.645
1689804494.776,-10.742,-49.316,-37.109,-15.137,-73.242
1689804494.779,-25.391,-61.035,-35.645,-43.945,208.496
1689804494.783,-17.578,-69.824,-24.414,0.977,200.195
1689804494.787,-16.602,-49.805,-33.203,39.062,-88.379
1689804494.791,-19.043,-31.738,-29.785,20.508,100.098
1689804494.795,-29.297,-35.645,-19.531,-38.086,194.336
1689804494.798,-41.992,-47.363,-28.809,-77.637,-173.828
1689804494.802,-32.715,-63.477,-33.691,-41.504,-285.156
1689804494.806,-19.043,-51.270,-35.156,15.137,-95.703
1689804494.810,-12.207,-27.344,-55.176,19.531,-21.484
1689804494.814,-9.766,-25.391,-57.129,-21.484,-111.816
1689804494.818,-23.926,-27.832,-40.039,-63.477,-181.152
1689804494.822,-23.438,-34.180,-28.320,-38.086,114.746
1689804494.825,-7.324,-31.250,-17.090,15.137,275.879
1689804494.829,-5.371,-24.902,-20.020,26.367,-64.453
1689804494.833,-23.926,-33.203,-32.227,-19.043,-140.137
1689804494.837,-45.410,-37.109,-36.133,-69.336,-64.453
1689804494.841,-41.016,-38.574,-18.555,-55.664,-114.746
1689804494.843,-19.531,-39.551,-6.836,6.836,-126.953
1689804494.847,-15.137,-41.992,-19.531,29.297,-37.109
1689804494.851,-19.043,-40.039,-24.902,-13.184,-2.441
1689804494.855,-19.043,-50.293,-34.180,-60.059,-179.688
1689804494.859,-30.762,-51.270,-53.711,-64.453,-300.293
1689804494.863,-22.461,-30.273,-35.156,-11.230,-84.473
1689804494.867,-16.113,-29.297,-17.090,15.625,251.953
1689804494.870,-24.902,-31.738,-24.902,-26.855,33.203
1689804494.874,-29.297,-25.879,-31.250,-75.684,-211.426
1689804494.878,-40.527,-29.785,-30.762,-72.754,-41.992
1689804494.882,-35.645,-32.715,-24.414,-4.395,192.871
1689804494.886,-15.137,-21.484,-11.719,45.898,49.805
1689804494.889,-11.719,-28.809,-7.812,22.461,-78.613
1689804494.893,-20.996,-29.297,-20.508,-35.156,23.926
1689804494.897,-22.461,-22.949,-42.969,-49.805,-81.543
1689804494.901,-12.207,-19.043,-42.480,-2.441,-213.867
1689804494.905,-3.418,-37.109,-28.320,41.504,-139.160
1689804494.909,-5.859,-42.969,-30.762,19.043,-13.184
1689804494.913,-14.160,-24.902,-29.297,-34.668,9.277
1689804494.916,-23.438,-29.785,-23.438,-58.594,-129.395
1689804494.920,-37.109,-28.320,-31.738,-41.504,-198.242
1689804494.924,-29.785,-23.926,-33.203,-0.488,10.742
1689804494.928,-20.508,-22.949,-35.156,-4.883,35.645
1689804494.932,-31.738,-24.414,-42.969,-58.594,-207.520
1689804494.948,-32.715,-32.715,-41.504,-76.660,-219.238
1689804494.952,-24.902,-46.387,-36.621,-29.297,-65.430
1689804494.956,-14.160,-46.387,-33.691,28.320,21.484
1689804494.960,-12.207,-33.203,-35.156,21.484,-5.859
1689804494.964,-25.391,-26.855,-43.945,-37.109,-79.102
1689804494.968,-37.598,-28.320,-44.922,-72.754,77.148
1689804494.972,-31.738,-47.852,-33.203,-42.480,90.820
1689804494.975,-20.020,-50.293,-34.668,13.672,-87.891
1689804494.979,-6.836,-33.691,-30.762,26.855,-35.645
1689804494.983,-8.789,-31.250,-19.531,-17.578,298.828
1689804494.987,-33.691,-20.508,-23.926,-75.684,107.422
1689804494.991,-34.180,-21.484,-26.367,-56.152,-250.000
1689804495.008,-20.508,-32.227,-26.367,11.230,-106.445
1689804495.012,-17.578,-23.438,-26.855,19.043,-54.199
1689804495.016,-20.996,-24.902,-19.531,-27.832,-150.879
1689804495.020,-28.809,-34.180,-2.930,-70.801,-189.453
1689804495.024,-35.156,-38.086,-4.883,-57.617,-102.539
1689804495.028,-24.414,-39.551,-16.113,4.883,31.738
1689804495.032,-9.277,-37.598,-20.020,34.180,47.363
1689804495.035,-10.254,-50.293,-20.508,-7.812,-74.707
1689804495.039,-26.855,-60.547,-23.438,-63.965,81.543
1689804495.043,-32.715,-30.762,-31.738,-64.941,227.539
1689804495.047,-24.414,-13.672,-43.945,-18.555,-63.965
1689804495.051,-7.812,-20.996,-46.875,19.043,-135.742
1689804495.038,-12.207,-32.227,-42.969,-17.090,-89.355
1689804495.042,-36.621,-34.668,-36.621,-82.031,-167.969
1689804495.046,-44.922,-26.367,-31.250,-83.496,-225.586
1689804495.050,-41.992,-34.668,-38.086,-31.250,-155.273
1689804495.054,-38.086,-38.574,-41.016,5.859,-57.129
1689804495.058,-41.504,-40.039,-30.762,-20.996,2.930
1689804495.062,-48.828,-45.898,-23.438,-79.102,-30.273
1689804495.065,-47.852,-41.992,-20.996,-85.938,-13.184
1689804495.069,-38.086,-43.945,-22.949,-26.855,33.203
1689804495.073,-23.438,-28.320,-27.344,22.949,4.395
1689804495.077,-15.625,-18.555,-22.461,2.930,-46.875
1689804495.081,-24.902,-27.832,-5.859,-53.223,-27.344
1689804495.083,-32.227,-42.480,-15.137,-66.406,298.340
1689804495.087,-12.207,-34.668,-31.250,-7.324,241.699
1689804495.091,1.953,-21.973,-29.297,40.527,-82.031
1689804495.095,-19.531,-29.785,-26.367,1.465,-76.172
1689804495.099,-29.785,-31.250,-22.949,-60.547,-92.285
1689804495.103,-34.180,-35.156,-28.809,-79.590,-168.457
1689804495.107,-43.945,-36.133,-32.227,-42.969,-140.137
1689804495.110,-30.762,-43.457,-33.203,13.184,144.043
1689804495.114,-24.902,-39.551,-26.367,4.883,210.449
1689804495.118,-30.762,-39.062,-23.438,-55.176,-136.719
1689804495.122,-32.227,-58.105,-33.203,-77.637,-182.617
1689804495.126,-32.227,-53.711,-31.250,-41.016,-31.738
1689804495.130,-24.414,-35.156,-29.297,11.719,-19.043
1689804495.134,-17.578,-24.414,-26.367,24.414,-101.562
1689804495.138,-23.926,-27.832,-30.762,-28.320,-122.559
1689804495.142,-33.203,-37.598,-31.738,-83.496,-102.539
1689804495.146,-35.156,-43.945,-25.391,-62.012,-148.926
1689804495.150,-24.414,-34.668,-11.230,1.953,-146.484
1689804495.154,-14.160,-26.367,-1.465,21.484,46.387
1689804495.157,-10.742,-27.344,-16.113,-24.902,274.414
1689804495.161,-26.367,-28.809,-21.484,-77.148,86.426
1689804495.165,-41.992,-27.832,-18.066,-65.918,-164.551
1689804495.169,-23.926,-30.273,-19.531,7.324,-56.152
1689804495.173,-11.230,-36.621,-14.648,38.086,44.434
1689804495.174,-16.113,-20.508,-17.090,-11.230,-72.754
1689804495.178,-32.715,-17.578,-32.715,-69.824,-194.336
1689804495.182,-38.086,-17.578,-29.297,-64.453,-122.070
1689804495.186,-31.738,-15.625,-19.043,-10.742,5.371
1689804495.190,-24.414,-13.184,-16.602,15.625,-57.129
1689804495.194,-36.621,-17.578,-22.949,-22.461,-61.035
1689804495.198,-61.523,-33.203,-47.363,-85.449,184.082
1689804495.201,-56.641,-26.855,-48.340,-77.637,445.312
1689804495.205,-40.039,-20.996,-15.137,-16.602,158.203
1689804495.209,-34.180,-35.645,-15.625,10.742,-161.133
1689804495.213,-34.180,-52.246,-23.926,-18.555,-124.023
1689804495.217,-43.945,-59.570,-19.531,-72.754,-158.691
1689804495.218,-50.781,-25.391,-39.551,-88.379,-250.000
1689804495.222,-44.922,-8.789,-40.039,-36.133,-193.848
1689804495.226,-29.785,-15.625,-23.926,11.719,-89.355
1689804495.230,-26.855,-22.461,-21.484,-11.230,-3.418
1689804495.234,-47.363,-26.367,-22.461,-78.125,-55.176
1689804495.238,-57.617,-29.785,-32.227,-101.562,-122.559
1689804495.242,-44.922,-38.086,-30.762,-38.086,301.758
1689804495.245,-18.066,-27.832,-14.648,19.531,301.758
1689804495.249,-6.836,-16.113,-16.602,10.742,-58.105
1689804495.253,-20.996,-24.902,-28.809,-39.062,-16.602
1689804495.257,-33.203,-32.715,-22.461,-71.289,-75.195
1689804495.261,-28.320,-24.902,-21.973,-37.598,-166.016
1689804495.278,-16.113,-15.625,-25.391,15.625,-185.059
1689804495.282,-7.324,-18.066,-35.156,14.648,17.578
1689804495.286,-19.043,-14.648,-43.945,-46.875,68.359
1689804495.290,-41.016,-32.715,-29.785,-93.262,-218.750
1689804495.294,-45.410,-52.734,-22.461,-55.176,-172.363
1689804495.298,-44.434,-34.180,-18.555,-1.465,100.586
1689804495.302,-39.551,-17.578,-19.531,-1.953,77.637
1689804495.305,-39.062,-14.160,-16.113,-45.410,-48.828
1689804495.309,-49.316,-20.508,-23.926,-81.543,-134.766
1689804495.313,-44.922,-25.879,-34.668,-57.617,-147.949
1689804495.317,-29.785,-25.391,-29.297,-0.488,-62.988
1689804495.321,-23.438,-25.879,-29.785,12.207,-66.406
1689804495.323,-31.250,-35.645,-38.574,-47.852,-148.438
1689804495.327,-43.945,-45.410,-34.668,-94.238,108.887
1689804495.331,-51.758,-40.527,-59.570,-80.078,150.879
1689804495.335,-41.992,-35.645,-73.242,-31.738,-171.875
1689804495.339,-27.832,-42.969,-36.133,-6.348,-35.645
1689804495.343,-22.949,-42.480,-25.391,-38.086,105.469
1689804495.347,-49.805,-39.551,-28.809,-91.309,0.488
1689804495.350,-66.406,-41.504,-30.273,-85.938,-178.223
1689804495.354,-41.504,-48.828,-31.738,-11.230,-144.531
1689804495.358,-19.531,-52.734,-10.742,31.738,357.422
1689804495.362,-18.555,-42.969,-3.906,-5.371,441.895
1689804495.366,-33.203,-47.363,-20.020,-67.383,-118.164
1689804495.368,-30.762,-39.551,-15.137,-63.477,-228.516
1689804495.372,-17.090,-17.578,-24.902,-7.324,-143.555
1689804495.376,-15.137,-25.391,-38.574,22.461,-138.184
1689804495.380,-19.043,-21.973,-51.758,-6.836,-122.559
1689804495.384,-34.668,-22.461,-47.363,-61.523,-148.926
1689804495.388,-42.480,-40.527,-18.555,-68.848,-127.441
1689804495.392,-25.879,-29.297,-6.348,-15.137,-77.637
1689804495.395,-13.184,-24.414,-12.695,30.273,-104.492
1689804495.399,-20.996,-38.574,-25.391,4.883,150.879
1689804495.403,-42.969,-31.738,-31.738,-62.500,209.473
1689804495.407,-59.082,-28.809,-36.621,-89.355,-170.410
1689804495.411,-52.246,-34.668,-40.039,-44.922,-103.516
1689804495.413,-33.203,-28.320,-35.645,14.648,15.625
1689804495.417,-20.996,-21.484,-30.762,12.207,-52.246
1689804495.421,-26.367,-28.320,-38.574,-47.363,-226.074
1689804495.425,-39.062,-45.410,-38.086,-81.055,-236.816
1689804495.429,-38.086,-56.641,-33.203,-38.086,-119.629
1689804495.433,-27.832,-46.387,-37.109,18.066,17.090
1689804495.437,-27.832,-37.598,-46.387,10.742,71.777
1689804495.440,-30.762,-33.203,-32.715,-41.016,-9.277
1689804495.444,-33.691,-24.414,-17.090,-69.336,264.648
1689804495.448,-38.574,-13.184,-38.086,-47.852,200.684
1689804495.452,-34.180,-15.625,-44.922,-0.488,-160.645
1689804495.456,-23.926,-24.902,-34.668,10.254,-28.809
1689804495.458,-29.297,-23.926,-28.809,-41.504,-84.473
1689804495.462,-43.457,-19.043,-32.715,-92.773,-253.906
1689804495.466,-40.527,-18.066,-35.156,-63.477,-228.516
1689804495.470,-35.156,-24.902,-28.809,-2.441,0.000
1689804495.474,-37.598,-33.203,-35.156,-7.812,103.516
1689804495.478,-44.922,-33.691,-32.715,-55.664,39.062
1689804495.482,-57.617,-27.832,-32.227,-90.820,-35.156
1689804495.485,-56.152,-26.855,-33.691,-73.730,91.309
1689804495.489,-44.434,-32.227,-33.691,-13.184,205.566
1689804495.493,-37.109,-39.062,-26.367,19.531,-65.918
1689804495.497,-32.227,-33.691,-24.902,-18.066,-162.598
1689804495.501,-39.062,-29.297,-39.062,-75.684,-165.039
1689804495.503,-49.316,-23.438,-41.016,-65.430,-212.891
1689804495.507,-42.480,-23.926,-33.203,-9.766,-202.148
1689804495.511,-29.297,-36.133,-35.156,19.531,-80.078
1689804495.515,-34.668,-48.340,-36.133,-18.066,-36.133
1689804495.519,-41.504,-31.738,-35.156,-73.730,-81.543
1689804495.523,-44.922,-19.043,-42.969,-80.078,-73.242
1689804495.527,-40.039,-28.320,-34.180,-26.855,-13.184
1689804495.530,-29.785,-41.504,-20.020,14.160,317.871
1689804495.534,-25.391,-33.691,-16.113,-10.254,323.730
1689804495.538,-26.367,-13.184,-21.973,-67.383,-108.398
1689804495.542,-36.133,-17.090,-27.832,-81.055,-100.586
1689804495.546,-37.598,-27.344,-26.855,-37.598,48.340
1689804495.548,-20.508,-35.645,-24.414,5.371,-86.426
1689804495.552,-9.766,-50.781,-23.438,-1.953,-143.555
1689804495.556,-24.902,-38.086,-44.434,-54.688,-130.371
1689804495.560,-42.480,-19.531,-49.805,-76.172,-183.105
1689804495.564,-36.621,-23.926,-30.273,-31.250,-165.039
1689804495.568,-21.973,-24.902,-23.438,25.391,2.930
1689804495.572,-8.301,-16.602,-27.344,28.320,305.176
1689804495.575,-19.531,-20.996,-36.621,-36.133,313.965
1689804495.579,-37.109,-25.879,-39.062,-82.520,-144.043
1689804495.583,-31.250,-34.668,-42.480,-48.340,-220.215
1689804495.587,-22.949,-39.551,-42.969,12.695,-5.371
1689804495.591,-15.137,-20.508,-28.320,22.461,16.113
1689804495.593,-23.926,-10.254,-20.996,-36.133,-157.227
1689804495.597,-34.180,-18.555,-38.574,-75.684,-186.523
1689804495.601,-23.438,-21.484,-32.715,-39.551,-116.211
1689804495.605,-14.648,-20.996,-19.043,14.160,-95.215
1689804495.609,-12.695,-26.855,-13.672,16.602,-110.352
1689804495.613,-14.648,-47.852,-37.109,-28.320,35.156
1689804495.617,-20.020,-39.062,-55.176,-62.988,276.855
1689804495.620,-26.367,-17.578,-27.832,-40.527,83.008
1689804495.624,-26.367,-16.602,-21.973,10.254,-125.488
1689804495.628,-20.996,-29.785,-26.855,16.602,70.312
1689804495.632,-34.180,-37.598,-21.973,-35.645,395.508
1689804495.636,-50.293,-29.297,-13.672,-92.773,79.102
1689804495.653,-40.527,-19.043,-10.742,-69.824,-288.574
1689804495.657,-36.133,-13.672,-27.832,-3.418,-187.988
1689804495.661,-31.250,-23.926,-40.527,20.508,-94.238
1689804495.665,-25.879,-30.273,-31.250,-15.625,-127.441
1689804495.669,-34.180,-27.344,-20.996,-83.496,-211.426
1689804495.673,-49.805,-25.879,-18.555,-93.262,-82.031
1689804495.677,-38.574,-22.461,-26.367,-16.602,25.879
1689804495.680,-29.297,-8.301,-32.715,18.066,-59.082
1689804495.684,-37.109,-9.766,-32.715,-22.461,-115.723
1689804495.688,-33.203,-23.438,-26.367,-61.035,-55.176
1689804495.692,-32.227,-28.320,-35.156,-66.895,-79.590
1689804495.696,-27.832,-18.066,-38.086,-15.137,-132.812
1689804495.728,-14.648,-15.625,-25.391,30.273,-123.535
1689804495.732,-11.719,-31.250,-25.391,4.395,144.043
1689804495.736,-25.391,-24.414,-33.203,-64.941,208.984
1689804495.740,-29.785,-13.672,-29.297,-84.961,-180.664
1689804495.744,-24.414,-20.996,-20.996,-28.320,-141.113
1689804495.748,-17.578,-18.555,-25.391,19.043,85.938
1689804495.752,-16.602,-11.230,-37.598,0.488,75.195
1689804495.755,-26.367,-7.812,-37.109,-56.641,-127.930
1689804495.759,-35.645,-16.602,-46.387,-79.590,-158.691
1689804495.763,-33.203,-34.668,-47.852,-37.598,312.012
1689804495.767,-19.043,-27.832,-20.508,11.719,312.988
1689804495.771,-10.254,-12.207,-9.277,3.906,-104.004
1689804495.732,-10.742,-11.230,-14.160,-52.734,-163.574
1689804495.736,-26.855,-12.695,-36.621,-83.008,-192.871
1689804495.740,-39.551,-21.484,-46.875,-43.945,-196.777
1689804495.744,-35.156,-26.367,-25.879,14.160,-154.297
1689804495.748,-25.391,-22.461,-5.859,20.996,24.902
1689804495.752,-21.973,-17.090,-11.230,-29.785,125.488
1689804495.756,-34.668,-19.043,-29.785,-72.754,-19.531
1689804495.759,-32.227,-20.508,-36.621,-38.086,-110.840
1689804495.763,-22.461,-37.109,-36.133,22.461,-18.555
1689804495.767,-27.832,-44.922,-36.621,15.137,35.156
1689804495.771,-36.133,-27.344,-18.555,-46.875,-75.684
1689804495.775,-39.062,-22.461,-16.602,-86.914,-118.164
1689804495.788,-34.668,-32.715,-46.875,-62.012,-35.645
1689804495.792,-30.762,-31.738,-54.199,-6.836,-16.113
1689804495.796,-21.973,-34.668,-4.883,17.090,-57.129
1689804495.800,-22.949,-32.715,0.977,-30.273,-66.895
1689804495.804,-36.133,-28.809,-11.230,-86.426,233.887
1689804495.808,-38.086,-33.203,4.883,-74.707,321.777
1689804495.812,-30.273,-29.785,-13.672,-10.254,-65.430
1689804495.815,-12.695,-28.320,-37.598,20.020,-78.125
1689804495.819,-14.648,-29.785,-36.133,-25.879,278.320
1689804495.823,-32.227,-28.320,-33.203,-82.520,77.637
1689804495.827,-40.527,-28.809,-30.762,-77.148,-318.359
1689804495.831,-26.367,-36.133,-26.367,-19.043,-177.734
1689804495.833,-13.672,-39.062,-24.902,16.113,-67.383
1689804495.837,-21.484,-39.551,-20.020,-8.301,-95.215
1689804495.841,-36.133,-43.457,-35.645,-67.871,-156.738
1689804495.845,-37.109,-62.012,-25.879,-77.148,-203.125
1689804495.849,-25.391,-59.082,-12.207,-22.949,-144.043
1689804495.853,-21.484,-31.738,-24.902,20.508,-51.270
1689804495.857,-26.855,-22.949,-35.156,-2.930,-108.887
1689804495.860,-30.762,-25.391,-43.945,-61.523,71.777
1689804495.864,-38.574,-32.715,-49.316,-77.637,288.086
1689804495.868,-34.180,-28.320,-41.992,-24.902,-39.062
1689804495.872,-19.531,-24.414,-24.902,27.832,-121.582
1689804495.876,-23.438,-33.691,-29.297,-0.977,-69.824
1689804495.878,-35.156,-36.621,-35.645,-65.430,-183.594
1689804495.882,-40.527,-32.715,-25.391,-83.496,-261.719
1689804495.886,-36.133,-26.855,-22.949,-36.621,-174.805
1689804495.890,-27.832,-28.320,-26.855,13.184,-37.109
1689804495.894,-26.367,-32.715,-22.949,5.371,-55.664
1689804495.898,-27.344,-36.133,-20.508,-41.016,-164.551
1689804495.902,-31.250,-37.109,-24.902,-72.754,-46.387
1689804495.905,-36.621,-26.367,-27.344,-42.480,235.352
1689804495.909,-27.344,-16.113,-34.180,8.789,118.652
1689804495.913,-20.508,-15.625,-25.391,-1.465,-34.668
1689804495.917,-36.133,-23.438,-27.832,-63.965,65.918
1689804495.921,-54.688,-27.344,-36.621,-98.145,183.105
1689804495.923,-47.363,-14.160,-31.250,-57.617,-6.348
1689804495.927,-24.414,-26.367,-21.484,7.324,-119.141
1689804495.931,-18.066,-44.922,-19.531,15.625,-12.695
1689804495.935,-28.320,-34.180,-23.438,-41.016,-48.828
1689804495.939,-46.875,-37.598,-27.344,-92.773,-153.809
1689804495.943,-51.758,-38.086,-32.227,-63.477,-137.695
1689804495.947,-44.922,-39.551,-18.555,2.441,208.008
1689804495.950,-39.551,-31.738,-11.230,12.695,323.242
1689804495.954,-39.551,-12.207,-13.672,-42.969,-92.285
1689804495.958,-44.434,-33.203,-24.414,-84.473,-223.633
1689804495.962,-39.551,-32.715,-34.668,-55.664,-219.238
1689804495.966,-28.809,-15.625,-20.996,4.395,-85.938
1689804495.968,-16.602,-17.090,-8.789,25.391,21.973
1689804495.972,-26.855,-25.391,-19.043,-18.066,-106.445
1689804495.976,-39.062,-29.297,-35.156,-74.219,-91.797
1689804495.980,-33.203,-16.113,-33.691,-69.824,-148.926
1689804495.984,-31.250,-25.879,-32.227,-18.066,-202.148
1689804495.988,-20.508,-33.691,-24.414,19.531,88.867
1689804495.992,-19.043,-23.438,-26.367,-19.043,283.691
1689804495.995,-38.574,-17.578,-33.203,-84.473,3.418
1689804495.999,-45.410,-29.297,-27.344,-84.961,-177.734
1689804496.003,-28.320,-46.875,-35.645,-30.273,-7.324
1689804496.007,-15.137,-41.504,-38.574,13.184,115.234
1689804496.011,-22.461,-27.832,-36.133,-14.648,-69.336
1689804496.028,-33.203,-36.133,-45.898,-75.684,-226.074
1689804496.032,-41.504,-40.039,-39.062,-84.473,-97.656
1689804496.036,-39.551,-32.715,-34.180,-34.668,38.086
1689804496.040,-28.809,-23.926,-26.367,16.602,-73.242
1689804496.044,-35.156,-22.461,-20.020,1.465,-141.113
1689804496.048,-51.758,-33.203,-33.203,-51.758,64.453
1689804496.052,-53.711,-31.250,-41.504,-66.406,248.047
1689804496.055,-47.852,-33.203,-36.621,-35.645,-71.777
1689804496.059,-26.855,-41.016,-23.438,12.695,-143.066
1689804496.063,-16.602,-39.551,-20.996,6.348,32.227
1689804496.067,-31.738,-39.551,-27.832,-56.152,-31.250
1689804496.071,-43.457,-39.062,-38.574,-88.867,-210.449
1689804496.073,-45.410,-35.156,-45.898,-51.270,-197.754
1689804496.077,-34.180,-35.645,-47.852,1.953,-52.734
1689804496.081,-22.461,-31.738,-39.551,5.859,-12.207
1689804496.085,-34.180,-33.203,-33.691,-53.711,-136.230
1689804496.089,-48.340,-31.738,-39.551,-99.609,-105.957
1689804496.093,-42.969,-27.832,-30.762,-59.570,83.496
1689804496.097,-36.621,-56.152,-23.438,-1.465,110.840
1689804496.100,-30.762,-59.082,-22.461,3.418,33.691
1689804496.104,-29.297,-30.762,-17.578,-44.434,31.738
1689804496.108,-28.809,-25.391,-19.043,-77.637,313.477
1689804496.112,-27.344,-14.648,-22.461,-55.664,243.652
1689804496.116,-31.738,-11.230,-22.461,-3.906,-128.418
1689804496.118,-28.809,-31.250,-24.902,17.090,-154.297
1689804496.122,-26.855,-31.738,-26.855,-19.531,-141.113
1689804496.126,-32.227,-12.695,-18.066,-69.824,-246.094
1689804496.130,-37.109,-20.996,-22.949,-58.105,-252.930
1689804496.134,-27.344,-29.297,-52.246,8.789,-59.082
1689804496.138,-14.648,-20.508,-60.059,29.785,31.250
1689804496.142,-18.555,-27.344,-35.645,-26.367,-2.930
1689804496.145,-48.340,-34.180,-19.531,-90.820,-131.348
1689804496.149,-60.059,-41.016,-7.812,-77.637,-5.371
1689804496.153,-50.293,-35.156,-10.254,-15.625,274.902
1689804496.157,-29.785,-14.648,-19.043,15.625,32.227
1689804496.161,-18.555,-11.230,-17.578,-13.672,-90.332
1689804496.163,-26.367,-19.531,-18.066,-67.383,-119.141
1689804496.167,-31.250,-41.504,-21.973,-68.359,-223.633
1689804496.171,-13.672,-30.273,-33.203,-14.648,-170.898
1689804496.175,0.000,-9.766,-39.551,31.250,-35.645
1689804496.179,-5.859,-18.066,-49.805,11.719,-12.207
1689804496.183,-20.020,-18.066,-53.223,-50.293,-88.867
1689804496.187,-45.898,-12.695,-40.527,-77.148,-83.984
1689804496.190,-30.762,-21.973,-22.949,-20.996,-25.391
1689804496.194,-6.836,-29.297,-12.207,41.992,377.441
1689804496.198,-19.043,-27.832,-19.531,13.184,406.250
1689804496.202,-31.250,-35.156,-25.879,-54.199,-146.484
1689804496.206,-31.738,-38.574,-29.297,-69.336,-144.531
1689804496.208,-19.531,-22.949,-22.461,-18.066,1.953
1689804496.212,-9.766,-17.578,-27.344,31.250,-128.906
1689804496.216,-6.348,-23.926,-36.133,24.902,-111.328
1689804496.220,-13.672,-23.926,-16.113,-30.273,-58.105
1689804496.224,-35.156,-26.367,-10.254,-66.406,-163.086
1689804496.228,-47.852,-49.805,-50.293,-36.133,-156.738
1689804496.232,-29.297,-36.621,-54.688,16.113,-22.461
1689804496.235,-20.020,-4.883,-14.160,14.648,193.848
1689804496.239,-30.762,-6.348,-15.625,-49.805,189.941
1689804496.243,-43.945,-15.137,-44.434,-104.004,-209.473
1689804496.247,-43.945,-20.996,-45.410,-74.219,-262.207
1689804496.251,-27.344,-16.113,-26.855,-3.418,-74.219
1689804496.253,-25.879,-17.090,-17.578,8.789,8.789
1689804496.257,-35.645,-20.508,-22.949,-48.828,-117.676
1689804496.261,-43.457,-21.484,-39.062,-97.168,-236.816
1689804496.265,-40.527,-21.484,-33.203,-71.289,-146.484
1689804496.269,-30.273,-11.230,-15.625,-4.883,-117.188
1689804496.273,-23.926,-3.906,-23.438,10.742,-68.359
1689804496.277,-18.555,-18.066,-26.855,-36.133,-0.977
1689804496.280,-15.625,-18.555,-9.277,-75.684,104.004
1689804496.284,-27.832,-7.324,-5.859,-60.059,8.301
1689804496.288,-30.273,-14.648,-25.879,-3.418,-135.254
1689804496.292,-20.508,-30.762,-23.926,23.926,-30.762
1689804496.296,-28.809,-31.250,-14.648,-23.438,3.906
1689804496.314,-48.828,-12.695,-21.973,-79.102,-134.766
1689804496.318,-59.570,-22.949,-31.250,-72.754,-225.098
1689804496.322,-51.270,-42.480,-36.621,-17.578,-9.766
1689804496.326,-39.551,-31.738,-36.133,16.113,216.797
1689804496.330,-39.551,-20.508,-45.898,-23.926,-66.406
1689804496.334,-41.016,-27.344,-37.598,-81.543,-240.723
1689804496.338,-35.156,-26.855,-17.578,-76.172,69.336
1689804496.341,-31.250,-13.184,-15.137,-18.555,199.219
1689804496.345,-35.645,-8.789,-15.625,15.137,-73.242
1689804496.349,-27.832,-22.949,-18.555,-13.672,-138.672
1689804496.353,-35.156,-36.133,-29.785,-80.566,-180.176
1689804496.357,-48.340,-38.086,-37.598,-92.773,-237.305
1689804496.343,-33.691,-36.133,-37.598,-38.086,-256.348
1689804496.347,-25.879,-49.805,-26.855,5.859,-170.410
1689804496.351,-22.949,-44.922,-23.438,-10.742,-83.496
1689804496.355,-20.508,-33.203,-31.738,-60.059,-134.277
1689804496.359,-30.762,-54.199,-20.508,-76.172,-194.336
1689804496.363,-28.320,-50.293,-21.484,-27.344,-5.859
1689804496.367,-4.395,-26.855,-30.273,34.668,220.703
1689804496.370,-8.789,-25.391,-20.508,21.484,73.242
1689804496.374,-32.227,-35.156,-34.180,-44.434,-83.008
1689804496.378,-46.387,-43.945,-38.086,-82.520,-39.062
1689804496.382,-37.598,-36.133,-30.762,-42.480,312.500
1689804496.386,-28.809,-20.508,-27.344,10.254,392.578
1689804496.403,-36.621,-16.602,-14.160,-0.488,-0.977
1689804496.407,-41.992,-19.531,-11.719,-53.711,-72.754
1689804496.411,-54.688,-20.508,-16.602,-90.332,-95.215
1689804496.415,-53.711,-18.555,-31.738,-57.617,-173.340
1689804496.419,-36.621,-15.625,-55.664,-2.441,-91.797
1689804496.423,-29.785,-11.230,-55.664,5.371,99.609
1689804496.427,-35.645,-17.578,-37.109,-38.086,94.238
1689804496.430,-48.340,-40.039,-39.551,-85.449,-64.453
1689804496.434,-58.594,-27.832,-38.086,-72.754,-145.020
1689804496.438,-44.922,-11.230,-23.926,-16.113,143.066
1689804496.442,-34.668,-19.531,-22.949,-5.371,413.086
1689804496.446,-43.457,-21.973,-24.902,-56.641,-25.879
1689804496.447,-50.781,-23.926,-26.855,-99.121,-204.102
1689804496.451,-47.852,-34.668,-31.250,-78.125,-150.391
1689804496.455,-31.250,-39.551,-38.574,-10.742,-132.812
1689804496.459,-17.578,-34.668,-41.016,22.461,-71.289
1689804496.463,-14.648,-33.203,-29.297,-19.043,-2.441
1689804496.467,-20.996,-28.320,-28.320,-61.523,112.793
1689804496.471,-35.156,-30.762,-17.090,-62.012,79.102
1689804496.474,-31.250,-25.391,-5.371,-14.160,-86.914
1689804496.478,-25.879,-35.645,-11.719,14.648,9.277
1689804496.482,-31.738,-54.199,-15.137,-28.320,414.062
1689804496.486,-49.805,-39.062,-15.625,-83.008,343.262
1689804496.490,-55.176,-29.297,-17.578,-84.961,-135.742
1689804496.492,-35.156,-23.926,-27.344,-19.043,-120.117
1689804496.496,-24.902,-29.297,-35.645,28.320,20.020
1689804496.500,-24.902,-32.227,-34.668,3.906,-121.582
1689804496.504,-31.738,-28.809,-28.809,-49.805,-181.641
1689804496.508,-47.363,-39.551,-26.855,-68.359,-154.297
1689804496.512,-44.434,-38.086,-26.855,-22.949,-81.055
1689804496.516,-25.391,-40.039,-40.039,22.949,-20.508
1689804496.519,-23.438,-41.016,-62.500,2.930,-134.277
1689804496.523,-26.855,-34.180,-45.898,-49.805,39.551
1689804496.527,-38.574,-30.273,-13.672,-75.195,126.953
1689804496.531,-52.734,-31.250,-17.090,-47.852,-178.223
1689804496.535,-40.527,-27.832,-31.738,0.488,-147.461
1689804496.538,-31.738,-22.461,-45.898,-0.488,-19.043
1689804496.542,-39.062,-26.855,-46.875,-61.035,-86.914
1689804496.546,-35.156,-23.926,-20.996,-83.008,-249.023
1689804496.550,-22.461,-26.855,-7.324,-35.156,-173.340
1689804496.554,-21.973,-32.715,-15.625,16.602,30.273
1689804496.558,-16.602,-31.250,-21.973,16.602,118.652
1689804496.562,-25.391,-26.367,-30.273,-52.734,47.852
1689804496.565,-40.039,-26.855,-30.273,-91.797,-88.867
1689804496.569,-36.133,-44.922,-23.926,-47.852,320.312
1689804496.573,-24.414,-51.270,-21.484,15.137,344.238
1689804496.577,-22.949,-45.410,-32.715,18.555,-122.070
1689804496.581,-40.527,-41.504,-46.387,-45.410,-130.371
1689804496.583,-49.316,-45.898,-36.621,-91.309,-160.156
1689804496.587,-44.922,-46.875,-29.297,-70.312,-208.984
1689804496.591,-29.297,-24.414,-26.855,-13.184,-152.344
1689804496.595,-20.508,-14.160,-24.414,5.859,55.664
1689804496.599,-37.109,-20.508,-31.738,-46.875,51.270
1689804496.603,-47.363,-23.926,-34.180,-98.145,-81.055
1689804496.607,-44.434,-28.809,-29.785,-69.336,-17.578
1689804496.610,-26.367,-39.551,-20.996,3.906,155.762
1689804496.614,1.465,-24.902,-20.996,33.691,179.199
1689804496.618,4.883,-6.348,-34.668,-9.766,-147.461
1689804496.622,-12.695,-16.113,-32.715,-66.406,-264.160
1689804496.626,-34.180,-23.438,-26.855,-78.125,-223.145
1689804496.628,-38.574,-17.090,-24.902,-32.715,-154.785
1689804496.632,-18.066,-25.879,-18.555,8.789,-102.539
1689804496.636,-15.137,-44.434,-18.066,-24.902,-61.035
1689804496.640,-39.062,-31.250,-35.645,-90.332,-72.754
1689804496.644,-50.293,-9.766,-41.016,-94.238,-163.086
1689804496.648,-34.668,-7.324,-20.996,-28.320,-98.145
1689804496.652,-22.949,-13.184,-18.066,26.367,106.445
1689804496.655,-21.973,-26.855,-25.391,-4.395,454.102
1689804496.659,-27.832,-31.738,-23.438,-65.918,299.805
1689804496.663,-36.133,-26.855,-20.508,-75.195,-179.688
1689804496.667,-27.832,-31.250,-21.484,-15.625,-92.773
1689804496.671,-14.648,-33.691,-24.414,30.762,64.453
1689804496.673,-10.742,-29.297,-27.344,5.371,-73.242
1689804496.677,-25.391,-33.203,-29.297,-54.199,-172.363
1689804496.681,-41.504,-27.832,-33.691,-85.938,-133.789
1689804496.685,-26.367,-29.297,-18.066,-34.180,-108.398
1689804496.689,-10.742,-35.156,-11.230,22.949,-77.148
1689804496.693,-7.812,-38.086,-38.574,4.395,-12.207
1689804496.697,-11.230,-35.645,-41.992,-53.223,168.457
1689804496.700,-32.227,-24.902,-26.855,-84.473,265.137
1689804496.704,-34.668,-14.160,-13.672,-39.551,-80.078
1689804496.708,-16.113,-8.301,-8.301,20.508,-192.383
1689804496.712,-12.207,-11.719,-12.207,19.043,-18.066
1689804496.716,-27.344,-17.578,-20.020,-40.039,-116.699
1689804496.717,-43.457,-28.809,-27.832,-87.891,-327.637
1689804496.721,-50.781,-39.062,-28.320,-63.477,-229.980
1689804496.725,-45.410,-36.133,-27.832,-9.277,-72.266
1689804496.729,-42.480,-23.926,-28.320,-3.418,-52.246
1689804496.733,-48.340,-19.043,-29.297,-53.223,-141.602
1689804496.737,-70.801,-25.879,-30.273,-104.492,-116.211
1689804496.741,-92.773,-24.902,-27.832,-102.539,169.434
1689804496.744,-96.680,-14.648,-20.996,-70.801,98.633
1689804496.748,-111.816,-6.836,-23.926,-79.590,-46.387
1689804496.752,-135.742,-12.207,-27.344,-141.113,29.785
1689804496.756,-166.992,-15.137,-28.809,-207.031,173.828
1689804496.760,-182.617,-5.859,-25.879,-206.055,4.883
1689804496.763,-165.039,-0.488,-29.785,-145.508,-171.387
1689804496.767,-152.832,0.488,-32.227,-126.953,-19.531
1689804496.771,-166.504,4.395,-26.855,-176.270,-52.246
1689804496.775,-182.617,-2.930,-26.855,-233.398,-230.469
1689804496.779,-189.941,-18.066,-28.320,-235.840,-272.461
1689804496.783,-178.223,-20.996,-23.926,-168.945,-9.766
1689804496.787,-157.715,-25.879,-23.438,-124.023,146.484
1689804496.790,-150.879,-30.273,-33.691,-157.227,-35.645
1689804496.794,-147.461,-47.363,-40.039,-203.125,-220.703
1689804496.798,-136.719,-58.105,-11.719,-183.594,-35.645
1689804496.802,-124.512,-22.461,-7.324,-120.605,99.121
1689804496.806,-101.562,2.441,-21.484,-76.172,-131.836
1689804496.823,-79.590,-8.789,-22.949,-75.684,-93.262
1689804496.827,-74.219,-22.461,-21.484,-111.816,-26.367
1689804496.831,-71.777,-32.715,-24.414,-123.047,-106.934
1689804496.835,-43.457,-36.133,-25.879,-61.035,-145.508
1689804496.839,-17.578,-28.809,-24.414,1.465,-20.508
1689804496.843,-33.203,-32.715,-23.438,-18.066,141.113
1689804496.847,-45.898,-38.574,-14.648,-71.289,56.641
1689804496.850,-40.527,-42.969,-23.926,-76.660,-127.930
1689804496.854,-21.484,-39.062,-39.551,-16.113,-63.477
1689804496.858,2.930,-48.340,-33.691,55.176,404.785
1689804496.862,20.508,-60.059,-23.438,54.199,274.902
1689804496.866,24.414,-49.316,-8.789,-3.418,-232.422
1689804496.868,18.555,-38.574,1.465,-29.785,-224.121
1689804496.872,21.484,-30.273,-8.301,7.324,-150.879
1689804496.876,36.621,-34.668,-27.344,63.965,-138.184
1689804496.880,40.039,-38.574,-28.320,66.895,-87.891
1689804496.884,35.156,-20.020,-22.949,11.230,102.539
1689804496.888,20.508,-19.531,-25.879,-39.551,128.418
1689804496.892,13.672,-25.391,-33.691,-14.160,-74.219
1689804496.895,31.738,-18.066,-38.574,58.105,-177.246
1689804496.899,36.133,-30.273,-49.805,71.777,102.051
1689804496.903,20.020,-44.922,-49.805,8.789,213.379
1689804496.907,7.812,-40.527,-18.555,-33.203,-198.242
1689804496.911,11.719,-41.992,-6.348,4.395,-187.012
1689804496.913,27.344,-41.504,-18.066,70.312,-53.223
1689804496.917,37.109,-43.457,-20.996,91.797,-90.332
1689804496.921,31.738,-39.551,-29.785,45.898,-151.367
1689804496.925,13.672,-42.969,-42.480,-14.160,-141.113
1689804496.929,8.301,-47.363,-34.668,1.465,-69.824
1689804496.933,19.043,-39.551,-37.598,58.105,40.039
1689804496.937,18.555,-37.598,-39.551,67.383,79.102
1689804496.940,8.301,-31.250,-20.020,22.949,34.180
1689804496.944,0.488,-37.109,-32.227,-27.344,295.410
1689804496.948,-6.348,-42.969,-66.895,-25.879,333.496
1689804496.952,2.930,-29.297,-47.852,21.484,-67.871
1689804496.956,10.254,-38.574,-11.230,48.340,-70.312
1689804496.958,2.930,-52.734,-4.883,7.324,-32.715
1689804496.962,-15.625,-44.922,-16.602,-53.711,-230.957
1689804496.966,-29.785,-41.016,-31.738,-60.059,-241.699
1689804496.970,-18.555,-35.645,-29.785,5.371,-99.121
1689804496.974,2.441,-22.461,-9.766,53.223,-45.898
1689804496.978,6.836,-17.578,-9.766,19.531,26.367
1689804496.982,-10.742,-25.879,-20.508,-44.434,-37.109
1689804496.985,-16.602,-29.785,-34.180,-55.176,53.223
1689804496.989,-7.812,-26.855,-45.898,3.418,239.258
1689804496.993,7.812,-25.391,-43.457,55.176,-41.992
1689804496.997,13.184,-32.227,-37.598,44.434,-146.973
1689804497.001,6.836,-33.691,-20.508,1.953,-51.270
1689804497.017,-2.441,-32.715,-14.648,-18.066,-100.098
1689804497.021,-9.277,-35.156,-11.719,7.812,-187.012
1689804497.025,-3.906,-31.738,-13.184,41.016,-77.148
1689804497.029,-8.301,-31.250,-20.996,27.344,12.207
1689804497.033,-29.297,-31.250,-25.879,-39.551,-87.891
1689804497.037,-36.133,-38.574,-28.320,-76.172,-247.070
1689804497.041,-23.926,-43.945,-27.344,-30.273,-86.426
1689804497.044,-8.301,-39.062,-38.086,26.855,291.016
1689804497.048,-7.812,-26.855,-50.293,21.973,172.363
1689804497.052,-8.789,-17.090,-36.133,-36.621,-126.953
1689804497.056,-13.672,-20.020,-28.809,-72.754,-66.406
1689804497.060,-26.855,-23.438,-39.062,-42.480,179.688
1689804497.047,-14.648,-10.254,-26.367,18.555,-29.785
1689804497.051,-15.137,-21.484,-26.367,18.555,-213.379
1689804497.055,-29.785,-41.016,-46.387,-43.457,-132.812
1689804497.059,-41.016,-38.086,-46.387,-91.797,-178.223
1689804497.063,-48.828,-45.898,-33.203,-73.242,-232.910
1689804497.067,-45.898,-50.781,-26.367,-17.090,-34.180
1689804497.071,-38.574,-36.133,-25.391,-0.977,183.594
1689804497.074,-33.203,-29.785,-27.344,-34.668,44.434
1689804497.078,-39.062,-36.133,-31.738,-78.125,-169.922
1689804497.082,-34.180,-42.480,-29.785,-62.988,-229.004
1689804497.086,-18.066,-48.828,-23.438,10.742,94.238
1689804497.090,-7.324,-31.738,-20.996,46.875,250.000
1689804497.093,-11.230,-25.391,-14.648,0.977,-122.070
1689804497.097,-23.926,-30.762,-17.090,-51.270,-147.949
1689804497.101,-30.273,-41.016,-24.902,-47.852,-57.617
1689804497.105,-11.719,-38.574,-11.719,12.207,-85.938
1689804497.109,-3.906,-24.902,-9.277,40.527,-90.820
1689804497.113,-23.926,-35.645,-34.180,-9.766,61.035
1689804497.117,-35.156,-45.410,-43.457,-60.059,250.488
1689804497.120,-43.457,-48.828,-28.320,-65.918,38.574
1689804497.124,-41.992,-37.598,-20.996,-19.531,-141.113
1689804497.128,-29.785,-22.461,-35.645,23.438,38.574
1689804497.132,-25.391,-20.508,-55.176,1.953,160.156
1689804497.136,-34.668,-17.578,-35.156,-59.570,-127.441
1689804497.138,-41.992,-16.602,-13.672,-82.520,-270.996
1689804497.142,-34.668,-28.320,-16.602,-34.180,-118.164
1689804497.146,-21.484,-31.250,-19.531,18.555,-22.461
1689804497.150,-24.414,-34.668,-18.066,-2.930,37.598
1689804497.154,-29.297,-34.668,-7.324,-58.105,-37.598
1689804497.158,-30.273,-41.504,-7.812,-73.730,85.449
1689804497.162,-25.391,-43.945,-32.715,-41.016,334.961
1689804497.165,-20.020,-26.367,-42.969,-4.395,27.344
1689804497.169,-26.855,-26.855,-50.781,-16.113,-184.082
1689804497.173,-33.691,-30.762,-59.082,-58.594,-122.070
1689804497.177,-32.227,-36.133,-39.062,-72.754,-137.695
1689804497.181,-25.879,-38.574,-36.133,-27.344,-208.496
1689804497.198,-13.672,-36.133,-33.203,30.762,-157.227
1689804497.202,-2.930,-46.387,-11.719,30.273,-11.719
1689804497.206,-15.625,-33.203,-16.602,-35.156,-51.758
1689804497.210,-31.250,-21.973,-24.414,-70.312,-232.910
1689804497.214,-29.785,-32.715,-28.320,-29.785,-161.133
1689804497.218,-12.695,-33.203,-26.367,23.926,81.055
1689804497.222,-7.812,-30.762,-12.207,19.043,128.418
1689804497.225,-25.879,-39.551,-5.371,-37.598,24.414
1689804497.229,-43.457,-40.527,-18.555,-87.402,-12.695
1689804497.233,-44.922,-36.133,-18.555,-61.035,240.723
1689804497.237,-28.320,-33.691,-24.902,3.418,302.734
1689804497.241,-12.207,-32.715,-38.574,15.625,-52.734
1689804497.248,-23.438,-36.621,-40.039,-35.156,-158.203
1689804497.252,-35.156,-32.715,-36.133,-83.984,-175.293
1689804497.256,-34.180,-31.250,-26.367,-64.453,-240.723
1689804497.260,-19.043,-32.715,-20.020,5.371,-163.574
1689804497.264,-7.324,-27.344,-25.391,26.367,-72.754
1689804497.268,-10.742,-25.391,-32.227,-24.414,4.883
1689804497.272,-27.344,-37.109,-21.973,-83.984,-31.250
1689804497.275,-46.875,-31.250,-13.672,-89.355,-214.355
1689804497.279,-42.480,-26.367,-18.066,-28.809,61.523
1689804497.283,-25.879,-32.715,-14.648,20.996,399.414
1689804497.287,-22.949,-30.762,-12.695,-5.859,45.898
1689804497.291,-31.250,-26.855,-18.555,-59.082,-224.609
1689804497.291,-33.691,-35.645,-22.461,-65.430,-198.242
1689804497.295,-18.555,-38.086,-14.160,-12.695,-152.344
1689804497.299,-4.883,-23.926,-28.809,30.273,-99.609
1689804497.303,-6.348,-20.020,-40.527,-3.906,-59.570
1689804497.307,-18.066,-21.973,-36.621,-61.035,-100.586
1689804497.311,-30.762,-26.855,-39.551,-65.918,-125.000
1689804497.315,-26.367,-31.250,-22.949,-14.160,-66.406
1689804497.318,-17.090,-35.156,-18.555,21.973,-21.973
1689804497.322,-23.926,-33.203,-29.785,-0.488,420.410
1689804497.326,-42.480,-27.344,-31.250,-58.594,353.516
1689804497.330,-40.039,-32.227,-14.160,-80.566,-266.113
1689804497.334,-29.785,-39.551,0.000,-22.949,-21.484
1689804497.334,-30.762,-44.434,-4.395,29.297,138.184
1689804497.338,-33.203,-62.500,-28.320,7.812,-129.883
1689804497.342,-37.598,-62.012,-43.457,-45.898,-238.770
1689804497.346,-50.781,-45.898,-34.668,-78.613,-216.309
1689804497.350,-51.270,-44.434,-14.648,-44.922,-178.711
1689804497.354,-25.879,-39.062,-3.418,10.742,-18.066
1689804497.358,-9.766,-28.320,-26.855,16.113,57.617
1689804497.361,-11.719,-28.320,-30.273,-27.344,81.055
1689804497.365,-33.203,-28.809,-9.766,-75.195,82.520
1689804497.369,-33.203,-18.555,-26.367,-49.805,-152.832
1689804497.373,-6.348,-22.461,-31.738,18.555,-134.277
1689804497.377,-1.953,-35.156,-23.926,27.344,-29.297
1689804497.379,-16.113,-29.785,-48.828,-25.879,-56.152
1689804497.383,-32.715,-23.926,-58.105,-73.730,-125.000
1689804497.387,-34.180,-31.738,-37.109,-48.340,-81.055
1689804497.391,-20.996,-36.621,-26.367,15.625,25.879
1689804497.395,-16.113,-28.809,-15.137,24.414,1.465
1689804497.399,-22.949,-22.949,-9.766,-21.973,-91.797
1689804497.403,-40.039,-35.645,-25.879,-70.312,-87.402
1689804497.406,-51.758,-48.340,-30.273,-66.406,127.930
1689804497.410,-41.504,-20.020,-17.090,-7.324,103.516
1689804497.414,-29.785,-12.695,-40.039,15.137,-149.414
1689804497.418,-34.668,-28.320,-64.941,-32.715,-67.383
1689804497.422,-47.852,-22.949,-39.062,-86.426,17.090
1689804497.422,-50.293,-15.137,-19.531,-82.031,-168.457
1689804497.426,-30.273,-19.531,-19.531,-18.066,-160.645
1689804497.430,-16.602,-28.809,-17.578,20.996,-29.297
1689804497.434,-19.531,-32.227,-22.461,-21.484,-13.672
1689804497.438,-32.715,-27.832,-23.926,-76.172,-51.270
1689804497.442,-40.527,-35.156,-33.691,-77.637,-106.445
1689804497.446,-36.133,-41.992,-28.809,-26.367,160.156
1689804497.449,-26.855,-27.344,-13.184,22.461,459.961
1689804497.453,-24.414,-5.859,-22.461,-3.418,90.820
1689804497.457,-49.805,-15.625,-38.574,-81.055,-191.895
1689804497.461,-71.777,-30.273,-47.852,-104.004,-179.199
1689804497.465,-61.035,-33.203,-39.551,-47.363,-161.133
1689804497.478,-32.715,-28.809,-14.160,10.254,-164.551
1689804497.482,-28.809,-26.855,-11.719,-0.977,-123.047
1689804497.486,-42.969,-39.551,-18.555,-60.059,-87.402
1689804497.490,-44.434,-24.902,-23.438,-78.125,-147.461
1689804497.494,-34.668,-11.719,-25.391,-31.250,-173.828
1689804497.498,-17.578,-19.043,-20.508,21.484,67.871
1689804497.502,-14.648,-34.668,-30.762,11.230,341.309
1689804497.505,-30.762,-44.922,-45.898,-48.828,58.105
1689804497.509,-44.922,-41.016,-33.203,-78.613,-139.648
1689804497.513,-39.062,-34.180,-3.906,-31.738,9.277
1689804497.517,-30.273,-26.855,0.977,24.902,254.883
1689804497.521,-31.250,-20.508,-11.230,8.789,107.910
1689804497.513,-33.691,-20.020,-20.508,-49.805,-208.008
1689804497.517,-37.109,-29.297,-17.090,-86.426,-185.547
1689804497.521,-33.203,-43.457,-19.043,-47.363,-166.992
1689804497.525,-14.648,-34.180,-35.645,20.996,-141.113
1689804497.529,-6.836,-23.926,-39.551,26.367,-131.348
1689804497.533,-19.043,-28.320,-25.391,-29.785,25.879
1689804497.537,-28.320,-19.043,-22.949,-71.289,81.543
1689804497.540,-29.785,-29.297,-30.273,-53.711,-105.469
1689804497.544,-25.879,-43.457,-20.508,7.324,-183.594
1689804497.548,-23.438,-31.250,-23.438,27.344,194.824
1689804497.552,-32.715,-21.484,-25.879,-25.391,277.832
1689804497.556,-49.316,-19.043,-26.367,-83.984,-168.457
1689804497.572,-48.828,-26.367,-30.273,-78.613,-246.582
1689804497.576,-36.621,-30.762,-30.762,-17.578,-135.254
1689804497.580,-28.809,-27.832,-39.062,16.113,-83.984
1689804497.584,-25.391,-30.273,-36.621,-19.531,-127.930
1689804497.588,-29.785,-37.598,-33.691,-73.242,-115.234
1689804497.592,-36.133,-40.039,-47.852,-70.312,-7.324
1689804497.596,-24.902,-39.551,-45.898,-6.348,113.770
1689804497.599,-17.090,-38.574,-30.762,29.297,72.754
1689804497.603,-22.461,-38.574,-29.785,-8.301,-62.500
1689804497.607,-26.855,-48.340,-41.992,-62.988,208.984
1689804497.611,-40.039,-35.645,-48.340,-76.660,159.668
1689804497.615,-31.738,-25.879,-23.438,-20.508,-123.047
1689804497.617,-28.809,-49.805,-9.277,17.578,126.953
1689804497.621,-39.062,-43.945,-15.625,-20.996,114.746
1689804497.625,-41.504,-36.133,-31.738,-82.520,-215.332
1689804497.629,-40.039,-38.574,-36.621,-90.820,-268.555
1689804497.633,-44.434,-39.062,-29.297,-33.691,-104.004
1689804497.637,-36.133,-38.086,-28.320,16.602,57.129
1689804497.641,-34.668,-37.598,-30.762,-6.836,58.594
1689804497.644,-44.434,-37.109,-27.832,-68.359,-139.648
1689804497.648,-44.434,-45.898,-22.949,-79.590,-9.277
1689804497.652,-38.574,-48.828,-15.137,-28.320,165.527
1689804497.656,-26.367,-41.504,-13.672,20.508,-76.172
1689804497.660,-14.648,-36.133,-34.180,18.066,-110.352
1689804497.663,-28.320,-37.598,-38.086,-47.363,-106.445
1689804497.667,-56.641,-44.434,-21.973,-93.750,-152.344
1689804497.671,-55.664,-42.480,-16.602,-52.734,-158.203
1689804497.675,-32.715,-34.180,-26.855,2.930,-82.520
1689804497.679,-24.902,-22.949,-29.785,0.000,94.727
1689804497.683,-27.344,-27.344,-21.973,-48.340,75.684
1689804497.687,-30.273,-30.762,-34.668,-76.660,-106.445
1689804497.690,-29.785,-18.066,-35.156,-52.246,-118.164
1689804497.694,-14.160,-20.020,-12.207,4.883,345.215
1689804497.698,0.977,-16.113,-10.742,18.066,373.047
1689804497.702,-3.418,-11.719,-23.438,-39.062,-155.273
1689804497.706,-23.926,-41.504,-21.973,-86.914,-169.434
1689804497.708,-30.273,-47.852,-23.438,-50.781,-118.652
1689804497.712,-27.832,-18.066,-40.039,10.254,-144.531
1689804497.716,-23.438,-18.555,-33.203,10.742,-126.465
1689804497.720,-29.297,-31.738,-30.762,-40.527,-104.492
1689804497.724,-44.922,-34.180,-30.762,-90.332,-58.594
1689804497.728,-43.457,-32.227,-27.832,-69.824,-56.641
1689804497.732,-31.250,-25.879,-36.621,-0.977,12.207
1689804497.735,-16.602,-26.855,-30.273,35.156,271.484
1689804497.739,-15.137,-38.086,-27.344,-3.418,400.391
1689804497.743,-33.691,-24.414,-38.086,-71.289,-26.367
1689804497.747,-44.922,-15.625,-21.973,-75.195,-247.559
1689804497.751,-35.645,-20.508,-11.719,-20.996,-55.176
1689804497.752,-25.879,-26.855,-25.391,16.113,-15.137
1689804497.756,-26.855,-39.551,-36.133,-15.625,-113.281
1689804497.760,-23.438,-34.668,-33.203,-65.430,-168.457
1689804497.764,-21.973,-32.715,-23.926,-64.941,-185.547
1689804497.768,-24.414,-36.133,-25.391,-21.484,-161.133
1689804497.772,-15.137,-31.250,-39.062,13.672,-28.809
1689804497.776,-13.184,-35.645,-31.250,-14.160,77.148
1689804497.779,-28.809,-47.363,-19.531,-70.312,264.160
1689804497.783,-44.922,-42.480,-34.668,-84.473,211.426
1689804497.787,-45.410,-33.691,-44.434,-37.109,-70.312
1689804497.791,-39.551,-52.734,-52.734,7.812,-25.391
1689804497.795,-29.785,-72.754,-55.176,-15.625,276.367
1689804497.798,-38.086,-49.316,-37.109,-79.102,1.465
1689804497.802,-44.922,-39.062,-20.996,-86.914,-354.004
1689804497.806,-22.461,-38.574,-27.832,-22.461,-195.312
1689804497.810,-18.066,-32.227,-22.949,27.344,-48.828
1689804497.814,-20.020,-31.738,-16.113,8.789,-59.082
1689804497.818,-27.832,-32.227,-23.438,-63.477,-95.215
1689804497.822,-46.387,-42.969,-15.137,-102.051,91.797
1689804497.825,-42.969,-40.039,-15.625,-54.199,158.691
1689804497.829,-34.668,-33.691,-31.738,2.441,-113.281
1689804497.833,-36.133,-31.250,-31.738,-1.953,-109.375
1689804497.837,-46.875,-34.668,-31.250,-58.105,13.184
1689804497.841,-58.594,-34.668,-41.016,-99.121,-102.051
1689804497.842,-50.293,-34.180,-35.156,-67.383,-175.781
1689804497.846,-35.156,-43.945,-34.668,-4.883,-81.543
1689804497.850,-32.715,-45.410,-40.039,9.766,-14.648
1689804497.854,-38.574,-41.016,-21.484,-43.457,-94.238
1689804497.858,-56.152,-45.898,-18.555,-91.797,-222.168
1689804497.862,-53.223,-44.434,-28.809,-54.688,-126.465
1689804497.866,-29.297,-32.715,-18.066,14.160,266.602
1689804497.869,-14.648,-25.391,-22.461,20.508,155.762
1689804497.873,-9.277,-26.855,-40.039,-28.809,-127.930
1689804497.877,-20.508,-34.180,-42.480,-75.684,-40.527
1689804497.881,-30.762,-35.156,-32.227,-68.359,14.648
1689804497.885,-24.414,-43.945,-34.180,-12.695,-125.977
1689804497.903,-16.113,-41.992,-39.062,12.695,-185.059
1689804497.907,-22.949,-24.414,-33.203,-26.855,-33.691
1689804497.911,-33.203,-23.438,-37.598,-77.637,-22.461
1689804497.915,-35.156,-26.367,-45.898,-75.195,-219.727
1689804497.919,-20.996,-25.391,-35.156,-4.395,-164.551
1689804497.923,-6.348,-32.227,-28.320,38.574,145.020
1689804497.927,-7.812,-30.762,-32.715,-0.977,165.039
1689804497.930,-18.555,-21.973,-32.227,-57.129,-92.773
1689804497.934,-32.227,-42.480,-27.344,-61.523,-191.895
1689804497.938,-37.598,-54.688,-27.344,-13.672,44.922
1689804497.942,-29.297,-36.133,-23.926,25.879,148.438
1689804497.946,-15.625,-27.832,-29.297,-0.977,-57.617
1689804497.963,-10.742,-32.715,-27.344,-55.176,-80.078
1689804497.967,-26.855,-39.551,-36.133,-67.383,-117.676
1689804497.971,-44.434,-31.250,-36.133,-26.367,-124.023
1689804497.975,-34.180,-25.879,-13.672,21.484,-69.824
1689804497.979,-23.438,-30.273,-25.391,11.230,-35.645
1689804497.983,-27.832,-36.621,-17.090,-44.922,52.734
1689804497.987,-38.574,-36.621,-5.371,-73.730,-2.930
1689804497.990,-39.062,-20.996,-15.137,-34.180,-74.219
1689804497.994,-21.484,-16.602,-13.184,29.785,26.855
1689804497.998,-10.742,-27.344,-11.230,28.809,378.906
1689804498.002,-14.160,-26.855,-12.207,-33.203,351.074
1689804498.006,-22.949,-20.020,-19.531,-66.406,-122.070
1689804497.993,-17.578,-38.086,-13.184,-13.184,-163.086
1689804497.997,-3.906,-42.969,-27.832,46.875,-41.504
1689804498.001,8.789,-19.531,-21.973,43.457,-93.750
1689804498.005,0.977,-3.418,-2.441,-10.742,-214.355
1689804498.009,-28.809,-3.418,-23.926,-57.617,-186.035
1689804498.013,-25.879,-6.836,-37.109,-26.855,-55.176
1689804498.017,-18.555,-14.160,-21.484,21.973,10.254
1689804498.020,-13.672,-17.090,-9.766,25.879,15.625
1689804498.024,-20.996,-25.391,-20.996,-27.344,-50.781
1689804498.028,-41.016,-26.855,-21.973,-73.242,-146.973
1689804498.032,-36.621,-16.113,-32.227,-43.945,-224.121
1689804498.036,-31.250,-24.414,-45.898,14.160,-192.383
1689804498.037,-28.809,-40.039,-11.719,24.414,148.926
1689804498.041,-34.668,-39.551,-5.371,-21.484,330.078
1689804498.045,-41.504,-22.949,-9.766,-68.848,-104.004
1689804498.049,-42.969,-29.297,-11.230,-58.594,-222.656
1689804498.053,-34.180,-38.574,-30.273,8.301,-64.941
1689804498.057,-24.414,-28.809,-32.715,35.156,5.859
1689804498.061,-29.297,-23.926,-20.508,-15.137,-72.266
1689804498.064,-40.527,-26.367,1.953,-69.824,-18.066
1689804498.068,-47.852,-49.805,1.465,-63.477,285.645
1689804498.072,-36.133,-47.363,-20.508,-11.230,135.742
1689804498.076,-30.762,-16.113,-23.926,14.648,-202.637
1689804498.080,-37.598,-12.207,-17.090,-22.949,-140.137
1689804498.082,-47.852,-14.160,-18.555,-76.660,225.098
1689804498.086,-45.898,0.488,-20.020,-74.707,88.379
1689804498.090,-37.109,0.000,-36.621,-23.438,-228.516
1689804498.094,-35.645,-19.043,-53.711,18.555,-129.395
1689804498.098,-27.832,-16.602,-38.086,7.324,-140.625
1689804498.102,-33.203,-18.555,-7.812,-46.387,-106.934
1689804498.106,-38.574,-20.020,-4.395,-64.941,-19.043
1689804498.109,-33.691,-20.020,-19.043,-16.602,133.301
1689804498.113,-19.531,-21.484,-34.180,26.367,207.031
1689804498.117,-11.230,-16.602,-39.551,1.465,-72.266
1689804498.121,-23.438,-27.832,-32.227,-56.152,-189.941
1689804498.125,-34.180,-28.809,-26.855,-75.684,-129.883
1689804498.127,-24.414,-29.297,-23.438,-23.926,-115.234
1689804498.131,-1.465,-22.949,-21.484,39.062,-149.414
1689804498.135,4.395,-18.066,-24.902,35.645,-87.402
1689804498.139,-24.902,-39.551,-26.855,-32.227,-59.570
1689804498.143,-43.945,-45.410,-37.109,-67.383,-119.629
1689804498.147,-43.945,-38.574,-39.551,-40.039,-46.387
1689804498.151,-35.156,-26.855,-24.414,9.766,113.281
1689804498.154,-32.715,-10.742,-15.137,10.254,301.270
1689804498.158,-47.363,-9.766,-12.695,-43.457,141.113
1689804498.162,-52.246,-12.695,-23.926,-81.543,-179.199
1689804498.166,-44.434,-14.648,-25.391,-53.711,-88.867
1689804498.170,-39.062,-27.344,-19.531,1.465,55.664
1689804498.173,-33.203,-41.504,-26.367,6.348,-67.871
1689804498.177,-27.344,-34.180,-27.344,-35.156,-183.105
1689804498.181,-36.621,-28.809,-37.598,-83.496,-88.867
1689804498.185,-51.758,-38.574,-43.945,-77.148,119.629
1689804498.189,-46.875,-36.133,-33.691,-18.555,-45.898
1689804498.193,-40.039,-41.016,-28.809,0.977,-131.836
1689804498.197,-41.016,-44.922,-25.879,-49.316,118.164
1689804498.200,-47.363,-38.086,-25.391,-97.168,138.184
1689804498.204,-52.246,-25.879,-37.109,-84.473,-239.258
1689804498.208,-32.715,-33.691,-57.129,-19.531,-227.539
1689804498.212,-11.719,-29.785,-56.152,19.531,-59.082
1689804498.216,-11.719,-15.137,-26.855,-23.438,-79.102
1689804498.217,-26.855,-18.066,-16.113,-79.590,-211.914
1689804498.221,-38.086,-15.137,-26.855,-71.777,-251.465
1689804498.225,-29.785,-25.879,-21.484,-14.160,-129.395
1689804498.229,-18.555,-29.785,-13.184,19.531,-11.230
1689804498.233,-23.926,-20.508,-31.738,-18.555,-59.570
1689804498.237,-40.527,-37.109,-28.809,-78.125,-105.469
1689804498.241,-44.434,-48.340,-15.137,-70.801,241.699
1689804498.244,-24.414,-21.484,-13.672,-7.812,236.816
1689804498.248,-5.371,-15.137,-28.809,26.855,-39.062
1689804498.252,-16.602,-22.949,-47.852,-2.930,114.746
1689804498.256,-29.785,-29.297,-43.457,-60.059,91.309
1689804498.260,-32.715,-30.762,-26.855,-72.266,-145.996
1689804498.278,-31.738,-23.926,-15.137,-26.367,-188.965
1689804498.282,-25.879,-31.250,-21.973,24.902,47.852
1689804498.286,-24.414,-39.551,-19.531,5.371,91.309
1689804498.290,-32.227,-44.922,-33.203,-62.012,-132.812
1689804498.294,-33.691,-39.551,-49.316,-78.613,-241.211
1689804498.298,-39.551,-23.926,-29.297,-33.203,-67.383
1689804498.302,-44.922,-20.020,-26.855,2.930,166.016
1689804498.305,-43.457,-21.973,-35.645,-18.555,80.078
1689804498.309,-53.223,-22.949,-41.992,-75.684,-174.805
1689804498.313,-47.852,-43.457,-32.715,-87.402,-54.688
1689804498.317,-39.062,-42.480,-28.320,-41.504,176.270
1689804498.321,-34.668,-23.438,-50.781,9.277,-63.965
1689804498.323,-14.648,-35.645,-43.945,22.949,-125.000
1689804498.327,-16.113,-43.945,-18.066,-35.156,-141.602
1689804498.331,-38.574,-32.715,-13.184,-95.215,-287.109
1689804498.335,-46.875,-27.344,-25.879,-77.148,-259.277
1689804498.339,-35.645,-34.180,-37.598,-17.090,-101.562
1689804498.343,-26.855,-25.391,-31.738,-10.254,23.438
1689804498.347,-32.227,-6.348,-32.227,-58.105,26.855
1689804498.350,-40.039,-5.859,-56.152,-91.797,-98.145
1689804498.354,-45.410,-20.996,-50.293,-64.453,-108.887
1689804498.358,-35.645,-28.320,-10.742,0.977,358.398
1689804498.362,-25.879,-20.020,-20.020,19.043,469.727
1689804498.366,-27.832,-17.090,-33.203,-38.574,-49.316
1689804498.368,-37.598,-47.363,-26.367,-86.426,-230.469
1689804498.372,-44.922,-45.410,-28.320,-64.941,-194.824
1689804498.376,-36.621,-15.137,-21.484,-11.719,-163.574
1689804498.380,-32.227,-24.414,-38.574,5.371,-99.121
1689804498.384,-43.945,-41.992,-44.922,-41.504,-54.199
1689804498.388,-48.340,-34.180,-19.043,-84.473,-36.621
1689804498.392,-37.109,-24.414,-1.465,-63.965,0.977
1689804498.395,-37.109,-32.715,-20.508,-12.207,-44.922
1689804498.399,-35.645,-45.410,-27.832,16.602,124.023
1689804498.403,-34.668,-42.480,-17.578,-19.043,229.980
1689804498.407,-43.457,-35.645,-16.113,-76.660,-99.121
1689804498.411,-45.898,-47.363,-19.043,-77.148,-210.938
1689804498.427,-36.621,-41.504,-20.020,-21.973,-81.055
1689804498.431,-23.926,-22.461,-30.762,13.672,-3.906
1689804498.435,-20.996,-15.625,-48.828,-17.578,-85.938
1689804498.439,-22.461,-25.391,-41.016,-66.895,-125.000
1689804498.443,-21.484,-33.691,-26.855,-70.312,-145.020
1689804498.447,-19.531,-40.527,-38.574,-20.996,-79.102
1689804498.451,-5.859,-31.738,-46.875,27.344,35.156
1689804498.454,2.930,-22.949,-23.926,12.695,-25.879
1689804498.458,-10.742,-28.320,-43.945,-49.316,219.727
1689804498.462,-28.320,-16.113,-72.754,-71.289,168.457
1689804498.466,-23.926,-12.695,-38.574,-20.020,-204.590
1689804498.470,-15.625,-31.250,-15.625,30.762,-26.855
1689804498.459,-20.996,-34.180,-17.578,18.555,41.992
1689804498.463,-39.062,-23.926,-12.207,-41.504,-101.074
1689804498.467,-43.457,-26.367,-4.395,-73.730,-218.262
1689804498.471,-33.691,-41.016,-11.230,-26.367,-86.426
1689804498.475,-20.508,-51.758,-27.344,25.391,109.863
1689804498.479,-8.789,-47.852,-29.297,19.531,20.020
1689804498.483,-19.043,-47.852,-31.250,-37.598,-44.922
1689804498.486,-45.898,-41.504,-40.527,-88.379,-8.789
1689804498.490,-43.457,-40.527,-51.270,-54.199,-45.410
1689804498.494,-15.625,-44.434,-42.480,11.230,-40.527
1689804498.498,-12.695,-34.668,-22.461,9.766,-87.402
1689804498.502,-28.809,-28.320,-35.156,-53.711,106.445
1689804498.503,-41.504,-21.973,-51.270,-100.586,145.508
1689804498.507,-35.645,-28.320,-49.805,-76.172,-230.957
1689804498.511,-16.113,-31.250,-33.203,-7.324,-169.434
1689804498.515,-18.066,-23.438,-3.906,6.348,46.387
1689804498.519,-27.832,-25.879,-2.441,-48.828,-78.613
1689804498.523,-39.062,-35.156,-28.320,-95.215,-172.852
1689804498.527,-37.598,-47.363,-42.969,-72.754,-132.812
1689804498.530,-27.344,-44.434,-22.461,-1.465,226.562
1689804498.534,-28.809,-33.203,-20.508,20.996,411.621
1689804498.538,-20.020,-29.785,-29.785,-27.344,-26.855
1689804498.542,-25.879,-39.062,-4.395,-72.754,-125.977
1689804498.546,-40.039,-37.109,-7.812,-63.477,4.395
1689804498.548,-32.227,-31.738,-31.738,-4.883,-117.676
1689804498.552,-19.043,-20.508,-30.762,29.297,-129.883
1689804498.556,-10.742,-16.602,-24.902,0.488,-30.273
1689804498.560,-13.672,-13.672,-24.902,-52.246,-110.352
1689804498.564,-20.020,-6.836,-29.785,-51.758,-180.176
1689804498.568,-10.254,-17.090,-36.621,11.230,-139.648
1689804498.572,4.883,-17.578,-31.250,49.805,169.922
1689804498.575,-0.977,-17.090,-23.926,14.648,359.375
1689804498.579,-18.066,-20.996,-15.137,-63.477,-74.707
1689804498.583,-24.414,-26.855,-14.648,-83.008,-264.648
1689804498.587,-13.184,-16.113,-24.414,-24.414,-125.977
1689804498.591,-0.977,-3.418,-31.250,31.738,-62.988
1689804498.593,-2.930,-4.883,-24.414,11.230,-122.559
1689804498.597,-12.207,-18.555,-17.578,-51.270,-148.438
1689804498.601,-23.438,-34.180,-17.090,-67.871,-107.910
1689804498.605,-11.719,-18.555,-31.250,-17.090,-87.402
1689804498.609,1.465,-24.414,-30.762,39.551,-56.641
1689804498.613,5.371,-43.457,-16.602,40.039,93.262
1689804498.617,-9.277,-16.602,-14.648,-18.066,311.523
1689804498.620,-26.855,1.953,-17.090,-53.711,62.988
1689804498.624,-18.555,-5.371,-25.391,-20.020,-196.777
1689804498.628,-10.254,-12.695,-46.875,24.414,101.562
1689804498.632,-12.695,-26.367,-53.711,22.461,404.297
1689804498.636,-14.648,-19.531,-33.691,-29.297,96.680
1689804498.638,-28.320,-13.184,-31.738,-74.707,-288.574
1689804498.642,-30.273,-23.438,-16.602,-44.922,-207.031
1689804498.646,-13.672,-14.160,-6.836,15.137,-101.562
1689804498.650,-10.742,-13.184,-23.926,18.555,-157.227
1689804498.654,-23.438,-26.367,-31.738,-41.016,-196.289
1689804498.658,-38.086,-30.273,-34.180,-86.426,-1.953
1689804498.662,-48.828,-23.926,-32.227,-67.871,74.219
1689804498.665,-38.086,-24.902,-25.879,-14.160,-74.707
1689804498.669,-20.020,-42.969,-29.785,5.859,-113.281
1689804498.673,-32.715,-45.898,-26.367,-39.062,36.133
1689804498.677,-54.688,-25.879,-16.113,-85.449,68.359
1689804498.681,-65.918,-17.090,-22.949,-78.613,-135.742
1689804498.697,-54.199,-27.344,-30.762,-16.602,-143.066
1689804498.701,-32.715,-27.832,-23.438,26.367,57.617
1689804498.705,-36.133,-32.715,-33.691,-12.207,50.293
1689804498.709,-45.410,-49.805,-35.645,-67.871,-165.039
1689804498.713,-44.434,-59.082,-35.645,-63.965,-164.062
1689804498.717,-41.016,-37.109,-42.480,-21.973,96.680
1689804498.721,-24.902,-17.090,-23.926,7.324,111.328
1689804498.724,-16.602,-19.531,-27.344,-23.926,-82.031
1689804498.728,-37.109,-29.785,-42.969,-81.055,-10.742
1689804498.732,-45.898,-39.551,-24.902,-69.336,246.094
1689804498.736,-42.480,-35.645,-16.602,-19.043,73.242
1689804498.740,-42.969,-31.738,-26.367,10.254,-155.273
1689804498.743,-37.109,-41.504,-33.203,-13.672,16.113
1689804498.747,-47.852,-38.574,-48.828,-73.242,162.598
1689804498.751,-56.152,-44.434,-57.617,-95.703,-146.973
1689804498.755,-42.969,-59.082,-48.340,-35.156,-309.082
1689804498.759,-17.090,-37.109,-30.273,30.273,-94.727
1689804498.763,-4.395,-42.480,-25.879,6.348,10.742
1689804498.767,-20.996,-54.199,-28.320,-53.711,-83.496
1689804498.770,-40.527,-45.898,-26.367,-81.055,-235.352
1689804498.774,-38.574,-39.062,-27.344,-37.109,0.977
1689804498.778,-27.344,-32.227,-31.250,18.066,253.418
1689804498.782,-24.902,-22.949,-21.973,10.742,-52.734
1689804498.786,-32.715,-24.414,-11.230,-41.992,-199.219
1689804498.788,-44.922,-31.738,-10.254,-83.008,-178.711
1689804498.792,-37.598,-25.879,-19.043,-39.062,-140.625
1689804498.796,-18.555,-32.715,-32.227,20.508,-102.539
1689804498.800,-9.766,-36.621,-34.180,23.926,-44.922
1689804498.804,-14.648,-28.320,-29.297,-18.066,21.484
1689804498.808,-37.109,-42.480,-20.996,-73.242,5.859
1689804498.812,-39.551,-47.852,-19.043,-56.152,-6.836
1689804498.815,-24.902,-41.016,-16.602,6.348,17.578
1689804498.819,-20.996,-33.203,-20.508,18.555,413.574
1689804498.823,-30.762,-29.785,-28.809,-34.668,433.105
1689804498.827,-40.527,-28.320,-29.297,-85.938,-155.273
1689804498.831,-35.156,-37.109,-32.715,-66.406,-244.629
1689804498.833,-25.879,-46.387,-36.133,-0.977,-96.191
1689804498.837,-22.949,-42.480,-28.809,12.695,-117.676
1689804498.841,-38.086,-46.875,-24.902,-48.828,-193.359
1689804498.845,-54.688,-46.387,-24.414,-90.820,-165.527
1689804498.849,-52.246,-28.809,-20.020,-68.848,-146.484
1689804498.853,-40.527,-18.555,-22.461,-5.371,-63.965
1689804498.857,-25.391,-15.137,-38.574,27.832,16.602
1689804498.860,-12.695,-17.578,-38.086,-9.766,184.082
1689804498.864,-16.113,-16.602,-31.738,-57.617,259.277
1689804498.868,-26.855,-15.625,-34.180,-57.617,-68.359
1689804498.872,-10.254,-23.438,-31.738,8.789,-130.859
1689804498.876,-3.418,-28.809,-29.297,42.480,-28.320
1689804498.878,-10.254,-16.113,-33.691,-6.348,-88.867
1689804498.882,-5.371,-15.625,-41.992,-59.570,-192.383
1689804498.886,-14.160,-16.602,-35.156,-61.523,-216.309
1689804498.890,-17.578,-18.555,-25.879,-5.859,-123.535
1689804498.894,-15.137,-29.297,-22.949,37.598,-61.523
1689804498.898,-16.602,-32.227,-28.809,7.324,-15.625
1689804498.902,-27.344,-33.203,-22.949,-50.293,-14.160
1689804498.905,-56.641,-35.156,-26.855,-67.871,124.512
1689804498.909,-57.129,-36.133,-22.461,-20.020,157.227
1689804498.913,-36.621,-38.574,-13.672,29.785,-2.930
1689804498.917,-39.551,-50.781,-31.738,3.418,-12.207
1689804498.921,-50.293,-59.082,-25.391,-59.082,92.773
1689804498.923,-52.246,-48.340,-12.207,-87.402,-55.176
1689804498.927,-49.316,-43.457,-16.602,-51.270,-219.238
1689804498.931,-49.805,-44.434,-28.809,-5.859,-102.539
1689804498.935,-45.410,-45.898,-44.434,-23.926,-82.520
1689804498.939,-48.340,-44.922,-48.340,-90.820,-147.461
1689804498.943,-50.293,-38.086,-42.480,-119.629,-167.480
1689804498.947,-42.480,-52.246,-36.621,-71.777,106.934
1689804498.950,-33.203,-39.551,-42.480,-22.949,251.465
1689804498.954,-15.625,-18.066,-39.551,-21.484,-93.262
1689804498.958,-8.301,-17.578,-22.461,-59.570,-256.348
1689804498.962,-23.926,-16.113,-27.832,-92.285,-201.172
1689804498.966,-48.828,-20.508,-41.992,-66.895,-84.473
1689804498.968,-57.129,-27.344,-41.504,-7.324,-112.305
1689804498.972,-49.805,-43.457,-41.504,10.742,-107.910
1689804498.976,-50.781,-45.898,-37.598,-34.668,7.324
1689804498.980,-55.664,-35.156,-29.297,-79.590,-76.172
1689804498.984,-50.293,-31.738,-28.809,-47.363,-175.781
1689804498.988,-28.320,-36.621,-28.320,30.762,4.883
1689804498.992,-14.160,-40.039,-24.902,49.316,322.266
1689804498.995,-24.902,-39.551,-26.855,-8.301,136.230
1689804498.999,-43.457,-36.621,-34.668,-66.406,-194.336
1689804499.003,-47.363,-28.320,-51.758,-56.152,-55.176
1689804499.007,-41.016,-26.367,-59.082,-6.836,77.148
1689804499.011,-38.086,-41.016,-25.391,9.766,25.391
1689804499.013,-43.945,-33.203,2.930,-41.504,-159.668
1689804499.017,-65.430,-30.273,-4.395,-106.934,-85.938
1689804499.021,-61.035,-30.762,-11.230,-93.750,238.281
1689804499.025,-43.945,-9.766,-23.926,-29.297,18.555
1689804499.029,-31.250,-6.348,-25.879,9.277,-199.707
1689804499.033,-24.902,-27.344,-26.367,-28.809,27.832
1689804499.037,-43.945,-44.434,-32.227,-96.191,6.348
1689804499.040,-46.387,-29.297,-39.062,-91.309,-220.215
1689804499.044,-27.344,-20.996,-54.199,-21.484,-211.426
1689804499.048,-22.461,-27.344,-37.598,18.555,51.758
1689804499.052,-31.250,-31.738,-26.367,-22.461,62.988
1689804499.056,-38.574,-31.250,-30.273,-82.031,-220.703
1689804499.073,-50.293,-31.738,-29.785,-87.402,-224.121
1689804499.077,-52.246,-29.785,-30.762,-43.945,-118.164
1689804499.081,-48.828,-35.645,-36.621,-8.301,-55.664
1689804499.085,-48.340,-48.340,-40.527,-24.414,-84.961
1689804499.089,-47.852,-54.199,-33.691,-73.242,-77.637
1689804499.093,-55.176,-47.852,-39.062,-101.074,233.887
1689804499.097,-56.641,-48.340,-44.922,-62.012,186.035
1689804499.100,-46.387,-43.457,-37.598,-12.207,-104.004
1689804499.104,-41.016,-25.879,-43.945,-32.715,62.500
1689804499.108,-44.434,-25.879,-48.828,-99.609,341.309
1689804499.112,-59.082,-19.043,-40.039,-128.906,58.105
1689804499.116,-64.941,-10.254,-33.203,-79.590,-239.746
1689804499.118,-54.688,-11.230,-20.508,-16.113,-82.520
1689804499.122,-68.848,2.930,-24.902,-45.410,-28.320
1689804499.126,-103.516,20.996,-39.062,-141.602,-85.449
1689804499.130,-121.582,19.531,-39.551,-188.477,-179.688
1689804499.134,-118.164,15.625,-32.715,-152.344,-134.766
1689804499.138,-117.676,16.113,-29.785,-103.027,46.387
1689804499.142,-119.629,8.301,-26.367,-113.770,76.660
1689804499.145,-125.488,4.395,-33.691,-172.363,45.898
1689804499.149,-128.418,-2.441,-69.824,-201.660,132.324
1689804499.153,-123.535,-6.348,-87.891,-168.457,260.254
1689804499.157,-110.840,-13.184,-32.715,-111.328,15.625
1689804499.161,-91.309,-25.879,-3.906,-85.449,-173.828
1689804499.163,-91.309,-21.484,-18.555,-125.488,-67.871
1689804499.167,-102.539,-24.414,-3.418,-173.340,-104.004
1689804499.171,-90.332,-37.598,4.883,-143.066,-210.449
1689804499.175,-60.547,-26.367,-7.812,-68.359,-135.742
1689804499.179,-43.457,-15.137,-24.414,-31.738,-3.418
1689804499.183,-43.945,-24.414,-22.949,-67.383,44.922
1689804499.187,-44.434,-19.531,-17.090,-106.934,-42.969
1689804499.190,-45.898,-16.602,-22.461,-82.031,-147.949
1689804499.194,-54.688,-21.973,-29.785,-23.438,331.055
1689804499.198,-46.387,-21.484,-38.086,14.648,479.004
1689804499.202,-23.926,-18.066,-40.039,-11.230,-107.422
1689804499.206,-15.137,-17.090,-28.320,-55.176,-176.758
1689804499.208,-17.090,-23.926,-25.391,-55.664,-71.777
1689804499.212,-13.184,-22.461,-26.367,-8.789,-178.711
1689804499.216,12.207,-18.555,-17.578,48.340,-123.047
1689804499.220,32.715,-26.367,-13.184,41.504,-55.664
1689804499.224,18.555,-27.832,-20.996,-21.973,-112.305
1689804499.228,7.812,-23.926,-29.297,-34.668,-145.508
1689804499.232,18.555,-20.508,-32.715,20.996,-56.152
1689804499.235,43.945,-16.602,-29.785,79.590,189.453
1689804499.239,54.688,-23.438,-28.320,67.871,210.938
1689804499.243,27.344,-35.156,-39.062,-10.254,-143.555
1689804499.247,4.883,-38.086,-38.574,-35.156,-236.816
1689804499.251,10.742,-41.504,-28.809,16.113,-134.766
1689804499.253,18.066,-49.316,-20.020,59.082,-35.156
1689804499.257,-0.488,-63.477,-22.461,36.133,-100.586
1689804499.261,-24.414,-62.988,-37.598,-30.273,-175.781
1689804499.265,-28.320,-43.945,-35.156,-59.082,-127.930
1689804499.269,-23.926,-30.273,-36.133,-22.949,-126.953
1689804499.273,-12.207,-30.273,-36.133,25.391,-41.016
1689804499.277,-3.418,-32.715,-40.039,29.297,33.203
1689804499.280,-7.324,-36.133,-37.598,-14.160,168.945
1689804499.284,-11.230,-34.668,-24.414,-48.828,97.168
1689804499.288,-3.906,-34.180,-14.648,-15.137,-189.941
1689804499.292,7.324,-32.715,-20.020,59.082,-55.176
1689804499.296,23.926,-21.973,-31.738,78.613,160.156
1689804499.300,30.273,-17.578,-31.738,16.602,-74.219
1689804499.304,21.973,-17.578,-44.922,-24.902,-208.008
1689804499.308,20.508,-26.855,-41.504,3.418,16.602
1689804499.312,27.832,-37.109,-16.113,54.688,74.219
1689804499.316,26.855,-24.902,-1.465,58.105,-76.172
1689804499.320,4.883,-18.555,-7.324,0.000,-65.430
1689804499.324,-20.996,-43.945,-30.762,-50.781,115.234
1689804499.327,-26.367,-52.246,-35.156,-43.945,190.430
1689804499.331,-27.344,-30.273,-13.184,10.742,-77.148
1689804499.335,-38.086,-25.879,0.000,34.668,-94.727
1689804499.339,-51.758,-33.203,-11.719,-16.113,-70.312
1689804499.343,-67.383,-38.574,-33.691,-71.777,-139.648
1689804499.343,-69.336,-25.391,-39.062,-58.594,-193.848
1689804499.347,-63.965,-21.484,-41.504,-3.906,-166.504
1689804499.351,-43.457,-34.180,-21.973,36.133,-1.465
1689804499.355,-9.766,-45.410,-0.977,27.832,-42.480
1689804499.359,-7.812,-34.668,-3.418,-30.762,-167.969
1689804499.363,-39.062,-15.137,-15.137,-79.590,-116.699
1689804499.367,-30.762,-9.277,-26.855,-28.320,312.012
1689804499.370,-19.531,-0.977,-28.320,12.207,345.703
1689804499.374,-15.137,-4.883,-38.086,-19.531,-22.949
1689804499.378,-4.395,-10.254,-44.922,-62.012,-99.609
1689804499.382,-35.156,-6.348,-28.320,-98.633,-49.316
1689804499.386,-36.621,-8.301,-27.832,-56.152,-95.215
1689804499.388,-15.137,-2.930,-35.645,0.488,-197.754
1689804499.392,-14.648,-9.277,-45.898,-17.090,-122.559
1689804499.396,-30.273,-17.090,-55.176,-70.312,-115.723
1689804499.400,-36.133,-24.902,-44.922,-89.844,-189.941
1689804499.404,-32.227,-43.457,-46.875,-47.363,-197.266
1689804499.408,-34.180,-33.203,-37.109,5.371,45.410
1689804499.412,-33.691,-10.254,-23.926,-5.859,184.570
1689804499.415,-41.016,-5.371,-25.391,-62.988,51.758
1689804499.419,-47.852,-9.766,-28.809,-87.891,-151.855
1689804499.423,-44.922,-15.137,-32.715,-35.645,6.836
1689804499.427,-36.133,-15.625,-33.691,18.555,300.293
1689804499.431,-31.738,-11.719,-34.180,11.230,34.180
1689804499.448,-36.621,-17.578,-30.762,-31.738,-187.500
1689804499.452,-53.223,-33.203,-29.785,-73.242,-212.402
1689804499.456,-53.711,-36.621,-20.020,-48.828,-172.852
1689804499.460,-32.715,-27.832,-25.879,18.066,-126.953
1689804499.464,-26.367,-31.738,-35.156,20.508,-31.738
1689804499.468,-41.992,-31.738,-19.043,-53.223,83.984
1689804499.472,-63.477,-34.180,-25.879,-101.562,-86.426
1689804499.475,-61.035,-38.086,-47.852,-70.312,-238.281
1689804499.479,-45.410,-39.062,-44.922,-16.602,-78.613
1689804499.483,-43.457,-58.594,-29.297,-10.254,441.895
1689804499.487,-38.086,-42.480,-22.461,-55.176,418.457
1689804499.491,-41.504,-14.160,-22.461,-100.098,-180.664
1689804499.493,-45.898,-30.762,-31.738,-86.426,-229.492
1689804499.497,-21.484,-29.785,-42.969,-19.531,-113.281
1689804499.501,-4.883,-7.812,-51.270,10.254,-154.297
1689804499.505,-17.578,-15.625,-48.340,-33.203,-186.523
1689804499.509,-33.691,-26.855,-35.156,-81.543,-174.316
1689804499.513,-41.016,-17.578,-42.969,-72.266,-83.496
1689804499.517,-34.180,-18.066,-36.621,-13.672,26.367
1689804499.520,-24.902,-20.508,-39.551,15.137,-50.293
1689804499.524,-23.438,-25.879,-43.457,-22.461,76.172
1689804499.528,-33.203,-32.227,-30.273,-72.266,179.199
1689804499.532,-42.480,-36.133,-31.738,-76.172,-171.387
1689804499.536,-39.551,-32.715,-24.414,-28.809,-184.570
1689804499.537,-33.691,-22.949,-30.273,9.766,21.973
1689804499.541,-41.016,-28.809,-32.715,-20.996,19.531
1689804499.545,-47.363,-36.621,-37.598,-76.172,-133.789
1689804499.549,-49.316,-34.668,-50.781,-87.891,-209.961
1689804499.553,-49.805,-47.363,-41.992,-51.270,-95.215
1689804499.557,-35.645,-60.547,-26.367,-13.184,60.059
1689804499.561,-27.344,-41.504,-30.762,-29.297,-8.789
1689804499.564,-31.250,-23.926,-39.062,-78.613,-133.301
1689804499.568,-33.203,-25.879,-35.156,-85.938,214.355
1689804499.572,-23.438,-15.625,-32.227,-30.273,279.297
1689804499.576,-4.395,-15.625,-30.273,24.902,-68.848
1689804499.580,5.859,-26.855,-41.016,20.996,-30.273
1689804499.583,-14.160,-52.734,-61.035,-35.156,-113.770
1689804499.587,-30.762,-55.176,-48.340,-63.477,-291.992
1689804499.591,-12.207,-10.742,-18.555,-7.812,-175.293
1689804499.595,7.324,-12.695,-19.043,48.340,71.289
1689804499.599,7.324,-25.879,-29.297,34.668,76.172
1689804499.603,-2.930,-26.367,-23.438,-17.090,-91.309
1689804499.607,-20.996,-36.621,-14.160,-57.129,-174.316
1689804499.610,-23.438,-52.246,-17.090,-19.531,30.762
1689804499.614,-9.766,-54.688,-39.551,40.527,218.750
1689804499.618,-16.602,-27.832,-43.945,20.996,-43.945
1689804499.622,-32.227,-19.043,-30.273,-48.340,-195.312
1689804499.626,-24.414,-23.438,-25.391,-75.684,-193.848
1689804499.628,-18.066,-17.090,-29.297,-42.969,-145.020
1689804499.632,-5.371,-22.461,-26.367,19.043,-56.641
1689804499.636,17.578,-37.598,-29.297,49.316,11.719
1689804499.640,14.160,-40.039,-37.109,3.906,-2.441
1689804499.644,-0.488,-30.273,-44.922,-43.945,-75.195
1689804499.648,4.883,-27.832,-40.039,-13.672,-43.457
1689804499.652,25.391,-28.809,-21.973,55.664,-15.625
1689804499.655,26.367,-26.367,-17.090,82.520,404.297
1689804499.659,-1.465,-18.555,-26.367,23.438,492.676
1689804499.663,-16.602,-29.297,-27.344,-41.504,-83.496
1689804499.667,-7.324,-39.551,-27.832,-29.297,-160.156
1689804499.671,-4.395,-25.391,-32.227,20.020,2.930
1689804499.672,0.000,-31.738,-20.020,41.504,-121.094
1689804499.676,-0.488,-42.969,-27.344,-0.488,-210.938
1689804499.680,-7.324,-25.391,-39.062,-53.711,-174.805
1689804499.684,-5.371,-25.879,-31.738,-49.805,-172.363
1689804499.688,-1.953,-36.133,-35.645,6.348,-156.250
1689804499.692,10.742,-28.809,-28.320,51.758,-37.109
1689804499.696,11.719,-19.531,-27.832,20.508,223.633
1689804499.699,-7.324,-15.137,-34.668,-46.875,311.523
1689804499.703,-14.160,-13.184,-36.133,-61.035,-89.844
1689804499.707,-4.883,-18.066,-40.527,-1.465,-263.672
1689804499.711,5.859,-26.367,-54.199,50.293,-21.484
1689804499.715,10.742,-19.531,-41.992,21.484,-40.527
1689804499.719,-3.906,-16.602,-8.789,-44.434,-223.633
1689804499.723,-27.344,-32.715,-8.789,-71.289,-179.199
1689804499.727,-25.879,-33.691,-21.484,-21.973,-83.984
1689804499.731,-6.348,-27.832,-20.996,37.598,-20.996
1689804499.735,0.000,-25.879,-25.879,23.438,-34.668
1689804499.739,-7.812,-24.902,-57.129,-36.621,-22.461
1689804499.743,-21.484,-31.738,-46.387,-60.059,166.504
1689804499.746,-28.809,-24.414,-5.371,-29.785,81.543
1689804499.750,-18.555,-28.809,4.883,18.555,-42.480
1689804499.754,-10.742,-45.410,-8.301,28.320,76.660
1689804499.758,-20.020,-32.715,2.441,-29.785,296.875
1689804499.762,-25.391,-6.836,7.324,-69.824,48.340
1689804499.763,-20.996,-4.395,-20.020,-38.574,-283.203
1689804499.767,-19.531,-19.531,-23.926,11.719,-50.293
1689804499.771,-8.789,-22.461,-10.254,21.973,-1.465
1689804499.775,-7.812,-31.250,-11.230,-31.738,-198.730
1689804499.779,-24.902,-29.297,-14.648,-83.496,-293.945
1689804499.783,-28.809,-15.137,-14.160,-54.688,26.367
1689804499.787,-17.578,-8.301,-24.902,5.371,207.520
1689804499.790,-9.766,-10.742,-42.969,19.043,-29.297
1689804499.794,-17.578,-22.949,-51.270,-27.832,-141.113
1689804499.798,-28.320,-23.926,-42.480,-77.148,-19.043
1689804499.802,-24.902,-24.414,-39.551,-60.059,1.465
1689804499.806,-20.020,-28.809,-26.855,-0.488,-164.551
1689804499.823,-22.949,-34.180,-25.391,11.230,-58.105
1689804499.827,-25.879,-26.855,-25.879,-33.691,27.832
1689804499.831,-40.039,-28.809,-23.926,-77.148,-128.906
1689804499.835,-44.434,-30.762,-30.273,-72.266,-267.090
1689804499.839,-29.785,-25.391,-31.250,-13.672,-169.434
1689804499.843,-34.180,-35.645,-46.387,20.996,60.547
1689804499.847,-40.527,-26.855,-54.199,-16.113,53.711
1689804499.850,-48.828,-19.531,-27.832,-77.148,-201.660
1689804499.854,-55.664,-19.043,-20.508,-80.566,-167.969
1689804499.858,-40.527,-21.484,-28.320,-16.602,288.086
1689804499.862,-26.367,-19.531,-21.484,27.344,230.957
1689804499.866,-20.996,-23.438,-13.672,5.859,-156.250
1689804499.868,-37.109,-45.898,-23.926,-57.129,-194.824
1689804499.872,-56.641,-57.129,-41.016,-76.660,-197.754
1689804499.876,-42.480,-45.410,-35.645,-21.484,-201.660
1689804499.880,-24.414,-32.715,-28.320,22.461,-100.098
1689804499.884,-18.555,-27.344,-36.133,2.441,72.266
1689804499.888,-19.531,-24.414,-36.621,-51.758,100.098
1689804499.892,-26.367,-23.438,-27.344,-77.637,-111.816
1689804499.895,-26.855,-22.461,-30.273,-41.504,-223.145
1689804499.899,-13.672,-26.367,-32.227,18.555,50.781
1689804499.903,-3.906,-33.203,-33.691,13.672,251.953
1689804499.907,-17.090,-23.438,-39.551,-55.176,-100.586
1689804499.911,-38.086,-15.137,-31.738,-92.285,-288.086
1689804499.913,-30.762,-13.672,-29.297,-50.781,-134.766
1689804499.917,-16.113,-13.672,-41.992,6.836,-83.008
1689804499.921,-17.578,-11.230,-40.527,2.441,-192.383
1689804499.925,-22.461,-25.391,-33.691,-49.805,-212.402
1689804499.929,-39.062,-40.039,-31.738,-83.008,-174.805
1689804499.933,-40.039,-19.043,-24.902,-47.852,-65.918
1689804499.937,-29.297,-12.695,-27.832,14.160,48.340
1689804499.940,-41.992,-21.484,-29.785,8.301,137.695
1689804499.944,-62.988,-36.621,-24.902,-52.246,432.129
1689804499.948,-74.219,-40.527,-27.832,-95.215,446.289
1689804499.952,-74.219,-34.180,-30.762,-72.754,-72.754
1689804499.956,-62.500,-45.410,-30.273,-8.789,-160.645
1689804499.973,-55.176,-52.734,-31.250,6.348,-77.148
1689804499.977,-53.223,-42.969,-37.598,-41.016,-211.914
1689804499.981,-61.523,-46.387,-39.062,-85.449,-222.656
1689804499.985,-60.547,-66.895,-21.484,-69.824,-145.508
1689804499.989,-40.039,-56.641,-14.648,-8.789,-133.301
1689804499.993,-33.691,-33.203,-19.043,12.695,-52.734
1689804499.997,-40.039,-22.461,-25.391,-40.039,-29.297
1689804500.000,-50.781,-34.180,-36.621,-91.309,113.770
1689804500.004,-41.016,-35.156,-40.527,-69.824,337.402
1689804500.008,-10.742,-18.555,-31.738,-3.418,52.734
1689804500.012,-0.977,-30.762,-26.855,20.996,-66.406
1689804500.016,-13.672,-41.504,-33.203,-23.438,-18.555
1689804500.003,-23.438,-34.180,-37.109,-78.613,-109.375
1689804500.007,-18.555,-22.949,-42.969,-75.684,-136.719
1689804500.011,-9.277,-20.020,-49.316,-13.184,-62.988
1689804500.015,-7.324,-23.438,-33.691,32.715,5.859
1689804500.019,-14.160,-34.180,-24.414,0.977,-28.809
1689804500.023,-20.020,-35.156,-23.438,-54.199,-88.867
1689804500.027,-27.832,-25.879,-22.949,-62.988,-28.320
1689804500.030,-33.691,-42.480,-35.645,-20.020,88.867
1689804500.034,-34.180,-44.922,-41.016,19.043,42.480
1689804500.038,-41.504,-26.855,-36.133,-7.324,-10.742
1689804500.042,-52.246,-36.133,-36.133,-62.500,-55.664
1689804500.046,-54.199,-34.668,-32.715,-78.125,178.711
1689804500.048,-54.688,-18.555,-29.297,-44.434,278.320
1689804500.052,-49.805,-11.719,-32.227,-6.348,-44.434
1689804500.056,-34.180,-9.277,-15.625,-6.348,-93.750
1689804500.060,-41.992,-13.184,-23.438,-62.988,-94.727
1689804500.064,-57.129,-20.996,-48.340,-105.469,-231.445
1689804500.068,-46.387,-24.902,-53.223,-63.477,-191.406
1689804500.072,-26.855,-28.320,-45.898,3.906,191.406
1689804500.075,-23.926,-41.504,-31.738,3.906,291.016
1689804500.079,-26.367,-58.105,-31.250,-48.340,-150.879
1689804500.083,-33.203,-42.969,-29.297,-72.266,-270.508
1689804500.087,-37.598,-21.973,-22.461,-33.691,-157.227
1689804500.091,-21.484,-17.090,-24.902,21.973,-104.492
1689804500.093,-8.301,-31.738,-48.828,26.855,-42.969
1689804500.097,-17.090,-29.297,-41.992,-22.949,-5.371
1689804500.101,-28.320,-15.625,-18.555,-61.035,-20.020
1689804500.105,-39.551,-22.461,-31.250,-52.246,-66.895
1689804500.109,-43.945,-16.113,-40.527,-5.371,-131.348
1689804500.113,-41.504,-8.301,-33.203,10.742,4.395
1689804500.117,-59.570,-15.137,-28.320,-53.223,175.781
1689804500.120,-79.102,-22.461,-21.973,-113.281,-38.574
1689804500.124,-80.566,-28.320,-30.762,-97.656,-205.566
1689804500.128,-60.547,-25.879,-34.180,-35.156,-26.367
1689804500.132,-47.363,-20.020,-27.832,-16.602,244.629
1689804500.136,-49.805,-16.113,-36.621,-66.895,69.336
1689804500.138,-60.059,-13.672,-39.062,-115.234,-236.328
1689804500.142,-84.961,-16.113,-36.133,-115.723,-197.266
1689804500.146,-95.703,-16.602,-46.875,-77.637,-127.930
1689804500.150,-83.984,-14.160,-44.922,-54.199,-41.992
1689804500.154,-87.402,-12.695,-34.180,-98.633,-44.434
1689804500.158,-100.098,-20.996,-34.180,-163.086,95.215
1689804500.162,-116.699,-22.949,-24.902,-166.016,324.707
1689804500.165,-118.164,-21.484,-7.324,-105.469,26.367
1689804500.169,-111.816,-18.555,-14.160,-67.871,-165.039
1689804500.173,-119.141,-12.695,-15.625,-105.469,-70.801
1689804500.177,-130.371,-18.555,-18.555,-164.551,-128.906
1689804500.181,-136.230,-12.207,-39.062,-173.828,-248.047
1689804500.198,-143.066,-12.695,-29.785,-143.555,-228.027
1689804500.202,-149.414,-14.648,-16.602,-113.281,-78.125
1689804500.206,-147.461,-8.301,-22.949,-128.418,-52.246
1689804500.210,-156.738,-4.883,-26.855,-187.988,-121.094
1689804500.214,-169.922,-8.301,-33.203,-207.520,-135.254
1689804500.218,-166.992,-26.367,-30.762,-157.227,5.371
1689804500.222,-157.715,-50.293,-25.879,-116.699,55.176
1689804500.225,-149.902,-39.062,-41.992,-131.348,8.789
1689804500.229,-151.855,-17.578,-39.551,-188.965,41.016
1689804500.233,-164.551,-16.602,-19.043,-216.309,239.746
1689804500.237,-153.809,-4.395,-19.531,-160.156,280.273
1689804500.241,-120.117,-3.906,-40.527,-97.656,-15.625
1689804500.243,-98.633,-11.230,-44.434,-97.168,-91.797
1689804500.247,-105.469,-11.230,-27.832,-142.578,-132.812
1689804500.251,-101.562,-7.812,-36.621,-168.457,-195.312
1689804500.255,-91.309,-12.207,-31.250,-127.441,-162.109
1689804500.259,-86.426,-26.855,-11.230,-77.637,-59.082
1689804500.263,-80.078,-36.133,-13.184,-80.078,105.957
1689804500.267,-101.074,-38.574,-23.438,-130.371,78.613
1689804500.270,-104.980,-31.250,-17.578,-154.297,-190.918
1689804500.274,-92.773,-29.297,-4.395,-122.070,-6.348
1689804500.278,-82.520,-19.043,-11.230,-63.965,331.543
1689804500.282,-71.777,-12.207,-19.531,-42.969,59.082
1689804500.286,-80.566,-21.973,-24.414,-88.867,-133.789
1689804500.303,-96.191,-25.391,-36.133,-136.719,-174.316
1689804500.307,-91.309,-29.785,-27.344,-122.070,-189.941
1689804500.311,-82.520,-33.203,-20.996,-65.430,-138.184
1689804500.315,-83.496,-35.156,-21.973,-46.875,-56.641
1689804500.319,-85.938,-39.551,-36.133,-84.473,-61.035
1689804500.323,-88.867,-41.504,-47.363,-123.047,-118.164
1689804500.327,-87.402,-35.156,-24.414,-117.676,-71.777
1689804500.330,-72.754,-23.438,-11.230,-59.570,-45.410
1689804500.334,-58.594,-31.738,-17.578,-19.531,322.754
1689804500.338,-52.734,-29.785,-15.625,-46.387,337.891
1689804500.342,-47.852,-23.926,-15.625,-97.168,-145.996
1689804500.346,-43.457,-29.297,-20.020,-93.262,-82.520
1689804500.333,-35.156,-23.926,-28.320,-30.273,66.895
1689804500.337,-28.320,-16.602,-24.414,3.418,-39.551
1689804500.341,-32.715,-20.508,-12.207,-32.227,-119.141
1689804500.345,-39.551,-20.020,-13.184,-81.055,-141.602
1689804500.349,-38.574,-18.066,-25.391,-77.148,-165.527
1689804500.353,-16.602,-24.902,-25.879,-12.695,2.441
1689804500.357,-13.184,-28.809,-18.555,23.438,126.465
1689804500.360,-31.738,-21.973,-23.438,-12.695,60.547
1689804500.364,-42.969,-31.250,-35.645,-75.195,-63.965
1689804500.368,-45.898,-42.480,-29.297,-95.703,-179.199
1689804500.372,-36.133,-36.133,-14.160,-43.457,-253.906
1689804500.376,-21.973,-36.133,-21.973,12.695,60.059
1689804500.378,-21.973,-30.273,-22.949,7.324,255.371
1689804500.382,-15.625,-16.602,-15.625,-34.180,-83.984
1689804500.386,-7.324,-22.949,-14.160,-49.805,-220.215
1689804500.390,4.883,-33.691,-16.113,-5.371,-60.547
1689804500.394,29.297,-23.926,-22.949,55.664,16.113
1689804500.398,35.645,-19.531,-24.414,54.688,-83.984
1689804500.402,29.785,-39.551,-19.043,10.254,-18.555
1689804500.405,24.902,-46.387,-13.672,-17.090,208.496
1689804500.409,19.043,-31.250,-28.809,4.883,127.441
1689804500.413,37.598,-29.785,-36.621,74.219,-115.723
1689804500.417,55.176,-40.527,-31.738,98.145,-5.371
1689804500.421,45.898,-56.152,-52.734,41.992,62.500
1689804500.423,35.645,-54.688,-62.012,2.930,-196.777
1689804500.427,36.133,-48.828,-41.016,36.621,-225.098
1689804500.431,47.852,-49.805,-28.809,103.516,-81.055
1689804500.435,65.918,-47.852,-30.273,126.953,-34.668
1689804500.439,56.152,-45.410,-29.297,75.195,-51.270
1689804500.443,29.297,-39.551,-31.250,18.066,-165.527
1689804500.447,30.273,-49.316,-35.156,39.062,2.441
1689804500.450,37.598,-64.941,-28.809,104.492,311.035
1689804500.454,44.922,-53.711,-28.809,130.371,93.750
1689804500.458,53.711,-39.551,-39.062,97.168,-133.789
1689804500.462,44.434,-30.273,-35.156,41.504,-144.531
1689804500.466,45.898,-26.367,-27.832,41.504,-192.383
1689804500.467,62.012,-31.250,-32.715,101.562,-148.438
1689804500.471,66.406,-34.180,-30.762,126.953,-58.594
1689804500.475,57.129,-52.734,-27.344,76.172,-81.055
1689804500.479,48.828,-57.129,-28.809,20.996,-180.664
1689804500.483,42.480,-30.273,-27.344,13.672,-182.617
1689804500.487,50.293,-41.016,-20.020,62.500,23.438
1689804500.491,63.477,-50.781,-10.254,106.445,231.934
1689804500.494,55.664,-31.250,-20.996,68.359,108.887
1689804500.498,41.504,-38.086,-29.785,0.977,-106.934
1689804500.502,35.645,-43.457,-30.273,-7.812,-87.891
1689804500.506,41.992,-41.504,-35.645,44.922,269.043
1689804500.510,36.133,-53.223,-32.227,79.102,238.281
1689804500.513,8.789,-61.035,-31.738,47.363,-116.211
1689804500.517,-15.137,-54.199,-32.227,-21.973,-85.449
1689804500.521,-20.508,-48.828,-26.367,-47.852,-125.977
1689804500.525,-13.184,-44.922,-18.555,5.371,-189.941
1689804500.529,-15.137,-47.852,-27.344,48.828,-108.398
1689804500.533,-24.414,-77.148,-21.484,31.738,151.855
1689804500.537,-31.738,-78.613,-21.973,-21.484,231.445
1689804500.540,-31.250,-44.434,-26.855,-48.828,-138.184
1689804500.544,-25.391,-32.715,-26.855,-16.113,-230.469
1689804500.548,-7.812,-35.645,-34.180,35.645,102.051
1689804500.552,1.465,-42.969,-34.180,37.598,178.223
1689804500.556,-0.488,-52.734,-32.227,-14.648,-166.992
1689804500.572,3.418,-46.387,-45.410,-41.016,-254.395
1689804500.576,14.160,-36.621,-50.781,-0.488,-167.969
1689804500.580,20.508,-32.715,-36.621,50.781,-94.727
1689804500.584,16.113,-39.062,-31.250,51.270,-64.941
1689804500.588,5.371,-47.363,-29.785,-1.953,-84.961
1689804500.592,-8.789,-51.270,-41.504,-51.270,-9.766
1689804500.596,-8.301,-54.199,-35.156,-31.738,5.371
1689804500.599,-10.254,-54.199,-35.156,15.625,-137.207
1689804500.603,-17.578,-53.711,-40.039,23.926,-78.613
1689804500.607,-16.602,-68.848,-34.180,-16.113,298.828
1689804500.611,-18.555,-74.219,-22.949,-59.570,182.617
1689804500.615,-41.504,-50.293,-15.625,-58.594,-127.441
1689804500.617,-45.898,-41.016,-14.648,-0.977,11.719
1689804500.621,-31.738,-49.805,-19.043,30.762,71.289
1689804500.625,-32.715,-62.012,-28.320,-4.395,-117.188
1689804500.629,-38.574,-65.430,-29.785,-44.922,-260.742
1689804500.633,-37.598,-61.035,-35.645,-39.062,-167.480
1689804500.637,-20.508,-60.547,-31.738,27.344,11.230
1689804500.641,-10.742,-57.617,-15.625,64.453,118.652
1689804500.644,0.000,-57.617,-0.488,38.086,-67.383
1689804500.648,1.465,-64.941,-4.395,-4.395,-31.250
1689804500.652,-1.953,-65.918,-14.160,-6.836,141.113
1689804500.656,9.766,-70.312,-13.672,41.016,-111.328
1689804500.660,15.137,-64.453,-21.484,69.336,-147.949
1689804500.678,0.488,-56.152,-19.043,32.227,-90.332
1689804500.682,-15.137,-67.383,-24.902,-31.250,-83.984
1689804500.686,-23.926,-51.758,-42.969,-50.781,-129.883
1689804500.690,-17.578,-25.879,-28.320,-6.836,-143.555
1689804500.694,-6.836,-44.922,-15.625,38.574,14.648
1689804500.698,-11.230,-57.617,-33.691,17.090,-4.395
1689804500.702,-32.227,-39.062,-47.852,-51.270,-101.562
1689804500.705,-44.434,-33.691,-61.035,-73.730,-193.359
1689804500.709,-35.645,-39.062,-57.617,-23.926,211.426
1689804500.713,-28.320,-41.504,-30.762,19.531,404.297
1689804500.717,-32.227,-43.945,-32.227,-3.418,-102.051
1689804500.721,-42.480,-46.875,-42.480,-59.082,-117.676
1689804500.708,-46.387,-40.527,-37.598,-75.684,-112.793
1689804500.712,-32.715,-38.574,-27.832,-29.297,-241.211
1689804500.716,-15.625,-36.621,-19.531,35.645,-151.855
1689804500.720,-17.578,-30.762,-20.996,37.598,-58.105
1689804500.724,-27.344,-34.668,-35.156,-21.484,-18.555
1689804500.728,-25.879,-37.598,-33.691,-55.176,-11.719
1689804500.732,-22.461,-37.598,-28.809,-19.531,-77.637
1689804500.735,-14.648,-35.156,-36.621,39.551,46.387
1689804500.739,-14.160,-28.809,-35.645,36.621,81.543
1689804500.743,-25.879,-21.484,-20.508,-22.461,-130.859
1689804500.747,-33.691,-27.832,-19.531,-64.941,-224.609
1689804500.751,-42.969,-41.504,-35.156,-44.922,48.340
1689804500.768,-37.109,-33.691,-29.785,1.953,245.605
1689804500.772,-29.297,-27.832,-15.625,9.766,-19.531
1689804500.776,-41.992,-29.785,-19.531,-46.875,-80.078
1689804500.780,-51.270,-31.738,-24.902,-97.168,-129.883
1689804500.784,-54.199,-36.621,-31.738,-79.102,-186.523
1689804500.788,-46.387,-41.504,-34.668,-20.508,-83.496
1689804500.792,-39.551,-40.527,-41.504,-1.465,55.176
1689804500.795,-43.457,-34.180,-61.523,-49.316,311.035
1689804500.799,-53.711,-24.414,-49.805,-104.004,321.777
1689804500.803,-63.477,-26.367,-35.156,-106.445,-128.418
1689804500.807,-46.387,-39.062,-36.621,-42.969,-145.020
1689804500.811,-34.668,-49.805,-37.598,3.906,146.973
1689804500.798,-46.875,-46.875,-40.039,-33.203,-29.297
1689804500.802,-50.781,-47.363,-38.086,-87.402,-258.301
1689804500.806,-42.480,-50.293,-39.062,-78.125,-221.191
1689804500.810,-34.668,-45.898,-44.922,-13.184,-128.418
1689804500.814,-15.625,-63.477,-35.156,47.852,-75.195
1689804500.818,12.695,-76.660,-15.625,39.062,-10.254
1689804500.822,-5.371,-36.133,-14.160,-43.457,130.371
1689804500.825,-46.387,2.441,-20.508,-96.191,12.207
1689804500.829,-47.852,0.977,-30.273,-61.035,-140.625
1689804500.833,-34.668,-11.719,-44.434,-25.391,-49.805
1689804500.837,-23.926,-5.859,-46.387,-36.621,138.672
1689804500.841,-43.945,7.324,-42.969,-103.516,243.652
1689804500.842,-61.523,1.953,-48.828,-138.672,-98.633
1689804500.846,-53.223,-6.348,-62.012,-90.332,-243.652
1689804500.850,-50.781,-5.371,-62.988,-46.387,-43.945
1689804500.854,-46.875,0.488,-51.270,-55.176,-68.359
1689804500.858,-61.523,-0.488,-46.387,-118.652,-213.379
1689804500.862,-73.242,-6.836,-42.969,-145.996,-122.070
1689804500.866,-68.359,2.441,-44.922,-91.797,185.547
1689804500.869,-55.664,12.695,-55.664,-43.945,134.277
1689804500.873,-39.062,9.277,-54.688,-45.410,-100.586
1689804500.877,-40.527,5.859,-45.898,-85.449,-57.129
1689804500.881,-49.316,1.465,-35.156,-112.305,50.293
1689804500.885,-46.875,-5.859,-42.480,-75.195,-42.480
1689804500.888,-32.227,-5.371,-51.758,-23.926,-174.316
1689804500.892,-18.066,-5.859,-41.992,-13.184,-1.465
1689804500.896,-24.414,-20.508,-52.734,-65.430,35.645
1689804500.900,-43.945,-32.715,-57.617,-128.418,-224.609
1689804500.904,-43.945,-12.695,-36.133,-100.586,-243.652
1689804500.908,-30.273,-5.859,-36.133,-31.738,70.312
1689804500.912,-23.438,-6.836,-33.203,-15.137,199.707
1689804500.915,-29.297,0.977,-25.391,-61.523,-51.758
1689804500.919,-39.551,-4.883,-31.738,-111.328,-227.539
1689804500.923,-36.133,-13.184,-28.320,-86.426,-20.996
1689804500.927,-18.555,-11.230,-23.438,-19.043,132.812
1689804500.931,1.953,-1.465,-35.156,10.742,-52.734
1689804500.948,-3.418,-5.859,-47.363,-31.250,-137.207
1689804500.952,-18.555,-15.137,-41.504,-81.543,-140.625
1689804500.956,-14.160,-6.836,-27.832,-66.895,-77.148
1689804500.960,-16.602,-9.766,-30.762,-18.066,-48.340
1689804500.964,-10.742,-19.531,-35.645,14.648,-79.102
1689804500.968,-7.812,-13.184,-28.809,-10.254,165.039
1689804500.972,-24.902,-21.484,-27.832,-72.266,157.715
1689804500.975,-21.973,-32.715,-24.902,-65.430,-175.293
1689804500.979,-9.766,-16.113,-25.391,2.930,-57.129
1689804500.983,-5.859,-5.859,-22.949,42.969,125.488
1689804500.987,-15.137,-9.766,-25.879,3.906,9.766
1689804500.991,-35.156,-18.555,-30.273,-67.871,-189.453
1689804500.993,-41.016,-23.438,-32.227,-78.613,-168.457
1689804500.997,-32.227,-29.297,-45.898,-26.367,205.566
1689804501.001,-19.043,-29.785,-49.805,21.484,134.277
1689804501.005,-13.184,-15.137,-27.832,6.348,-145.996
1689804501.009,-18.555,-10.254,-5.371,-54.688,-52.246
1689804501.013,-18.066,-11.719,-6.348,-75.195,-47.852
1689804501.017,-14.160,-4.395,-13.672,-24.414,-102.051
1689804501.020,-5.859,-0.488,-15.137,30.762,-68.359
1689804501.024,-3.906,-13.672,-11.719,20.020,105.957
1689804501.028,-22.949,-22.461,-9.766,-46.875,239.258
1689804501.032,-36.621,-20.508,-16.113,-84.473,-94.238
1689804501.036,-35.156,-26.367,-31.738,-44.434,-204.590
1689804501.038,-23.926,-29.297,-43.945,8.301,-52.734
1689804501.042,-21.484,-35.156,-32.227,-0.977,-5.859
1689804501.046,-23.926,-43.457,-22.949,-52.246,-128.906
1689804501.050,-14.648,-53.223,-30.273,-72.754,-219.727
1689804501.054,11.230,-49.316,-23.926,-6.348,-155.762
1689804501.058,3.906,-24.902,-9.277,48.828,-27.344
1689804501.062,-16.113,-14.160,0.000,39.551,-5.371
1689804501.065,-14.160,-21.973,-12.207,-0.977,-11.230
1689804501.069,-21.484,-42.480,-18.555,-37.598,233.398
1689804501.073,-21.484,-40.527,4.395,0.000,325.195
1689804501.077,-11.230,-35.156,10.254,59.082,-41.504
1689804501.081,-13.184,-48.828,10.742,67.383,-136.719
1689804501.083,-33.691,-51.270,15.625,9.277,-122.070
1689804501.087,-38.086,-49.805,2.930,-32.227,-235.840
1689804501.091,-25.391,-50.781,-5.859,-0.977,-227.051
1689804501.095,-21.484,-53.711,-6.836,56.152,-64.453
1689804501.099,-14.160,-54.688,-11.719,78.125,17.578
1689804501.103,-17.578,-52.246,-19.043,28.320,-58.594
1689804501.107,-33.691,-50.293,-23.438,-30.273,-140.137
1689804501.110,-31.250,-50.293,-19.531,-18.555,-20.508
1689804501.114,-18.555,-49.316,-14.160,36.621,183.105
1689804501.118,-17.578,-49.316,-24.414,54.199,9.277
1689804501.122,-22.461,-49.805,-35.156,2.441,-116.699
1689804501.126,-31.738,-43.945,-30.273,-54.199,-45.898
1689804501.127,-41.016,-44.922,-13.184,-62.500,-78.125
1689804501.131,-28.809,-43.945,-8.301,-6.836,-165.039
1689804501.135,-17.578,-34.668,-20.996,34.668,-46.387
1689804501.139,-32.227,-32.715,-27.344,-4.395,38.086
1689804501.143,-43.945,-34.180,-21.484,-56.641,-78.125
1689804501.147,-42.969,-45.410,-13.184,-60.547,-99.121
1689804501.151,-30.273,-46.387,-14.160,-3.906,-20.996
1689804501.154,-15.137,-47.363,-29.297,49.316,268.555
1689804501.158,-17.090,-54.688,-31.738,16.113,297.363
1689804501.162,-34.668,-40.039,-29.297,-67.383,-130.371
1689804501.166,-34.668,-28.320,-26.855,-84.473,-174.805
1689804501.170,-27.344,-24.414,-20.020,-32.227,54.199
1689804501.173,-34.180,-14.648,-27.832,11.719,11.719
1689804501.177,-28.809,-19.043,-35.645,9.277,-145.020
1689804501.181,-31.250,-37.109,-25.391,-37.109,-85.449
1689804501.185,-41.504,-37.109,-30.273,-61.035,-36.621
1689804501.189,-24.902,-19.043,-52.734,-17.090,-171.875
1689804501.193,-12.207,-27.344,-35.156,30.762,-111.816
1689804501.197,-21.973,-42.480,-21.973,19.043,165.039
1689804501.200,-33.203,-31.738,-30.273,-39.062,214.355
1689804501.204,-46.875,-33.691,-31.250,-85.449,-171.875
1689804501.208,-47.363,-43.457,-34.668,-59.570,-241.699
1689804501.212,-30.762,-35.645,-35.645,-0.488,-62.500
1689804501.216,-20.996,-28.320,-20.020,8.789,-23.438
1689804501.218,-28.809,-31.738,-10.254,-40.527,-143.555
1689804501.222,-44.922,-34.180,-23.438,-84.473,-211.426
1689804501.226,-44.434,-33.691,-24.902,-58.105,-97.168
1689804501.230,-29.297,-23.438,-20.020,12.695,-5.859
1689804501.234,-16.113,-9.277,-23.438,29.297,-58.594
1689804501.238,-5.859,-3.418,-15.137,-17.578,-62.500
1689804501.242,-23.438,-11.230,-29.297,-70.801,223.633
1689804501.245,-45.410,-17.578,-47.852,-67.871,211.914
1689804501.249,-38.086,-24.902,-39.062,-16.602,-108.398
1689804501.253,-32.715,-31.250,-31.738,3.418,-3.418
1689804501.257,-39.551,-20.996,-30.273,-33.691,114.746
1689804501.261,-47.852,-16.602,-26.367,-83.008,-92.773
1689804501.263,-47.363,-27.832,-31.250,-77.148,-227.539
1689804501.267,-40.039,-35.645,-43.457,-21.484,-118.652
1689804501.271,-29.297,-32.715,-48.340,11.230,-16.602
1689804501.275,-20.996,-32.227,-45.898,-24.902,-116.211
1689804501.279,-22.949,-48.828,-37.598,-62.012,-290.039
1689804501.283,-38.574,-54.199,-41.504,-66.406,-37.598
1689804501.287,-44.434,-31.738,-32.227,-33.203,191.895
1689804501.290,-40.527,-21.484,-20.508,3.906,31.738
1689804501.294,-39.551,-41.016,-32.227,-18.066,-86.914
1689804501.298,-45.898,-56.641,-32.715,-61.523,10.742
1689804501.302,-50.293,-55.176,-19.531,-56.152,106.934
1689804501.306,-39.062,-44.922,-14.160,-1.465,-139.160
1689804501.323,-28.809,-40.039,-16.113,39.551,-145.020
1689804501.327,-20.508,-36.621,-10.742,35.645,-57.617
1689804501.331,-23.438,-38.086,-24.902,-14.648,-90.332
1689804501.335,-38.086,-43.945,-38.086,-46.387,-163.574
1689804501.339,-36.621,-43.945,-23.438,-4.395,-76.660
1689804501.343,-22.461,-45.898,-8.301,45.898,125.000
1689804501.347,-22.949,-35.645,-12.695,30.273,116.699
1689804501.350,-37.598,-44.922,-36.621,-38.574,-28.809
1689804501.354,-38.086,-52.734,-45.410,-69.336,-69.336
1689804501.358,-38.086,-33.203,-37.109,-27.832,289.551
1689804501.362,-42.969,-22.461,-39.062,11.230,354.980
1689804501.366,-31.250,-14.648,-44.922,1.465,-36.133
1689804501.368,-25.879,-15.625,-31.738,-44.434,-121.094
1689804501.372,-43.945,-26.367,-26.855,-82.520,-124.512
1689804501.376,-51.270,-36.621,-15.625,-51.758,-157.715
1689804501.380,-41.504,-33.203,-1.465,6.348,-109.863
1689804501.384,-32.715,-21.973,-10.742,11.230,-12.207
1689804501.388,-36.621,-25.391,-22.949,-41.504,-32.227
1689804501.392,-52.246,-29.297,-31.738,-99.609,-185.059
1689804501.395,-43.457,-15.137,-36.133,-74.707,-291.016
1689804501.399,-21.484,-13.184,-23.438,3.418,6.836
1689804501.403,-23.926,-20.020,-25.391,11.719,285.156
1689804501.407,-39.062,-20.508,-43.945,-49.805,-21.973
1689804501.411,-49.316,-29.297,-38.574,-91.309,-211.914
1689804501.412,-54.688,-35.156,-23.926,-70.801,-113.281
1689804501.416,-43.945,-28.320,-23.438,-10.254,-50.293
1689804501.420,-32.227,-23.438,-25.391,21.973,-89.844
1689804501.424,-38.086,-38.086,-21.973,-22.461,-106.934
1689804501.428,-57.129,-46.387,-29.297,-84.473,-102.051
1689804501.432,-61.035,-27.832,-33.203,-75.684,-16.113
1689804501.436,-45.898,-27.344,-31.250,-13.184,18.555
1689804501.439,-35.645,-29.297,-33.691,14.160,-49.805
1689804501.443,-38.574,-33.203,-24.414,-27.344,262.207
1689804501.447,-42.969,-34.668,-29.297,-81.055,313.965
1689804501.451,-38.574,-22.461,-40.039,-84.473,-206.055
1689804501.455,-29.297,-31.250,-25.879,-31.738,-165.527
1689804501.457,-20.996,-46.875,-28.320,0.488,24.902
1689804501.461,-29.785,-46.387,-39.062,-32.715,-105.469
1689804501.465,-40.039,-39.062,-39.062,-85.938,-218.262
1689804501.469,-33.203,-32.715,-34.668,-96.191,-148.926
1689804501.473,-14.648,-30.762,-33.691,-40.527,-57.129
1689804501.477,-15.137,-26.367,-40.527,7.812,26.367
1689804501.481,-52.246,-15.137,-37.109,-37.598,15.625
1689804501.484,-58.105,-22.949,-23.926,-89.355,127.441
1689804501.488,-46.875,-34.668,-19.043,-84.961,220.703
1689804501.492,-41.016,-26.855,-20.020,-35.156,-52.734
1689804501.496,-30.762,-22.949,-27.832,19.531,-77.637
1689804501.500,-28.809,-25.391,-27.832,8.789,-45.898
1689804501.502,-36.621,-33.203,-26.367,-49.316,-119.629
1689804501.506,-55.176,-41.992,-29.297,-86.426,-232.910
1689804501.510,-50.781,-46.875,-26.367,-43.457,-207.520
1689804501.514,-32.227,-54.688,-18.066,22.949,23.926
1689804501.518,-23.438,-61.035,-10.742,20.020,43.945
1689804501.522,-38.086,-55.176,-25.391,-46.387,-14.160
1689804501.526,-48.828,-43.457,-38.574,-85.938,-42.480
1689804501.529,-39.551,-39.551,-29.785,-39.062,125.488
1689804501.533,-32.715,-50.781,-25.391,11.230,217.773
1689804501.537,-30.762,-51.758,-32.715,-1.953,-72.754
1689804501.541,-28.809,-41.992,-28.809,-53.711,-93.750
1689804501.545,-34.180,-43.945,-33.691,-95.215,18.555
1689804501.548,-35.156,-40.527,-41.504,-60.547,-115.723
1689804501.552,-33.691,-33.203,-42.480,0.977,-173.828
1689804501.556,-31.738,-29.297,-30.273,7.812,20.996
1689804501.560,-32.227,-27.832,-21.484,-39.551,9.277
1689804501.564,-39.062,-23.926,-32.227,-83.496,-193.848
1689804501.568,-37.109,-28.320,-30.762,-66.406,-163.086
1689804501.572,-22.949,-32.227,-22.949,-6.836,119.141
1689804501.575,-19.043,-34.668,-30.273,17.578,373.047
1689804501.579,-30.273,-37.109,-36.621,-24.902,77.637
1689804501.583,-39.551,-22.949,-27.344,-70.312,-211.426
1689804501.587,-35.645,-8.789,-20.020,-62.988,-165.039
1689804501.591,-23.438,-5.371,-19.043,-5.371,-103.027
1689804501.593,-16.113,-18.066,-15.137,32.715,-162.598
1689804501.597,-19.531,-28.320,-26.367,-10.742,-176.270
1689804501.601,-39.551,-29.785,-47.363,-78.613,-134.277
1689804501.605,-48.340,-28.320,-43.945,-77.637,-176.758
1689804501.609,-31.250,-31.738,-22.461,-15.137,-150.879
1689804501.613,-2.930,-29.297,-9.277,32.715,8.301
1689804501.617,-1.465,-26.855,-9.766,16.602,350.098
1689804501.620,-22.949,-21.484,-20.020,-41.504,231.445
1689804501.624,-33.203,-20.020,-26.367,-56.641,-71.289
1689804501.628,-29.297,-28.320,-27.832,-2.930,-13.672
1689804501.632,-21.484,-21.484,-21.973,42.969,202.637
1689804501.636,-29.297,-19.531,-16.602,15.625,87.891
1689804501.638,-24.902,-18.066,-21.973,-38.086,-259.766
1689804501.642,-30.762,-30.273,-21.484,-61.523,-216.797
1689804501.646,-44.922,-44.434,-28.809,-29.785,-135.742
1689804501.650,-31.250,-27.832,-27.344,18.066,-136.230
1689804501.654,-25.879,-17.578,-28.320,2.441,-145.020
1689804501.658,-36.133,-28.320,-32.715,-54.688,-81.543
1689804501.662,-41.016,-29.297,-28.809,-79.590,-78.125
1689804501.665,-27.832,-25.391,-21.484,-32.715,-181.641
1689804501.669,-16.113,-33.691,-9.766,29.785,-139.160
1689804501.673,-14.160,-32.715,-6.348,29.297,146.973
1689804501.677,-22.949,-24.414,-10.742,-33.203,190.430
1689804501.681,-37.598,-26.367,-20.508,-78.125,-101.562
1689804501.697,-42.969,-33.203,-30.762,-50.781,-162.109
1689804501.701,-22.461,-28.809,-25.391,16.113,131.348
1689804501.705,-14.160,-21.973,-23.926,17.090,231.445
1689804501.709,-33.691,-20.020,-27.344,-60.547,-78.613
1689804501.713,-52.734,-22.949,-21.973,-109.863,-187.988
1689804501.717,-54.688,-24.902,-26.855,-80.566,-45.410
1689804501.721,-34.668,-25.391,-33.203,-8.301,17.578
1689804501.724,-20.020,-35.645,-39.062,18.066,-82.031
1689804501.728,-26.855,-28.809,-41.992,-36.621,-46.387
1689804501.732,-41.504,-27.832,-41.504,-86.426,254.395
1689804501.736,-44.922,-49.805,-46.875,-68.359,219.238
1689804501.740,-30.273,-53.223,-32.715,-16.113,-143.555
1689804501.743,-20.020,-41.504,-26.855,5.371,-64.453
1689804501.747,-35.156,-37.598,-12.207,-37.598,13.184
1689804501.751,-53.711,-31.250,-3.906,-89.355,-174.316
1689804501.755,-49.316,-32.715,-24.414,-77.637,-284.668
1689804501.759,-30.273,-37.109,-33.691,-9.277,-71.777
1689804501.763,-23.438,-34.180,-37.598,22.949,148.438
1689804501.767,-30.762,-31.738,-34.668,-24.414,60.547
1689804501.770,-35.645,-34.180,-32.227,-75.684,-131.348
1689804501.774,-41.016,-32.227,-45.898,-68.359,-55.176
1689804501.778,-41.504,-32.227,-44.434,-23.926,141.113
1689804501.782,-36.133,-38.574,-23.926,2.441,-67.871
1689804501.786,-30.273,-36.133,-21.973,-18.066,-136.230
1689804501.787,-43.945,-34.668,-29.297,-80.566,-135.254
1689804501.791,-53.711,-33.691,-30.273,-100.586,-207.031
1689804501.795,-34.668,-30.273,-30.273,-41.016,-157.715
1689804501.799,-17.578,-37.598,-37.598,13.184,34.180
1689804501.803,-13.672,-43.945,-51.758,-4.395,125.977
1689804501.807,-21.973,-37.109,-39.551,-61.523,19.531
1689804501.811,-25.879,-25.879,-33.203,-76.660,-42.480
1689804501.814,-20.996,-24.414,-47.852,-33.691,-76.660
1689804501.818,-19.043,-33.691,-35.645,12.207,313.477
1689804501.822,-21.484,-30.762,-30.273,0.977,543.457
1689804501.826,-29.785,-21.484,-37.598,-56.641,-11.719
1689804501.830,-38.086,-32.715,-19.043,-81.543,-220.215
1689804501.832,-36.133,-51.270,-16.602,-41.504,-143.066
1689804501.836,-29.785,-41.504,-35.645,7.324,-131.836
1689804501.840,-17.090,-17.578,-31.250,15.137,-117.676
1689804501.844,-20.020,-13.672,-26.367,-31.250,-101.562
1689804501.848,-41.016,-26.367,-48.828,-76.660,-113.281
1689804501.852,-39.062,-25.879,-56.641,-47.852,-100.586
1689804501.856,-24.902,-25.879,-48.340,12.207,-18.555
1689804501.859,-14.160,-29.297,-40.527,24.414,290.039
1689804501.863,-16.113,-33.203,-24.902,-30.273,201.660
1689804501.867,-38.574,-46.875,-17.578,-89.844,-196.777
1689804501.871,-43.457,-38.574,-21.484,-68.848,-305.176
1689804501.875,-25.391,-28.320,-27.832,7.324,-8.301
1689804501.877,-17.090,-18.066,-26.855,33.203,246.094
1689804501.881,-28.809,-16.602,-23.926,-25.879,-45.410
1689804501.885,-40.039,-28.809,-28.320,-75.684,-151.855
1689804501.889,-42.480,-23.438,-30.762,-62.012,-136.719
1689804501.893,-29.297,-27.832,-31.738,-3.418,-100.098
1689804501.897,-11.719,-56.152,-31.250,35.156,-33.691
1689804501.901,-35.156,-42.969,-37.598,-28.320,-43.457
1689804501.904,-77.148,-24.902,-31.738,-106.934,158.203
1689804501.908,-73.730,-28.809,-16.113,-87.402,135.742
1689804501.912,-50.781,-25.879,-21.973,-26.367,-16.113
1689804501.916,-36.621,-33.691,-20.996,3.906,44.434
1689804501.920,-38.574,-41.016,-26.855,-27.344,171.875
1689804501.922,-54.688,-29.297,-37.109,-81.543,-48.828
1689804501.926,-57.617,-19.043,-15.137,-86.426,-312.500
1689804501.930,-44.922,-22.949,-8.301,-25.391,-168.945
1689804501.934,-35.645,-30.273,-33.203,20.508,-75.195
1689804501.938,-24.414,-31.250,-45.410,-10.254,-95.703
1689804501.942,-31.250,-32.227,-48.828,-74.219,-107.910
1689804501.946,-54.199,-42.480,-42.480,-86.426,38.574
1689804501.949,-47.363,-37.598,-26.367,-29.297,207.031
1689804501.953,-27.344,-13.672,-14.160,17.578,-17.090
1689804501.957,-27.344,-32.715,-21.484,-5.859,-199.219
1689804501.961,-42.480,-49.316,-29.297,-76.660,-130.859
1689804501.965,-60.547,-32.227,-27.344,-109.863,-61.523
1689804501.968,-56.152,-21.973,-35.645,-64.941,-140.137
1689804501.972,-39.551,-33.203,-38.086,-9.277,-165.039
1689804501.976,-43.457,-51.270,-27.344,-15.625,-12.207
1689804501.980,-45.410,-24.414,-27.344,-64.941,-28.320
1689804501.984,-44.434,-12.207,-30.762,-88.867,-161.621
1689804501.988,-36.621,-28.320,-28.809,-50.293,-96.191
1689804501.992,-23.926,-28.809,-29.297,5.371,206.543
1689804501.995,-19.043,-25.879,-31.738,4.883,180.176
1689804501.999,-25.391,-34.668,-33.203,-51.270,-54.688
1689804502.003,-42.480,-40.527,-30.273,-91.797,-59.570
1689804502.007,-40.527,-26.367,-20.996,-60.059,38.574
1689804502.011,-29.785,-23.438,-21.484,-5.371,3.418
1689804502.013,-21.973,-35.156,-36.133,-4.883,-144.531
1689804502.017,-31.250,-41.504,-35.645,-56.641,-7.812
1689804502.021,-46.387,-40.039,-27.344,-94.727,71.777
1689804502.025,-36.621,-33.203,-27.832,-61.035,-128.906
1689804502.029,-22.949,-27.832,-27.344,7.812,-130.859
1689804502.033,-19.043,-27.344,-23.926,19.043,138.184
1689804502.037,-18.066,-27.832,-23.438,-22.949,136.719
1689804502.040,-22.461,-29.297,-23.438,-43.457,-152.832
1689804502.044,-16.602,-22.949,-29.785,-20.508,-279.297
1689804502.048,-26.367,-10.254,-41.504,2.441,-1.953
1689804502.052,-40.039,-13.672,-38.574,-11.230,140.625
1689804502.056,-33.691,-20.020,-36.621,-56.152,-102.051
1689804502.073,-44.922,-14.160,-40.039,-104.492,-196.777
1689804502.077,-62.500,-7.812,-42.969,-109.863,-185.547
1689804502.081,-59.570,-4.395,-49.316,-63.965,-108.887
1689804502.085,-54.688,-11.230,-58.105,-33.691,-53.223
1689804502.089,-59.570,-14.648,-58.594,-61.035,-61.523
1689804502.093,-70.312,-20.996,-50.293,-111.328,190.918
1689804502.097,-72.754,-22.461,-53.711,-119.141,158.203
1689804502.100,-51.758,-13.672,-47.852,-53.223,-168.457
1689804502.104,-27.344,-1.953,-23.438,2.930,-51.758
1689804502.108,-34.668,-10.742,-19.043,-27.832,324.707
1689804502.112,-54.199,-15.625,-37.598,-87.891,191.406
1689804502.116,-60.547,-18.555,-40.039,-96.680,-236.816
1689804502.117,-39.551,-20.508,-31.738,-31.250,-184.570
1689804502.121,-23.438,-11.719,-35.156,19.043,-77.637
1689804502.125,-23.438,-21.973,-29.785,-7.324,-132.324
1689804502.129,-33.691,-29.785,-25.879,-76.172,-206.055
1689804502.133,-37.598,-24.414,-28.320,-90.332,-132.812
1689804502.137,-20.996,-20.996,-15.625,-31.250,-39.062
1689804502.141,-7.324,-15.137,-11.719,19.531,4.883
1689804502.144,-11.230,-12.695,-27.344,7.812,35.156
1689804502.148,-26.367,-22.461,-37.109,-47.363,81.543
1689804502.152,-34.180,-21.484,-39.062,-78.613,116.699
1689804502.156,-21.973,-26.367,-42.969,-39.551,-109.863
1689804502.160,-13.672,-37.109,-47.363,15.137,-209.961
1689804502.163,-8.789,-18.555,-24.902,20.020,19.531
1689804502.167,-8.301,-6.836,-1.465,-29.785,49.805
1689804502.171,-20.508,-5.371,-11.230,-67.383,-202.637
1689804502.175,-23.438,-6.836,-22.461,-37.109,-171.875
1689804502.179,-7.812,-10.254,0.000,20.996,-42.969
1689804502.183,-1.465,-14.160,-0.488,28.809,63.477
1689804502.187,-19.531,-20.020,-26.855,-22.461,23.438
1689804502.190,-41.504,-24.414,-27.344,-73.730,-89.355
1689804502.194,-53.711,-37.109,-9.277,-60.547,208.984
1689804502.198,-47.363,-41.504,-10.742,-0.977,383.789
1689804502.202,-37.109,-25.879,-20.020,10.742,-30.273
1689804502.206,-32.227,-29.785,-28.809,-40.039,-108.398
1689804502.207,-24.902,-29.297,-38.086,-72.754,58.105
1689804502.211,-10.254,-7.324,-26.367,-32.715,-111.328
1689804502.215,-25.391,-11.230,-24.902,2.930,-205.566
1689804502.219,-39.062,-26.367,-33.203,9.766,-33.203
1689804502.223,-39.551,-31.250,-34.180,-24.414,-68.848
1689804502.227,-40.039,-33.203,-34.180,-68.359,-185.547
1689804502.231,-42.969,-25.879,-38.086,-65.918,-169.922
1689804502.234,-38.086,-28.809,-54.199,-17.578,-37.598
1689804502.238,-17.090,-41.016,-49.316,23.438,17.090
1689804502.242,-20.996,-37.109,-26.367,-11.719,-88.379
1689804502.246,-39.062,-29.297,-15.137,-63.965,-245.117
1689804502.250,-45.410,-40.039,-18.066,-64.941,-20.508
1689804502.254,-30.273,-42.969,-26.855,-9.766,233.398
1689804502.258,-20.996,-21.973,-32.227,36.621,-29.785
1689804502.262,-23.438,-12.695,-25.391,8.789,-103.516
1689804502.266,-27.832,-9.766,-25.391,-55.176,-113.281
1689804502.270,-40.527,-5.371,-30.762,-71.777,-178.223
1689804502.274,-36.133,-18.555,-23.926,-14.160,-43.457
1689804502.278,-18.066,-26.855,-33.691,35.156,46.387
1689804502.281,-19.531,-32.715,-47.363,9.277,233.887
1689804502.285,-35.156,-31.738,-44.434,-53.223,169.922
1689804502.289,-37.598,-30.273,-32.715,-75.195,-206.543
1689804502.293,-33.691,-36.621,-19.531,-25.879,-163.574
1689804502.297,-26.855,-22.949,-16.602,26.855,47.363
1689804502.299,-20.508,-13.672,-23.438,13.672,-4.395
1689804502.303,-25.391,-25.879,-36.621,-46.387,-114.258
1689804502.307,-38.574,-40.527,-41.992,-80.078,-51.270
1689804502.311,-37.109,-33.203,-22.461,-40.527,2.930
1689804502.315,-21.973,-28.320,-9.277,20.508,-73.730
1689804502.319,-20.020,-44.434,-20.508,16.602,-54.688
1689804502.323,-34.180,-29.297,-38.574,-41.992,157.715
1689804502.326,-46.875,-20.508,-50.293,-83.008,185.547
1689804502.330,-39.062,-18.555,-33.203,-56.152,-129.883
1689804502.334,-21.973,-19.043,-26.855,2.441,-150.879
1689804502.338,-12.695,-28.320,-45.410,10.254,-27.832
1689804502.342,-25.879,-30.762,-49.316,-47.363,-72.754
1689804502.343,-36.621,-27.832,-32.227,-94.727,-185.059
1689804502.347,-24.902,-30.762,-22.461,-57.129,-195.312
1689804502.351,-22.461,-25.391,-13.672,0.488,-110.352
1689804502.355,-42.480,-16.602,-2.930,-5.371,-48.340
1689804502.359,-46.387,-29.297,-19.531,-41.504,-34.180
1689804502.363,-42.969,-34.668,-29.785,-76.172,-33.691
1689804502.367,-45.410,-28.809,-31.250,-60.547,274.902
1689804502.370,-29.785,-25.391,-41.992,5.371,333.008
1689804502.374,-27.344,-30.273,-38.574,23.926,-39.551
1689804502.378,-37.109,-34.668,-40.039,-21.973,-114.258
1689804502.382,-43.945,-27.344,-32.715,-70.312,-20.508
1689804502.386,-45.898,-18.066,-11.230,-70.312,-114.746
1689804502.387,-32.227,-17.090,-16.602,-16.113,-213.379
1689804502.391,-18.066,-28.809,-24.414,21.484,-24.414
1689804502.395,-24.414,-35.645,-33.691,-17.578,-12.695
1689804502.399,-39.062,-34.180,-49.805,-70.312,-211.914
1689804502.403,-44.922,-37.109,-38.086,-73.242,-268.555
1689804502.407,-39.062,-41.016,-16.113,-20.020,90.332
1689804502.411,-31.250,-49.805,-11.719,21.484,353.027
1689804502.414,-32.715,-44.434,-25.391,-11.719,129.883
1689804502.418,-36.621,-26.855,-37.109,-69.824,-161.133
1689804502.422,-41.016,-42.969,-42.480,-75.195,-56.152
1689804502.426,-34.668,-48.340,-29.785,-26.367,120.117
1689804502.430,-27.832,-24.902,-20.020,6.836,-79.590
1689804502.447,-39.551,-19.531,-30.273,-11.719,-110.352
1689804502.451,-47.852,-23.926,-37.598,-69.824,-135.742
1689804502.455,-58.594,-23.926,-35.156,-99.609,-200.684
1689804502.459,-55.664,-28.320,-30.762,-51.270,-198.242
1689804502.463,-37.109,-37.109,-25.391,6.348,-91.797
1689804502.467,-30.762,-38.086,-20.996,-3.906,111.816
1689804502.471,-38.086,-39.062,-24.902,-65.918,136.230
1689804502.474,-43.457,-34.668,-27.832,-97.168,-164.062
1689804502.478,-36.133,-34.180,-30.762,-50.781,-135.742
1689804502.482,-28.809,-41.504,-40.527,1.953,146.973
1689804502.486,-28.320,-36.621,-47.363,-0.488,39.062
1689804502.490,-37.109,-37.109,-49.316,-55.176,-143.555
1689804502.492,-48.828,-54.688,-37.598,-94.727,-192.871
1689804502.496,-44.922,-58.594,-25.391,-53.223,180.664
1689804502.500,-32.715,-36.133,-30.273,6.348,294.922
1689804502.504,-28.320,-23.926,-32.227,14.648,-101.562
1689804502.508,-35.645,-30.762,-47.852,-36.621,-92.285
1689804502.512,-41.992,-36.621,-41.992,-84.961,0.488
1689804502.516,-36.133,-33.691,-22.461,-56.641,-88.867
1689804502.519,-27.832,-33.203,-28.320,10.742,-127.930
1689804502.523,-14.160,-40.039,-9.766,39.062,81.055
1689804502.527,-20.020,-36.133,-8.789,-15.625,188.477
1689804502.531,-36.621,-27.832,-23.438,-78.613,-179.688
1689804502.535,-37.598,-26.855,-15.137,-60.059,-240.723
1689804502.537,-33.691,-27.344,-22.461,-6.836,10.742
1689804502.541,-24.414,-26.367,-34.668,16.113,1.953
1689804502.545,-24.414,-24.902,-45.410,-21.484,-166.016
1689804502.549,-38.574,-30.762,-42.969,-70.801,-252.441
1689804502.553,-38.574,-36.621,-30.273,-61.035,-195.312
1689804502.557,-26.367,-39.551,-29.785,3.906,-53.711
1689804502.561,-13.672,-47.852,-18.066,51.270,77.148
1689804502.564,10.742,-37.109,-12.695,31.250,-24.414
1689804502.568,-4.883,-14.648,-22.949,-45.898,156.250
1689804502.572,-43.457,-1.953,-25.391,-88.379,234.863
1689804502.576,-36.133,-1.953,-26.367,-40.039,-163.574
