timestamps,TP9,AF7,AF8,TP10,Right AUX
1692228426.601,-46.875,-26.855,-23.926,-24.902,-136.719
1692228426.605,-43.457,-29.297,-27.832,-16.602,-58.105
1692228426.609,-39.551,-29.785,-27.344,-31.250,-137.695
1692228426.613,-41.504,-26.367,-25.391,-44.434,-222.656
1692228426.617,-45.898,-27.832,-26.855,-41.992,-58.105
1692228426.621,-38.086,-25.879,-28.320,-27.344,146.973
1692228426.625,-34.180,-17.090,-24.902,-24.414,78.613
1692228426.628,-49.316,-20.996,-24.414,-37.109,-92.285
1692228426.632,-56.641,-31.738,-24.902,-53.223,-21.973
1692228426.636,-43.457,-26.367,-26.367,-43.945,190.918
1692228426.640,-33.203,-21.973,-29.297,-11.719,-56.152
1692228426.644,-16.602,-30.273,-24.414,2.441,-198.730
1692228426.646,-23.438,-24.902,-21.484,-30.273,-139.648
1692228426.650,-55.664,-15.625,-23.926,-78.613,-199.219
1692228426.654,-74.707,-17.090,-25.391,-93.750,-214.355
1692228426.658,-72.754,-17.090,-29.297,-78.613,-134.766
1692228426.662,-82.031,-13.184,-29.297,-75.195,-43.945
1692228426.666,-91.797,-16.602,-29.297,-97.168,-32.227
1692228426.670,-91.309,-23.926,-32.715,-112.305,-42.969
1692228426.673,-89.355,-20.996,-31.250,-102.051,-88.867
1692228426.677,-78.125,-27.344,-33.691,-75.684,220.215
1692228426.681,-67.383,-33.203,-37.598,-61.035,544.434
1692228426.685,-65.430,-26.855,-41.992,-71.289,101.562
1692228426.689,-63.965,-20.020,-41.504,-83.008,-156.738
1692228426.691,-64.941,-25.879,-30.273,-78.613,-157.715
1692228426.695,-73.242,-33.203,-29.297,-64.941,-196.777
1692228426.699,-67.871,-27.344,-32.227,-50.293,-158.691
1692228426.703,-51.758,-16.602,-27.832,-50.293,-58.105
1692228426.707,-51.270,-18.066,-28.320,-64.453,-79.590
1692228426.711,-56.641,-25.391,-29.785,-60.059,-85.449
1692228426.715,-55.664,-30.762,-25.879,-42.969,79.102
1692228426.718,-53.223,-29.297,-23.926,-30.762,190.430
1692228426.722,-51.270,-21.484,-27.344,-36.621,191.895
1692228426.726,-53.711,-21.484,-26.367,-52.734,-36.621
1692228426.730,-55.664,-22.461,-22.461,-58.594,-169.434
1692228426.734,-54.199,-20.020,-19.531,-47.363,-84.473
1692228426.736,-49.805,-16.602,-17.578,-35.156,-39.062
1692228426.740,-52.246,-18.555,-21.484,-30.273,-105.957
1692228426.744,-64.453,-29.297,-23.926,-37.109,-107.910
1692228426.748,-63.965,-31.738,-27.832,-49.316,-119.629
1692228426.752,-44.922,-28.320,-28.320,-42.480,-113.281
1692228426.756,-28.320,-30.762,-28.809,-30.273,-50.781
1692228426.760,-30.273,-26.367,-31.250,-23.438,1.465
1692228426.763,-39.551,-22.461,-28.809,-32.227,297.363
1692228426.767,-53.711,-22.949,-28.320,-47.852,333.496
1692228426.771,-53.711,-20.508,-32.227,-48.828,-108.887
1692228426.775,-56.152,-15.625,-34.180,-29.785,-134.766
1692228426.779,-60.547,-20.996,-32.227,-29.785,-80.566
1692228426.798,-52.734,-31.738,-27.344,-50.293,-128.418
1692228426.802,-48.828,-24.414,-21.973,-44.434,-162.109
1692228426.806,-35.156,-19.531,-19.043,-21.973,-78.613
1692228426.810,-41.992,-24.902,-18.066,-9.766,61.523
1692228426.814,-39.062,-24.414,-16.113,-1.465,-80.078
1692228426.818,-23.926,-24.902,-16.113,-9.277,-163.086
1692228426.822,-35.645,-23.438,-20.508,-30.762,66.406
1692228426.825,-47.852,-21.484,-28.809,-36.133,204.590
1692228426.829,-36.621,-17.090,-27.344,-20.020,-41.504
1692228426.833,-41.016,-20.996,-25.391,-11.230,-97.168
1692228426.837,-62.012,-27.832,-27.832,-24.902,-56.152
1692228426.841,-68.359,-31.738,-27.344,-43.945,-104.004
1692228426.826,-63.965,-27.832,-30.273,-46.875,-133.301
1692228426.830,-56.152,-23.438,-32.227,-33.203,-140.625
1692228426.834,-52.734,-23.926,-26.855,-19.531,-16.113
1692228426.838,-49.316,-24.414,-23.926,-28.320,10.742
1692228426.842,-47.852,-20.996,-27.344,-42.480,-153.320
1692228426.846,-52.246,-20.508,-27.344,-48.340,-125.977
1692228426.850,-66.895,-21.484,-27.344,-47.363,81.543
1692228426.853,-59.570,-16.602,-29.785,-34.668,66.895
1692228426.857,-45.410,-23.438,-32.715,-37.598,-52.246
1692228426.861,-48.340,-28.320,-35.645,-53.223,-117.188
1692228426.865,-52.246,-29.297,-36.133,-52.246,195.312
1692228426.869,-54.199,-31.738,-34.180,-35.645,469.238
1692228426.872,-47.852,-26.367,-27.344,-21.484,62.500
1692228426.876,-47.852,-26.855,-22.949,-28.809,-127.930
1692228426.880,-56.152,-32.227,-27.832,-46.875,-116.699
1692228426.884,-57.129,-30.762,-30.762,-52.246,-201.172
1692228426.888,-46.387,-28.320,-22.949,-40.039,-221.680
1692228426.892,-30.273,-23.926,-20.508,5.371,16.113
1692228426.896,-23.926,-20.020,-24.902,-133.301,227.539
1692228426.899,-26.367,-18.066,-26.367,-472.168,89.355
1692228426.903,-28.809,-15.137,-25.391,-694.336,-166.016
1692228426.907,-28.809,-23.438,-26.367,-796.387,-64.941
1692228426.911,-36.621,-28.809,-26.855,-919.922,191.895
1692228426.915,-40.527,-22.461,-27.832,-891.602,-89.355
1692228426.931,-40.039,-26.855,-24.414,-607.422,-262.695
1692228426.935,-50.781,-29.297,-28.320,-383.301,-219.238
1692228426.939,-55.176,-26.855,-26.367,-251.465,-232.910
1692228426.943,-44.922,-23.438,-22.949,-142.578,-257.812
1692228426.947,-36.133,-22.461,-30.273,-72.754,-204.590
1692228426.951,-33.691,-22.949,-20.996,-35.645,-25.879
1692228426.955,-42.969,-24.414,-20.508,-12.207,-13.672
1692228426.958,-47.852,-26.367,-26.855,20.020,-113.770
1692228426.962,-39.551,-27.344,-23.926,57.129,-83.496
1692228426.966,-38.574,-31.250,-23.926,80.078,191.406
1692228426.970,-42.480,-24.414,-23.926,83.984,288.574
1692228426.974,-53.711,-20.996,-25.879,68.848,-117.676
1692228426.977,-62.012,-27.832,-29.297,68.359,-164.062
1692228426.981,-57.617,-24.414,-33.203,90.820,-59.570
1692228426.985,-57.129,-19.043,-33.203,99.609,-179.688
1692228426.989,-58.594,-18.555,-29.297,85.449,-183.594
1692228426.993,-57.617,-20.996,-26.855,75.684,-159.668
1692228426.997,-52.734,-22.461,-25.879,82.520,-57.129
1692228427.001,-51.270,-24.414,-29.297,100.098,7.812
1692228427.004,-53.711,-22.461,-29.785,108.398,-82.520
1692228427.008,-62.500,-23.926,-27.344,89.844,20.508
1692228427.012,-49.805,-29.297,-29.785,64.941,172.363
1692228427.016,-38.086,-25.391,-33.691,55.664,-66.895
1692228427.020,-42.480,-20.996,-29.785,62.500,-170.898
1692228427.036,-40.039,-21.484,-27.344,68.359,1.465
1692228427.040,-36.621,-19.043,-32.715,57.129,17.578
1692228427.044,-40.527,-17.578,-31.250,34.668,-153.320
1692228427.048,-42.480,-21.973,-27.832,27.344,-174.316
1692228427.052,-36.621,-25.879,-30.273,39.551,-86.914
1692228427.056,-35.156,-31.250,-33.203,44.434,26.367
1692228427.060,-36.621,-33.691,-29.785,32.227,44.434
1692228427.063,-38.574,-31.250,-26.855,19.531,-86.426
1692228427.067,-41.016,-26.367,-23.438,20.020,133.301
1692228427.071,-41.992,-22.949,-23.438,25.391,272.461
1692228427.075,-40.039,-25.391,-26.855,20.996,-72.754
1692228427.079,-41.016,-32.227,-27.832,8.789,-132.324
1692228427.067,-55.176,-31.250,-29.297,-10.254,-62.988
1692228427.071,-58.105,-27.344,-32.715,-20.020,-85.938
1692228427.075,-50.293,-23.926,-31.250,-0.488,-143.555
1692228427.079,-46.387,-26.367,-29.297,17.578,-15.137
1692228427.083,-46.387,-24.414,-31.738,8.301,77.637
1692228427.087,-41.992,-17.090,-25.879,-18.555,-46.387
1692228427.091,-39.062,-16.602,-22.461,-27.832,-66.406
1692228427.094,-41.504,-21.484,-25.391,-17.090,118.652
1692228427.098,-47.363,-24.902,-27.832,-4.395,62.500
1692228427.102,-49.316,-23.926,-26.855,-2.441,-164.062
1692228427.106,-52.246,-21.484,-28.809,-17.578,-160.156
1692228427.110,-58.594,-22.949,-29.297,-24.414,63.477
1692228427.111,-52.734,-28.809,-29.785,-20.020,225.098
1692228427.115,-48.340,-26.367,-26.367,-9.766,-38.574
1692228427.119,-34.668,-25.391,-15.137,2.441,-103.027
1692228427.123,-35.645,-29.297,-19.531,-20.996,-1.953
1692228427.127,-53.223,-26.855,-26.367,-38.574,-85.449
1692228427.131,-62.500,-23.926,-27.344,-24.902,-153.320
1692228427.135,-54.688,-25.879,-29.297,-14.160,-77.148
1692228427.138,-49.805,-24.902,-24.414,-13.672,232.910
1692228427.142,-48.828,-20.020,-20.508,-20.020,472.656
1692228427.146,-46.875,-20.996,-24.902,-37.598,2.930
1692228427.150,-51.758,-22.461,-27.832,-32.715,-217.285
1692228427.154,-51.270,-20.020,-20.996,-10.742,-64.941
1692228427.156,-49.805,-22.949,-20.020,-9.277,-118.164
1692228427.160,-54.688,-20.508,-20.508,-21.484,-145.020
1692228427.164,-61.035,-21.484,-22.461,-36.133,-72.266
1692228427.168,-59.570,-30.273,-23.438,-37.109,-91.797
1692228427.172,-55.176,-25.391,-19.043,-20.508,-139.648
1692228427.176,-54.688,-19.531,-19.531,-3.906,-134.277
1692228427.180,-50.293,-25.391,-23.926,-10.254,127.930
1692228427.183,-53.223,-29.785,-29.785,-37.598,425.781
1692228427.187,-50.781,-21.973,-27.832,-42.969,33.203
1692228427.191,-41.992,-23.926,-22.461,-26.367,-255.371
1692228427.195,-46.387,-28.320,-27.344,-9.766,-76.172
1692228427.199,-53.711,-31.738,-28.809,-19.531,-42.969
1692228427.201,-54.688,-31.250,-25.879,-43.945,-148.438
1692228427.205,-49.316,-20.020,-25.879,-47.852,-161.133
1692228427.209,-42.480,-21.973,-26.367,-41.992,-120.605
1692228427.213,-44.922,-28.809,-26.855,-31.738,-81.055
1692228427.217,-51.758,-28.320,-29.297,-32.227,-95.215
1692228427.221,-56.641,-27.832,-23.438,-44.922,-93.262
1692228427.225,-62.988,-38.574,-23.438,-51.270,210.938
1692228427.228,-61.035,-42.969,-27.832,-36.133,280.273
1692228427.232,-55.664,-28.809,-27.832,-16.602,20.020
1692228427.236,-56.641,-24.414,-27.832,-20.020,-59.570
1692228427.240,-58.105,-26.367,-24.902,-28.320,123.047
1692228427.244,-55.664,-20.508,-20.996,-31.738,50.293
1692228427.247,-54.688,-22.461,-19.531,-21.973,-230.469
1692228427.251,-53.223,-27.344,-22.461,-5.371,-141.113
1692228427.255,-47.852,-21.973,-26.367,-6.348,-81.055
1692228427.259,-44.922,-18.555,-22.461,-17.090,-70.801
1692228427.263,-44.434,-19.531,-26.855,-26.367,-118.164
1692228427.267,-41.016,-17.578,-28.320,-13.672,81.055
1692228427.271,-34.180,-16.602,-23.438,-0.977,251.465
1692228427.274,-28.809,-20.020,-24.414,-19.043,35.156
1692228427.278,-29.785,-15.137,-20.020,-32.227,-112.793
1692228427.282,-33.691,-13.672,-24.414,-36.133,4.883
1692228427.286,-41.504,-23.438,-31.250,-44.434,201.172
1692228427.290,-42.969,-26.855,-26.855,-36.621,94.238
1692228427.306,-36.133,-20.996,-22.949,-20.996,-75.684
1692228427.310,-37.598,-22.461,-23.926,-29.785,-2.930
1692228427.314,-41.504,-22.461,-22.949,-40.527,11.719
1692228427.318,-40.527,-17.578,-19.043,-31.738,-145.996
1692228427.322,-40.039,-20.020,-18.555,-14.648,-68.848
1692228427.326,-43.945,-24.902,-22.461,-16.113,138.672
1692228427.330,-49.805,-22.949,-21.973,-31.738,104.004
1692228427.333,-54.199,-20.508,-20.996,-31.738,37.109
1692228427.337,-58.594,-27.344,-22.461,-32.227,-84.961
1692228427.341,-55.664,-28.809,-20.508,-23.926,146.484
1692228427.345,-49.805,-25.391,-21.484,-5.371,292.480
1692228427.349,-51.758,-24.414,-23.438,-21.484,-98.633
1692228427.351,-57.617,-24.902,-20.996,-37.598,-136.230
1692228427.355,-66.406,-26.855,-21.973,-22.461,-74.219
1692228427.359,-64.941,-26.855,-20.996,-1.465,-160.156
1692228427.363,-48.828,-28.809,-19.043,-2.441,-186.523
1692228427.367,-44.922,-28.320,-22.949,-18.555,-0.488
1692228427.371,-50.293,-31.250,-28.809,-37.109,103.516
1692228427.375,-51.758,-30.273,-24.902,-42.480,-56.152
1692228427.378,-44.922,-27.832,-17.090,-24.414,-143.555
1692228427.382,-41.016,-30.762,-17.090,-3.906,57.617
1692228427.386,-43.457,-29.297,-20.508,-5.859,238.770
1692228427.390,-40.527,-25.391,-24.414,-23.438,-60.059
1692228427.394,-37.598,-22.949,-23.926,-20.508,-192.871
1692228427.396,-38.574,-18.555,-21.484,-1.953,-128.418
1692228427.400,-39.062,-16.602,-22.461,7.812,-100.586
1692228427.404,-38.574,-19.531,-20.996,2.441,-134.766
1692228427.408,-38.086,-26.855,-19.043,-15.625,-100.098
1692228427.412,-38.574,-37.109,-23.438,-18.066,20.508
1692228427.416,-37.598,-39.062,-20.508,2.441,59.082
1692228427.420,-34.180,-31.738,-18.555,7.324,47.852
1692228427.423,-42.969,-27.832,-23.926,1.953,7.324
1692228427.427,-58.594,-25.879,-19.043,1.465,211.426
1692228427.431,-52.246,-25.879,-15.137,-11.719,194.824
1692228427.435,-42.969,-25.879,-17.090,-8.301,-199.707
1692228427.439,-45.410,-21.484,-14.160,5.371,-158.203
1692228427.441,-47.363,-21.973,-19.531,-2.930,20.508
1692228427.445,-44.922,-22.949,-23.926,-25.879,-104.492
1692228427.449,-45.898,-22.949,-23.926,-41.504,-209.473
1692228427.453,-42.480,-24.902,-21.484,-36.621,-137.695
1692228427.457,-42.480,-32.227,-18.066,-24.414,-78.125
1692228427.461,-47.852,-32.715,-21.484,-24.414,22.461
1692228427.465,-43.945,-23.926,-20.996,-39.062,2.930
1692228427.468,-43.945,-19.531,-21.484,-57.617,83.984
1692228427.472,-44.922,-19.531,-26.855,-53.711,339.355
1692228427.476,-34.180,-20.996,-25.879,-34.180,91.797
1692228427.480,-28.809,-24.414,-21.484,-34.180,-144.531
1692228427.484,-32.715,-26.855,-22.461,-46.387,-90.820
1692228427.486,-34.668,-27.344,-22.461,-51.758,-102.539
1692228427.490,-27.832,-26.855,-19.531,-49.805,-180.664
1692228427.494,-23.926,-25.879,-17.578,-30.273,-164.551
1692228427.498,-37.109,-23.926,-21.484,-28.320,-85.449
1692228427.502,-34.180,-21.973,-22.461,-47.363,-3.418
1692228427.506,-28.320,-23.926,-22.461,-59.570,-36.133
1692228427.510,-29.785,-28.809,-25.879,-52.734,-11.719
1692228427.513,-24.902,-30.273,-26.855,-37.109,268.555
1692228427.517,-27.344,-29.297,-22.949,-34.668,194.336
1692228427.521,-34.668,-30.762,-20.508,-44.922,-102.051
1692228427.525,-33.691,-25.391,-17.090,-59.570,-198.730
1692228427.529,-28.320,-20.020,-14.160,-60.547,139.648
1692228427.531,-35.156,-25.879,-22.461,-49.316,248.047
1692228427.535,-38.574,-27.832,-25.391,-38.086,-149.902
1692228427.539,-44.434,-27.344,-23.926,-48.828,-155.273
1692228427.543,-51.758,-23.438,-26.855,-66.406,-130.371
1692228427.547,-50.293,-23.438,-28.809,-64.453,-194.824
1692228427.551,-49.805,-30.273,-24.902,-53.711,-152.344
1692228427.555,-34.668,-22.949,-29.297,-34.668,81.055
1692228427.558,-17.090,-9.766,-34.180,-17.578,254.883
1692228427.562,-24.414,-22.461,-15.625,-35.645,-40.039
1692228427.566,-43.457,-40.527,-7.324,-61.523,-213.867
1692228427.570,-52.734,-47.363,-15.625,-59.082,-120.605
1692228427.574,-36.621,-45.410,-19.531,-37.598,-69.336
1692228427.577,-33.203,-45.410,-15.625,-38.086,-134.277
1692228427.581,-42.480,-48.340,-18.066,-53.711,-175.293
1692228427.585,-39.551,-43.945,-14.648,-52.734,-99.121
1692228427.589,-31.250,-42.480,-8.789,-41.992,-67.871
1692228427.593,-28.809,-41.992,-11.230,-21.484,-140.137
1692228427.597,-26.367,-43.945,-14.160,-18.555,-53.711
1692228427.601,-27.832,-43.945,-14.648,-29.297,302.734
1692228427.604,-29.297,-40.039,-17.090,-36.133,210.938
1692228427.608,-25.391,-44.434,-21.973,-27.832,-227.539
1692228427.612,-20.996,-52.246,-18.555,0.488,-174.805
1692228427.616,-22.949,-53.223,-14.160,3.906,47.852
1692228427.620,-32.227,-48.340,-14.648,-6.836,-42.969
1692228427.623,-34.668,-47.363,-12.695,-20.508,-195.801
1692228427.627,-20.020,-46.875,-13.672,-17.578,-61.523
1692228427.631,-20.508,-52.734,-13.672,1.953,-12.207
1692228427.635,-21.973,-54.688,-14.648,3.418,-124.512
1692228427.639,-16.113,-50.293,-16.602,-10.254,-166.992
1692228427.643,-28.809,-52.246,-15.625,-28.320,32.715
1692228427.647,-31.250,-48.340,-15.137,-27.344,266.113
1692228427.650,-31.250,-43.457,-15.137,-20.508,10.254
1692228427.654,-31.738,-44.434,-16.113,-16.602,-166.992
1692228427.658,-27.344,-43.457,-11.719,-20.508,17.578
1692228427.662,-39.551,-46.875,-9.766,-38.574,29.785
1692228427.666,-40.527,-41.016,-9.766,-38.086,-170.410
1692228427.681,-42.480,-40.039,-13.184,-18.555,-136.230
1692228427.685,-37.109,-43.457,-12.695,-6.348,-4.883
1692228427.689,-17.090,-37.109,-10.254,-16.602,-0.977
1692228427.693,-21.973,-35.645,-13.672,-27.832,-83.008
1692228427.697,-31.250,-33.691,-13.672,-27.832,-152.832
1692228427.701,-31.250,-36.133,-13.672,-20.508,235.840
1692228427.705,-24.414,-37.109,-17.090,-5.371,437.012
1692228427.708,-22.949,-33.203,-17.578,-9.766,84.961
1692228427.712,-28.320,-34.668,-17.090,-33.203,-55.664
1692228427.716,-28.320,-33.203,-21.484,-35.156,93.262
1692228427.720,-28.320,-29.297,-23.438,-20.508,96.191
1692228427.724,-24.414,-28.320,-22.461,-10.254,-138.672
1692228427.728,-24.414,-29.785,-20.020,-17.090,-98.633
1692228427.732,-26.855,-25.879,-13.672,-30.762,-83.008
1692228427.736,-28.809,-24.414,-14.648,-34.668,-194.336
1692228427.740,-30.762,-27.832,-17.090,-26.367,-226.562
1692228427.744,-33.691,-29.785,-16.602,-9.277,-65.430
1692228427.748,-55.176,-24.902,-20.508,-9.766,3.418
1692228427.752,-59.082,-24.414,-22.949,-25.879,-71.289
1692228427.755,-45.898,-31.738,-25.879,-29.297,-74.219
1692228427.759,-46.387,-37.598,-23.926,-18.066,45.410
1692228427.763,-45.898,-38.574,-19.043,-6.348,339.844
1692228427.767,-51.270,-32.715,-20.020,-11.719,113.281
1692228427.771,-62.988,-34.180,-21.973,-32.227,-183.105
1692228427.771,-61.035,-37.109,-17.578,-38.574,-152.344
1692228427.775,-51.270,-33.691,-15.625,-26.855,-133.789
1692228427.779,-43.945,-34.668,-21.973,-14.160,-104.492
1692228427.783,-40.527,-27.832,-21.484,-5.371,-103.516
1692228427.787,-41.504,-22.461,-23.438,-19.043,-77.148
1692228427.791,-44.922,-27.344,-22.949,-26.855,-5.371
1692228427.795,-43.457,-25.879,-16.113,-12.207,41.992
1692228427.798,-30.273,-22.949,-15.625,-5.859,101.074
1692228427.802,-30.273,-22.949,-24.902,-9.277,215.332
1692228427.806,-41.992,-22.461,-29.297,-22.461,73.242
1692228427.810,-42.969,-21.973,-26.367,-29.785,-182.129
1692228427.814,-50.293,-22.461,-21.973,-17.090,-196.777
1692228427.817,-59.570,-22.949,-20.996,4.395,220.703
1692228427.821,-44.434,-17.578,-23.438,5.859,333.008
1692228427.825,-39.062,-17.090,-25.391,-22.949,-90.820
1692228427.829,-46.387,-19.531,-26.855,-33.691,-165.039
1692228427.833,-46.875,-19.531,-27.344,-20.020,-111.328
1692228427.837,-47.363,-24.414,-26.367,-9.766,-6.348
1692228427.841,-49.316,-27.832,-24.414,-9.277,14.160
1692228427.844,-54.199,-25.879,-24.902,-15.625,46.387
1692228427.848,-56.641,-25.391,-22.949,-29.785,118.652
1692228427.852,-62.500,-23.926,-20.996,-27.832,-156.738
1692228427.856,-56.152,-23.926,-21.973,-14.160,-242.676
1692228427.860,-42.969,-24.902,-22.461,-8.789,-79.590
1692228427.863,-49.805,-27.344,-21.973,-23.926,-62.500
1692228427.867,-55.176,-27.832,-22.461,-48.340,-189.941
1692228427.871,-56.152,-24.902,-20.996,-41.992,-174.316
1692228427.875,-62.988,-21.484,-24.902,-18.066,-68.848
1692228427.879,-63.965,-28.320,-22.461,-10.742,-83.984
1692228427.883,-50.293,-36.621,-18.066,-17.090,-91.797
1692228427.887,-46.875,-36.133,-19.531,-32.227,-55.176
1692228427.890,-53.223,-34.180,-21.484,-36.133,236.328
1692228427.894,-52.246,-26.367,-20.508,-11.230,305.176
1692228427.898,-47.363,-17.090,-15.137,5.859,-91.797
1692228427.902,-44.922,-16.602,-17.578,-4.883,-124.023
1692228427.906,-46.875,-25.879,-23.438,-20.996,20.996
1692228427.908,-50.293,-26.367,-24.902,-24.414,-135.254
1692228427.912,-41.016,-22.949,-22.461,-15.625,-215.332
1692228427.916,-36.133,-21.973,-17.578,-11.230,-20.996
1692228427.920,-40.039,-20.508,-14.648,-13.184,28.320
1692228427.924,-44.434,-21.973,-14.160,-19.531,-115.234
1692228427.928,-49.805,-22.949,-16.113,-29.297,-175.293
1692228427.932,-50.781,-23.438,-20.508,-20.996,76.660
1692228427.935,-36.621,-17.090,-15.625,13.184,280.762
1692228427.939,-31.738,-18.066,-10.742,19.043,-1.953
1692228427.943,-45.410,-16.602,-15.625,-13.672,-204.102
1692228427.947,-54.199,-12.695,-19.043,-30.273,-36.133
1692228427.951,-62.012,-13.184,-20.996,-28.320,49.805
1692228427.951,-60.059,-10.254,-22.461,-20.996,-117.676
1692228427.955,-40.527,-13.672,-18.066,-13.672,-91.797
1692228427.959,-37.109,-13.672,-19.043,-27.832,-103.516
1692228427.963,-42.480,-11.719,-22.461,-40.527,-177.734
1692228427.967,-41.992,-13.672,-23.926,-27.832,-110.840
1692228427.971,-37.598,-9.766,-21.973,-7.324,-2.441
1692228427.975,-35.645,-11.230,-14.648,-4.883,333.496
1692228427.978,-44.434,-20.996,-20.020,-31.738,374.023
1692228427.982,-62.500,-17.090,-20.020,-45.410,-69.824
1692228427.986,-56.641,-20.020,-18.066,-30.273,-158.203
1692228427.990,-39.062,-24.414,-27.344,-18.555,-36.621
1692228427.994,-46.387,-19.043,-34.668,-20.996,-69.336
1692228427.997,-47.363,-20.508,-31.250,-31.250,-186.035
1692228428.001,-44.922,-25.391,-25.391,-33.203,-105.469
1692228428.005,-42.969,-19.531,-22.461,-20.996,42.480
1692228428.009,-41.992,-17.578,-21.484,-18.555,-53.223
1692228428.013,-37.598,-22.461,-20.508,-18.555,-141.113
1692228428.017,-43.945,-19.531,-18.066,-22.949,128.418
1692228428.021,-60.059,-20.996,-18.066,-39.062,256.348
1692228428.024,-55.664,-23.926,-15.137,-45.410,-41.504
1692228428.028,-42.480,-18.066,-14.160,-31.250,-166.016
1692228428.032,-40.039,-21.973,-18.555,-28.320,-42.969
1692228428.036,-45.410,-23.438,-21.973,-39.062,17.090
1692228428.040,-50.293,-16.113,-22.949,-53.223,-142.090
1692228428.056,-53.711,-17.578,-20.996,-62.012,-217.285
1692228428.060,-47.852,-15.625,-19.043,-45.898,61.523
1692228428.064,-47.852,-16.602,-20.020,-32.227,203.613
1692228428.068,-53.711,-22.949,-22.949,-47.852,-88.379
1692228428.072,-58.594,-33.203,-28.809,-70.801,-114.258
1692228428.076,-64.941,-38.086,-27.832,-72.266,40.039
1692228428.080,-61.035,-30.762,-19.043,-56.641,114.258
1692228428.083,-56.152,-22.461,-20.508,-44.922,59.570
1692228428.087,-55.664,-22.461,-24.414,-52.246,-89.355
1692228428.091,-64.453,-29.785,-31.250,-67.383,164.062
1692228428.095,-76.660,-27.344,-30.273,-62.012,310.547
1692228428.099,-63.477,-18.555,-22.949,-55.176,-112.305
1692228428.102,-38.086,-23.926,-20.996,-45.410,-169.434
1692228428.106,-34.180,-26.367,-21.484,-42.969,-76.660
1692228428.110,-39.551,-21.973,-24.414,-54.688,-187.012
1692228428.114,-41.992,-27.832,-24.902,-62.988,-240.234
1692228428.118,-41.016,-29.297,-29.785,-56.152,-102.539
1692228428.122,-34.668,-29.785,-35.645,-47.852,83.008
1692228428.126,-29.785,-28.320,-30.273,-47.363,51.270
1692228428.129,-40.039,-21.484,-23.926,-58.594,-119.629
1692228428.133,-44.434,-21.484,-21.484,-61.523,-42.480
1692228428.137,-34.180,-18.066,-21.484,-52.246,169.434
1692228428.141,-26.367,-15.625,-22.949,-34.180,-31.250
1692228428.145,-17.578,-20.996,-18.066,-15.625,-125.977
1692228428.148,-24.414,-22.949,-13.184,-30.762,65.430
1692228428.152,-47.852,-15.625,-11.230,-64.453,37.598
1692228428.156,-76.660,-9.277,-19.043,-91.309,-186.035
1692228428.160,-88.379,-16.602,-26.367,-78.613,-134.277
1692228428.164,-100.098,-24.902,-29.297,-74.219,-18.555
1692228428.168,-99.609,-24.902,-26.367,-93.262,0.488
1692228428.172,-92.285,-21.484,-19.043,-106.445,-15.625
1692228428.175,-100.098,-19.043,-18.555,-109.375,-66.406
1692228428.179,-102.051,-21.973,-18.066,-97.168,197.266
1692228428.183,-88.379,-16.602,-18.555,-77.148,344.238
1692228428.187,-77.637,-8.789,-20.020,-81.055,-36.621
1692228428.191,-97.168,-13.184,-24.414,-110.352,-148.438
1692228428.193,-103.027,-14.160,-25.391,-117.188,-30.762
1692228428.197,-89.355,-16.113,-26.855,-93.750,-131.836
1692228428.201,-79.102,-26.855,-28.809,-75.195,-152.344
1692228428.205,-74.707,-31.738,-22.949,-77.637,14.160
1692228428.209,-71.777,-24.902,-23.438,-86.914,-16.113
1692228428.213,-66.895,-20.996,-26.367,-84.473,-136.230
1692228428.217,-66.895,-22.949,-22.949,-62.012,-82.520
1692228428.220,-56.152,-19.043,-19.531,-35.645,22.461
1692228428.224,-50.293,-18.066,-20.020,-42.480,307.617
1692228428.228,-51.758,-20.996,-24.414,-74.219,91.797
1692228428.232,-55.664,-22.461,-24.902,-79.102,-239.258
1692228428.236,-58.594,-19.043,-26.855,-56.152,-107.422
1692228428.236,-43.945,-18.555,-29.297,-43.457,-4.883
1692228428.240,-34.180,-18.555,-24.902,-44.434,-45.410
1692228428.244,-41.016,-20.508,-30.273,-60.059,-115.723
1692228428.248,-45.410,-22.461,-28.809,-73.730,-105.957
1692228428.252,-40.039,-19.043,-19.043,-47.852,-32.715
1692228428.256,-41.016,-20.996,-21.484,-32.715,65.918
1692228428.260,-46.875,-27.344,-24.414,-41.992,88.379
1692228428.263,-46.875,-28.809,-21.484,-53.223,253.906
1692228428.267,-45.410,-25.879,-20.508,-61.523,562.500
1692228428.271,-41.992,-20.020,-22.949,-50.781,193.848
1692228428.275,-43.457,-19.043,-24.902,-34.668,-195.801
1692228428.279,-44.434,-19.531,-27.344,-39.062,-113.281
1692228428.281,-43.945,-23.926,-28.809,-47.852,-173.340
1692228428.285,-67.383,-31.250,-31.250,-57.129,-295.898
1692228428.289,-82.520,-30.762,-30.273,-60.059,-243.164
1692228428.293,-62.012,-24.414,-30.762,-48.340,-143.555
1692228428.297,-47.363,-24.414,-25.879,-34.180,-158.203
1692228428.301,-49.316,-24.414,-20.020,-43.457,-120.605
1692228428.305,-49.316,-25.391,-23.438,-63.477,-19.531
1692228428.308,-46.875,-28.809,-22.949,-50.781,299.316
1692228428.312,-43.457,-29.785,-25.879,-36.621,134.277
1692228428.316,-35.645,-26.855,-30.273,-35.645,-163.574
1692228428.320,-31.250,-26.367,-30.762,-45.410,-109.375
1692228428.324,-40.527,-29.297,-31.250,-63.965,-138.184
1692228428.341,-40.039,-22.461,-27.344,-50.781,-190.430
1692228428.345,-32.227,-21.484,-26.367,-26.855,-136.230
1692228428.349,-41.016,-26.367,-25.879,-28.809,-45.410
1692228428.353,-54.688,-22.949,-21.484,-39.062,-60.059
1692228428.357,-56.152,-20.996,-25.391,-55.176,-145.020
1692228428.361,-65.918,-25.391,-33.691,-57.617,-92.285
1692228428.365,-69.824,-29.297,-31.250,-35.645,289.551
1692228428.368,-54.199,-24.414,-20.996,-18.066,312.988
1692228428.372,-50.293,-20.508,-24.902,-36.621,-79.102
1692228428.376,-52.734,-27.832,-26.367,-56.152,-158.203
1692228428.380,-49.805,-31.738,-24.902,-42.969,84.473
1692228428.384,-42.969,-27.344,-24.902,-25.879,6.836
1692228428.372,-33.203,-21.484,-21.484,-16.113,-285.645
1692228428.376,-42.969,-24.414,-24.902,-24.902,-239.258
1692228428.380,-44.434,-26.855,-24.902,-39.551,-177.246
1692228428.384,-44.434,-24.414,-21.484,-42.480,-193.848
1692228428.388,-50.293,-23.926,-21.973,-36.133,-240.723
1692228428.392,-42.480,-23.438,-23.438,-26.367,-19.531
1692228428.396,-47.363,-22.461,-22.949,-30.762,70.312
1692228428.399,-57.129,-25.391,-26.855,-48.340,-180.664
1692228428.403,-54.688,-32.227,-26.855,-53.223,-238.281
1692228428.407,-48.340,-31.738,-28.320,-31.738,-20.508
1692228428.411,-43.945,-23.438,-30.273,-4.883,211.914
1692228428.415,-46.387,-23.926,-21.484,-1.953,34.668
1692228428.431,-43.945,-22.461,-24.414,-17.578,-76.172
1692228428.435,-41.016,-24.902,-30.273,-30.273,-16.113
1692228428.439,-41.504,-32.715,-29.297,-29.785,-35.156
1692228428.443,-31.738,-23.926,-28.320,-17.090,-117.188
1692228428.447,-20.020,-20.508,-34.180,-11.719,-133.789
1692228428.451,-11.719,-25.879,-34.668,-19.531,-28.809
1692228428.455,-10.742,-26.367,-29.297,-21.484,11.230
1692228428.458,-17.090,-27.832,-28.320,-17.090,-21.973
1692228428.462,-9.277,-26.855,-26.855,2.441,-43.945
1692228428.466,-5.859,-19.531,-19.531,19.531,214.844
1692228428.470,-16.602,-16.113,-17.090,0.000,275.879
1692228428.474,-18.066,-16.602,-22.949,-27.344,-138.184
1692228428.476,-35.645,-13.184,-23.926,-18.066,-179.688
1692228428.480,-42.480,-9.277,-23.926,3.418,-118.652
1692228428.484,-26.855,-23.926,-29.785,-2.441,-103.027
1692228428.488,-23.926,-34.668,-28.809,-23.926,-131.836
1692228428.492,-24.902,-31.738,-27.832,-36.133,-88.867
1692228428.496,-26.855,-30.762,-28.320,-32.715,99.609
1692228428.500,-34.668,-31.250,-27.832,-26.367,54.688
1692228428.503,-37.109,-27.832,-28.809,-15.625,-87.402
1692228428.507,-33.691,-26.855,-29.297,-13.672,50.781
1692228428.511,-32.227,-30.273,-33.691,-25.391,197.266
1692228428.515,-31.250,-22.949,-30.762,-27.344,-108.887
1692228428.519,-45.410,-22.949,-30.762,-18.066,-177.734
1692228428.522,-52.246,-25.391,-33.691,-9.766,-70.801
1692228428.526,-41.016,-21.973,-25.879,-11.230,-89.844
1692228428.530,-43.945,-23.926,-24.414,-32.715,-121.094
1692228428.534,-48.340,-18.066,-22.949,-42.969,-141.602
1692228428.538,-40.527,-16.602,-18.066,-24.414,-62.988
1692228428.542,-39.062,-25.391,-20.508,-7.324,98.145
1692228428.546,-39.551,-25.391,-21.484,-10.254,98.633
1692228428.549,-42.969,-21.973,-24.414,-18.066,-18.555
1692228428.553,-54.688,-23.926,-25.391,-21.973,250.000
1692228428.557,-62.500,-26.855,-24.902,-14.160,510.742
1692228428.561,-52.734,-20.508,-29.785,-2.930,92.285
1692228428.565,-43.945,-23.438,-25.391,-12.207,-123.535
1692228428.567,-43.945,-31.250,-22.949,-29.785,-92.285
1692228428.571,-42.969,-31.738,-25.879,-28.320,-219.727
1692228428.575,-39.062,-29.297,-20.996,-7.324,-239.258
1692228428.579,-41.504,-24.414,-14.160,10.742,-117.188
1692228428.583,-53.711,-27.832,-14.648,3.906,-43.945
1692228428.587,-44.434,-26.367,-23.438,-11.719,-52.734
1692228428.591,-34.668,-23.438,-20.996,-20.020,-76.172
1692228428.594,-35.645,-23.926,-13.184,-8.789,77.148
1692228428.598,-27.832,-20.996,-9.277,21.973,381.348
1692228428.602,-30.273,-21.973,-13.672,27.832,109.375
1692228428.606,-43.945,-24.414,-22.949,10.742,-194.824
1692228428.610,-47.852,-20.508,-23.926,-8.789,-106.934
1692228428.611,-42.969,-20.508,-20.996,-1.953,-91.797
1692228428.615,-38.086,-26.367,-23.926,16.602,-122.070
1692228428.619,-39.062,-29.297,-26.367,13.184,-103.516
1692228428.623,-59.570,-27.344,-18.555,1.465,-112.305
1692228428.627,-63.965,-20.508,-12.695,-9.277,-144.531
1692228428.631,-46.875,-20.508,-15.137,-0.488,-44.922
1692228428.635,-43.945,-26.367,-20.996,12.207,11.719
1692228428.638,-42.480,-23.926,-21.484,16.113,325.195
1692228428.642,-46.387,-25.391,-25.391,-0.977,416.016
1692228428.646,-49.805,-25.879,-24.414,-19.043,-97.656
1692228428.650,-52.734,-23.926,-19.043,-10.742,-169.922
1692228428.654,-57.129,-25.879,-17.578,8.789,-30.762
1692228428.673,-56.152,-26.367,-16.113,22.461,-96.680
1692228428.677,-57.617,-29.297,-15.625,2.930,-207.520
1692228428.681,-56.152,-33.691,-18.555,-20.508,-204.590
1692228428.685,-51.758,-34.668,-20.020,-9.766,-111.816
1692228428.689,-50.293,-33.691,-15.137,12.207,-108.887
1692228428.693,-52.246,-33.691,-19.531,17.578,-97.656
1692228428.697,-53.223,-28.809,-23.438,-1.465,148.926
1692228428.700,-42.480,-21.484,-19.043,-13.184,306.152
1692228428.704,-40.039,-16.602,-17.578,-7.812,-15.137
1692228428.708,-38.574,-9.766,-23.926,4.395,-174.805
1692228428.712,-41.016,-10.254,-26.367,21.973,-20.508
1692228428.716,-52.734,-17.578,-22.461,10.742,-33.691
1692228428.703,-55.176,-19.531,-18.555,-5.859,-155.273
1692228428.707,-52.734,-18.066,-13.672,3.418,-176.758
1692228428.711,-41.016,-18.555,-14.648,20.508,-82.031
1692228428.715,-32.227,-22.461,-16.602,25.879,-30.762
1692228428.719,-31.250,-19.043,-14.648,18.066,-96.191
1692228428.723,-36.621,-15.137,-17.090,-9.277,-56.152
1692228428.727,-41.992,-19.043,-21.973,-22.461,63.477
1692228428.730,-31.250,-18.555,-17.578,1.953,56.641
1692228428.734,-36.621,-20.508,-12.695,7.812,-25.879
1692228428.738,-41.992,-24.414,-12.695,-9.766,-63.965
1692228428.742,-53.711,-23.926,-14.648,-27.832,3.418
1692228428.746,-62.988,-18.555,-16.602,-33.691,-25.879
1692228428.777,-56.152,-20.020,-20.508,-21.973,-74.219
1692228428.781,-62.988,-27.832,-18.066,-17.090,20.020
1692228428.785,-69.336,-29.297,-20.020,-24.414,367.676
1692228428.789,-69.336,-29.785,-26.367,-43.457,306.152
1692228428.793,-65.430,-30.762,-24.902,-53.223,-136.719
1692228428.797,-59.082,-32.715,-21.973,-40.527,23.926
1692228428.801,-52.734,-31.250,-20.996,-23.926,460.938
1692228428.804,-53.223,-24.414,-25.391,-25.391,218.750
1692228428.808,-59.082,-24.414,-26.367,-37.109,-168.457
1692228428.812,-56.641,-27.344,-22.461,-47.363,-70.312
1692228428.816,-66.406,-27.832,-24.414,-49.316,-36.133
1692228428.820,-66.895,-26.367,-23.926,-29.297,-120.605
1692228428.806,-57.617,-29.297,-20.996,-19.043,-154.297
1692228428.810,-61.523,-34.180,-25.391,-30.762,-136.719
1692228428.814,-58.105,-27.344,-27.344,-35.156,-115.723
1692228428.818,-51.758,-26.855,-22.949,-30.273,-204.102
1692228428.822,-40.527,-27.832,-19.531,-16.113,-154.785
1692228428.826,-32.715,-18.555,-16.113,0.977,61.523
1692228428.830,-34.668,-12.207,-13.672,-7.812,119.629
1692228428.833,-34.668,-10.254,-16.602,-32.227,37.598
1692228428.837,-34.180,-14.160,-17.090,-31.250,79.590
1692228428.841,-44.922,-21.973,-15.625,-16.602,120.605
1692228428.845,-48.828,-22.949,-18.066,-16.602,-14.160
1692228428.849,-49.805,-20.508,-19.043,-24.414,-66.406
1692228428.852,-58.105,-21.973,-15.625,-36.621,-90.820
1692228428.856,-58.594,-25.391,-16.113,-31.250,170.410
1692228428.860,-48.828,-30.273,-22.949,-14.160,303.711
1692228428.864,-49.805,-31.250,-21.484,-13.184,-104.004
1692228428.868,-49.805,-33.691,-21.484,-30.762,-126.465
1692228428.872,-50.781,-31.250,-26.855,-44.434,5.371
1692228428.876,-45.898,-19.043,-24.902,-40.039,-136.719
1692228428.879,-39.062,-17.090,-20.020,-25.391,-228.516
1692228428.883,-48.340,-21.484,-19.531,-18.555,-21.973
1692228428.887,-51.270,-20.508,-21.973,-22.461,337.402
1692228428.891,-44.434,-16.113,-20.020,-39.062,62.012
1692228428.895,-46.875,-15.625,-21.973,-37.598,-245.605
1692228428.896,-48.828,-28.809,-24.414,-19.043,-156.738
1692228428.900,-38.086,-32.227,-21.484,-6.348,-77.148
1692228428.904,-36.133,-31.250,-20.996,-10.742,-57.129
1692228428.908,-52.734,-30.762,-20.996,-23.438,-81.055
1692228428.912,-58.105,-20.996,-23.438,-29.297,-32.715
1692228428.916,-45.898,-24.414,-29.297,-19.043,27.344
1692228428.920,-42.969,-29.785,-30.762,-9.277,-32.715
1692228428.923,-51.758,-22.949,-31.250,-20.020,-79.590
1692228428.927,-48.828,-18.555,-31.250,-18.555,134.766
1692228428.931,-40.527,-19.043,-32.715,-24.902,237.793
1692228428.935,-57.617,-27.832,-32.715,-31.250,-70.312
1692228428.939,-57.617,-33.203,-29.785,-18.555,-80.566
1692228428.941,-40.039,-29.297,-24.414,-13.672,-9.766
1692228428.945,-48.828,-23.926,-25.879,-29.297,-96.680
1692228428.949,-56.152,-26.367,-25.879,-37.109,-150.391
1692228428.953,-63.477,-25.391,-20.996,-22.461,-95.215
1692228428.957,-69.824,-24.414,-22.949,-7.812,-21.484
1692228428.961,-69.336,-27.344,-25.391,-10.254,-18.555
1692228428.965,-81.055,-29.785,-28.320,-22.461,-58.594
1692228428.968,-78.125,-22.949,-29.297,-33.203,8.301
1692228428.972,-73.730,-17.090,-25.391,-36.133,157.227
1692228428.976,-78.125,-24.414,-24.902,-24.902,-27.344
1692228428.980,-80.566,-28.809,-27.832,-19.043,-134.766
1692228428.984,-82.520,-28.809,-28.320,-33.691,-93.262
1692228428.988,-85.938,-27.832,-23.926,-49.805,-143.555
1692228428.992,-89.844,-28.320,-22.461,-40.039,-123.535
1692228428.996,-84.961,-27.832,-29.297,-21.973,-105.469
1692228429.000,-90.332,-30.762,-32.227,-21.484,45.898
1692228429.004,-92.773,-28.809,-25.391,-30.273,88.379
1692228429.008,-87.891,-21.484,-25.879,-43.457,-40.527
1692228429.012,-88.379,-15.625,-26.855,-45.410,-39.062
1692228429.015,-86.426,-17.578,-23.926,-24.414,310.059
1692228429.019,-84.961,-20.996,-23.926,-8.301,381.836
1692228429.023,-69.824,-20.508,-20.020,-13.672,-129.883
1692228429.027,-65.918,-22.461,-23.438,-34.668,-256.348
1692228429.031,-67.871,-22.461,-25.879,-41.992,-195.801
1692228429.031,-66.406,-25.879,-26.855,-32.715,-191.895
1692228429.035,-62.012,-27.832,-27.344,-22.461,-168.457
1692228429.039,-54.199,-23.438,-25.879,-36.133,-101.074
1692228429.043,-59.082,-27.344,-24.414,-64.941,-29.297
1692228429.047,-62.988,-28.320,-26.367,-76.172,-100.098
1692228429.051,-58.594,-24.902,-30.762,-66.895,-99.609
1692228429.055,-54.688,-27.344,-25.391,-55.664,166.504
1692228429.058,-47.852,-21.973,-22.461,-65.430,440.918
1692228429.062,-49.805,-20.508,-27.832,-85.938,136.719
1692228429.066,-55.176,-26.855,-22.949,-90.820,-212.402
1692228429.070,-47.852,-26.855,-17.090,-76.172,-139.648
1692228429.074,-44.434,-27.344,-19.043,-62.988,-103.516
1692228429.077,-48.340,-32.227,-25.391,-66.406,-139.160
1692228429.081,-44.434,-30.273,-26.367,-80.566,-131.348
1692228429.085,-41.504,-25.391,-22.949,-83.984,-110.352
1692228429.089,-43.945,-25.391,-23.438,-77.637,-101.562
1692228429.093,-43.457,-22.949,-22.949,-65.430,-76.660
1692228429.097,-37.109,-22.461,-19.531,-67.383,6.836
1692228429.101,-37.598,-24.414,-21.973,-80.566,237.793
1692228429.104,-38.574,-24.414,-26.367,-89.844,199.707
1692228429.108,-41.016,-24.902,-25.879,-77.148,-45.410
1692228429.112,-39.062,-23.438,-21.484,-61.035,-93.750
1692228429.116,-34.180,-21.973,-20.020,-52.734,201.660
1692228429.120,-35.156,-20.020,-22.461,-57.617,185.547
1692228429.121,-33.203,-20.020,-21.973,-71.777,-213.867
1692228429.125,-33.691,-27.344,-22.461,-68.359,-167.480
1692228429.129,-25.391,-24.414,-20.508,-54.199,-92.285
1692228429.133,-20.020,-17.578,-24.414,-49.805,-138.184
1692228429.137,-28.809,-22.461,-30.273,-65.918,-230.469
1692228429.141,-21.484,-27.832,-29.297,-72.754,-73.242
1692228429.145,-10.742,-23.926,-28.809,-57.129,247.070
1692228429.148,-8.789,-30.762,-23.438,-47.363,5.859
1692228429.152,-3.906,-33.203,-23.438,-55.176,-150.391
1692228429.156,-3.418,-24.414,-23.438,-66.406,71.289
1692228429.160,5.859,-25.879,-22.949,-81.055,39.551
1692228429.164,28.320,-29.297,-25.879,-82.520,-201.172
1692228429.196,36.621,-25.879,-23.438,-66.406,-152.344
1692228429.200,48.828,-23.926,-17.578,-53.223,-3.418
1692228429.204,55.664,-26.855,-20.996,-59.570,-8.301
1692228429.208,46.387,-26.855,-28.809,-70.312,-172.852
1692228429.212,46.875,-30.273,-26.855,-68.848,-196.289
1692228429.216,59.082,-29.297,-16.602,-50.781,46.875
1692228429.220,70.801,-22.949,-16.113,-33.691,30.762
1692228429.223,87.402,-20.996,-20.020,-42.480,-60.547
1692228429.227,100.098,-21.484,-22.461,-63.477,-46.875
1692228429.231,127.930,-20.996,-25.391,-62.012,184.570
1692228429.235,180.176,-20.508,-22.949,-41.016,312.500
1692228429.239,247.070,-21.973,-22.949,-38.574,-6.836
1692228429.226,312.988,-23.926,-23.926,-48.340,-138.184
1692228429.230,344.727,-24.902,-18.555,-62.012,-28.809
1692228429.234,353.027,-27.832,-20.996,-64.453,-129.883
1692228429.238,359.863,-30.762,-24.414,-51.270,-235.840
1692228429.242,463.867,-29.297,-23.438,-46.387,24.414
1692228429.246,594.727,-25.879,-24.902,-52.734,157.715
1692228429.250,645.996,-22.461,-23.926,-57.129,-40.527
1692228429.253,653.809,-17.090,-20.996,-63.965,-174.805
1692228429.257,651.367,-16.602,-15.625,-60.547,-50.781
1692228429.261,660.156,-22.949,-14.160,-45.898,53.223
1692228429.265,645.508,-24.414,-14.160,-45.410,-32.227
1692228429.269,592.285,-24.414,-17.578,-61.035,-162.109
1692228429.272,554.688,-23.438,-19.531,-61.523,-10.254
1692228429.276,560.547,-23.438,-18.066,-46.387,214.844
1692228429.280,539.062,-19.043,-20.020,-32.227,-41.016
1692228429.284,520.996,-20.508,-24.414,-38.086,-140.625
1692228429.288,496.094,-24.414,-20.996,-58.105,-3.418
1692228429.292,469.727,-22.949,-18.555,-58.594,11.719
1692228429.296,455.566,-27.344,-20.996,-56.152,-83.984
1692228429.299,431.641,-26.855,-22.461,-49.316,-69.336
1692228429.303,409.668,-23.438,-25.391,-38.574,294.434
1692228429.307,394.531,-26.367,-26.855,-49.316,369.629
1692228429.311,376.465,-25.391,-27.832,-67.383,-90.332
1692228429.315,366.699,-20.508,-27.832,-53.711,-148.438
1692228429.316,352.539,-29.785,-25.879,-39.551,-80.566
1692228429.320,341.309,-32.715,-25.391,-40.039,-109.863
1692228429.324,340.820,-23.438,-26.855,-50.293,-135.742
1692228429.328,389.648,-27.344,-27.344,-74.219,-53.223
1692228429.332,505.859,-29.297,-23.438,-79.102,35.645
1692228429.336,650.391,-28.809,-21.484,-60.059,20.508
1692228429.340,729.980,-22.461,-24.902,-60.547,19.043
1692228429.343,750.488,-19.531,-22.949,-72.754,30.273
1692228429.347,761.719,-18.066,-19.043,-76.172,243.652
1692228429.351,755.371,-19.531,-24.414,-74.219,22.949
1692228429.355,756.348,-20.996,-29.297,-51.270,-235.352
1692228429.359,761.230,-19.043,-27.344,-35.645,-63.965
1692228429.361,740.723,-20.996,-22.949,-49.316,-79.102
1692228429.365,720.703,-19.531,-21.973,-63.965,-218.262
1692228429.369,703.125,-18.555,-20.020,-59.082,-180.664
1692228429.373,675.293,-20.508,-17.578,-41.992,-90.820
1692228429.377,652.344,-24.414,-17.090,-30.762,-84.961
1692228429.381,628.906,-21.484,-14.648,-38.086,-57.129
1692228429.385,598.145,-18.066,-13.184,-53.711,-17.090
1692228429.388,573.730,-18.555,-11.230,-44.434,196.777
1692228429.392,557.129,-22.949,-14.160,-29.785,391.113
1692228429.396,534.180,-24.902,-19.043,-36.621,49.316
1692228429.400,508.789,-26.855,-14.648,-42.480,-120.605
1692228429.404,485.840,-24.902,-11.230,-56.152,15.625
1692228429.406,471.191,-23.926,-14.648,-59.082,-105.957
1692228429.410,459.473,-31.250,-22.461,-39.062,-228.516
1692228429.414,442.383,-35.156,-24.902,-30.762,-115.723
1692228429.418,424.316,-26.367,-18.066,-34.668,-65.918
1692228429.422,402.344,-21.484,-17.090,-42.480,-152.344
1692228429.426,377.441,-26.367,-20.020,-51.270,-61.523
1692228429.430,366.699,-23.438,-17.578,-39.062,157.715
1692228429.433,355.957,-13.184,-15.137,-20.508,240.234
1692228429.437,340.332,-18.555,-17.090,-27.344,13.672
1692228429.441,323.730,-27.344,-19.043,-51.270,-159.180
1692228429.445,301.758,-25.879,-20.508,-58.105,-66.406
1692228429.449,288.574,-25.879,-23.438,-46.875,-49.805
1692228429.466,283.691,-19.531,-25.391,-41.992,-150.391
1692228429.470,279.785,-18.555,-23.438,-41.504,-129.883
1692228429.474,265.137,-22.949,-27.832,-49.316,-87.891
1692228429.478,246.582,-21.484,-33.691,-67.871,-114.258
1692228429.482,236.816,-20.020,-24.902,-63.477,-154.297
1692228429.486,231.934,-20.020,-20.996,-51.758,-62.988
1692228429.490,229.492,-17.578,-25.391,-45.898,250.000
1692228429.493,220.215,-15.625,-26.367,-62.500,250.000
1692228429.497,208.496,-20.996,-20.508,-72.754,-75.684
1692228429.501,204.590,-24.902,-20.996,-61.523,-188.477
1692228429.505,195.801,-25.391,-26.367,-52.246,17.090
1692228429.509,178.711,-24.414,-24.414,-48.340,62.988
1692228429.497,169.922,-19.531,-19.043,-62.012,-166.504
1692228429.501,163.086,-21.484,-18.555,-75.195,-141.602
1692228429.505,149.414,-29.785,-21.973,-81.055,15.625
1692228429.509,152.344,-29.785,-25.391,-68.848,-60.547
1692228429.513,154.297,-25.391,-23.926,-56.152,-97.168
1692228429.517,148.926,-20.996,-22.949,-70.801,130.859
1692228429.521,145.020,-21.484,-26.855,-89.355,191.895
1692228429.524,139.648,-26.367,-27.344,-92.773,-94.727
1692228429.528,149.902,-29.785,-21.484,-71.777,-291.992
1692228429.532,149.414,-30.273,-20.996,-60.059,-55.176
1692228429.536,137.207,-30.762,-22.461,-76.172,155.273
1692228429.540,133.789,-27.832,-20.508,-90.820,-110.352
1692228429.556,134.277,-25.391,-20.020,-83.984,-221.680
1692228429.560,130.371,-26.367,-21.484,-69.336,-138.184
1692228429.564,132.812,-31.250,-23.438,-66.895,-71.777
1692228429.568,132.324,-34.668,-24.902,-70.312,-102.051
1692228429.572,122.070,-31.738,-23.438,-76.660,-228.027
1692228429.576,119.629,-32.227,-26.855,-74.707,48.340
1692228429.580,125.000,-33.203,-28.320,-59.570,248.535
1692228429.583,125.000,-25.879,-20.996,-45.898,-37.598
1692228429.587,123.535,-22.461,-17.578,-48.340,-165.527
1692228429.591,119.141,-24.414,-16.602,-62.012,63.477
1692228429.595,109.863,-24.902,-13.672,-69.336,142.578
1692228429.599,114.258,-21.484,-15.625,-57.129,-187.988
1692228429.601,123.047,-21.973,-20.996,-34.668,-187.012
1692228429.605,108.398,-22.949,-24.414,-33.691,-103.027
1692228429.609,91.309,-25.391,-21.973,-55.664,-152.832
1692228429.613,100.098,-27.832,-22.949,-69.824,-240.723
1692228429.617,114.746,-26.855,-26.367,-56.152,-20.996
1692228429.621,115.234,-28.809,-28.320,-32.227,187.500
1692228429.625,117.188,-29.785,-27.344,-29.785,10.742
1692228429.628,111.816,-28.320,-28.809,-52.246,-66.406
1692228429.632,97.656,-27.344,-29.785,-63.965,98.633
1692228429.636,96.191,-27.832,-22.949,-44.434,284.668
1692228429.640,97.168,-29.297,-22.949,-31.738,48.340
1692228429.644,98.145,-27.344,-22.949,-25.391,-101.074
1692228429.646,90.820,-23.926,-24.414,-29.297,15.137
1692228429.650,84.473,-28.320,-22.949,-41.016,-21.484
1692228429.654,83.984,-25.391,-15.625,-33.203,-159.180
1692228429.658,81.055,-18.555,-14.648,-16.113,-110.352
1692228429.662,79.102,-20.508,-18.066,-8.789,-36.133
1692228429.666,72.754,-23.438,-23.926,-25.879,22.461
1692228429.670,62.988,-23.926,-27.344,-44.434,33.203
1692228429.673,47.852,-25.391,-24.902,-31.738,-41.992
1692228429.677,41.992,-36.133,-20.020,-4.883,222.168
1692228429.681,46.875,-37.109,-21.484,-8.301,522.949
1692228429.685,45.898,-29.785,-23.926,-32.715,96.191
1692228429.689,46.387,-32.227,-21.484,-45.410,-193.359
1692228429.691,50.781,-31.738,-16.602,-35.156,-104.980
1692228429.695,51.270,-28.809,-15.625,-5.371,-120.117
1692228429.699,50.293,-31.738,-17.578,0.488,-127.930
1692228429.703,45.898,-35.156,-17.578,-24.414,-74.707
1692228429.707,39.062,-29.297,-17.578,-37.109,-68.848
1692228429.711,36.133,-28.320,-20.020,-45.898,-44.922
1692228429.715,35.645,-32.715,-21.484,-42.969,-17.090
1692228429.718,38.086,-26.855,-21.484,-35.645,47.852
1692228429.722,43.457,-25.391,-20.996,-35.156,185.059
1692228429.726,40.039,-27.344,-20.020,-47.363,19.043
1692228429.730,33.691,-18.066,-16.113,-49.805,-171.387
1692228429.734,38.086,-16.113,-14.160,-26.855,-48.828
1692228429.751,36.621,-21.484,-16.113,-23.926,38.574
1692228429.755,27.832,-32.227,-15.625,-48.340,-90.820
1692228429.759,21.484,-37.109,-14.648,-62.500,-137.207
1692228429.763,16.113,-34.180,-20.020,-64.941,-107.422
1692228429.767,25.879,-35.645,-23.926,-49.805,-99.609
1692228429.771,35.645,-31.250,-22.949,-35.645,7.324
1692228429.775,29.785,-27.344,-25.391,-41.016,31.738
1692228429.778,20.508,-25.391,-23.926,-50.293,231.445
1692228429.782,20.020,-19.531,-22.461,-63.477,316.406
1692228429.786,31.738,-24.414,-23.438,-59.082,-91.309
1692228429.790,41.016,-26.855,-21.484,-38.086,-209.473
1692228429.794,34.668,-28.809,-23.926,-37.598,-92.773
1692228429.782,24.414,-36.133,-25.391,-51.270,-30.273
1692228429.786,23.926,-33.203,-25.391,-51.758,-168.457
1692228429.790,29.785,-26.367,-21.484,-34.668,-119.141
1692228429.794,35.645,-21.973,-21.973,-15.625,41.992
1692228429.798,30.273,-21.973,-23.438,-15.625,-65.430
1692228429.802,29.297,-22.461,-20.508,-23.438,-36.133
1692228429.806,27.832,-24.414,-23.926,-35.156,125.977
1692228429.809,24.902,-26.855,-26.855,-41.016,39.551
1692228429.813,33.691,-26.855,-24.902,-23.438,-113.281
1692228429.817,39.551,-25.879,-25.391,-14.648,-200.195
1692228429.821,35.645,-34.180,-27.344,-23.438,32.715
1692228429.825,30.762,-33.691,-23.438,-30.762,276.367
1692228429.828,26.855,-26.855,-21.973,-35.156,-73.730
1692228429.832,23.926,-29.297,-22.461,-21.484,-163.574
1692228429.836,22.461,-32.227,-26.367,-12.207,43.457
1692228429.840,5.371,-31.250,-27.832,-19.531,34.180
1692228429.844,-0.977,-30.273,-27.344,-30.762,-134.277
1692228429.848,16.113,-32.227,-26.367,-26.367,-154.297
1692228429.852,19.043,-24.902,-22.949,-6.348,211.426
1692228429.855,20.508,-21.973,-20.996,4.883,408.691
1692228429.859,16.602,-30.273,-17.578,-6.836,-3.418
1692228429.863,11.719,-30.273,-18.555,-33.691,-196.777
1692228429.867,16.602,-23.438,-19.531,-38.086,-62.988
1692228429.871,21.973,-22.461,-19.043,-21.484,-105.957
1692228429.871,23.438,-19.043,-19.043,-24.902,-187.012
1692228429.875,17.578,-20.996,-20.020,-54.199,-99.121
1692228429.879,15.137,-29.785,-21.484,-73.242,-102.051
1692228429.883,19.531,-30.273,-21.484,-66.406,-191.406
1692228429.887,22.949,-24.902,-21.484,-58.105,-222.656
1692228429.891,20.020,-25.879,-16.602,-46.387,24.902
1692228429.895,15.137,-25.391,-13.184,-45.410,342.285
1692228429.898,17.578,-22.461,-16.113,-61.523,133.789
1692228429.902,20.508,-28.320,-15.625,-61.523,-185.059
1692228429.906,14.648,-27.832,-20.996,-44.434,-20.020
1692228429.910,13.184,-23.438,-21.484,-30.273,148.438
1692228429.914,24.902,-24.902,-15.137,-28.809,-109.863
1692228429.931,26.367,-28.320,-16.602,-44.922,-202.637
1692228429.935,21.484,-26.855,-19.531,-61.523,-150.391
1692228429.939,25.879,-26.367,-20.020,-52.246,-98.145
1692228429.943,27.344,-27.344,-17.578,-35.156,-87.891
1692228429.947,24.902,-27.832,-22.461,-38.086,-122.559
1692228429.951,24.414,-27.344,-23.926,-48.340,34.180
1692228429.955,17.090,-24.414,-26.367,-61.523,71.289
1692228429.958,11.230,-28.809,-31.250,-55.176,-17.090
1692228429.962,13.184,-38.086,-27.832,-29.297,-22.461
1692228429.966,17.090,-32.715,-24.414,-19.043,219.238
1692228429.970,12.207,-28.320,-17.578,-30.273,394.043
1692228429.974,10.254,-27.832,-19.531,-52.734,-45.898
1692228429.976,16.113,-24.902,-21.484,-47.852,-214.355
1692228429.980,16.113,-24.902,-19.531,-37.109,-79.590
1692228429.984,16.602,-22.949,-22.461,-39.062,-92.773
1692228429.988,15.137,-18.066,-24.902,-45.410,-171.875
1692228429.992,10.254,-21.484,-26.855,-53.711,-119.629
1692228429.996,4.395,-23.438,-26.367,-50.293,-12.207
1692228430.000,7.812,-19.043,-29.297,-27.832,15.625
1692228430.003,22.949,-20.020,-24.414,-15.137,-67.871
1692228430.007,21.973,-26.367,-16.113,-30.273,18.555
1692228430.011,11.719,-30.273,-21.484,-47.363,248.047
1692228430.015,18.066,-29.785,-23.438,-37.598,0.977
1692228430.019,29.785,-28.320,-21.484,-13.672,-209.961
1692228430.021,24.414,-28.809,-18.066,-6.348,-3.418
1692228430.025,17.090,-21.484,-19.043,-18.066,52.734
1692228430.029,17.578,-14.648,-23.926,-33.203,-116.699
1692228430.033,11.719,-20.020,-20.996,-35.645,-144.531
1692228430.037,10.254,-24.414,-17.578,-26.855,-133.789
1692228430.041,18.066,-22.461,-17.090,-12.207,-11.230
1692228430.045,13.184,-21.973,-20.996,-21.973,17.578
1692228430.048,4.395,-25.879,-25.879,-35.645,-125.977
1692228430.052,4.883,-31.250,-23.438,-28.320,162.109
1692228430.056,2.930,-30.273,-18.555,-17.090,349.609
1692228430.060,28.809,-23.926,-22.461,-11.230,-22.461
1692228430.064,-78.125,-21.484,-24.902,-21.484,-123.535
1692228430.066,-310.059,-24.414,-21.973,-33.691,-94.238
1692228430.070,-404.785,-22.461,-26.367,-32.227,-154.785
1692228430.074,-426.270,-18.555,-24.902,-19.531,-135.742
1692228430.078,-444.336,-21.484,-17.090,-5.859,-9.277
1692228430.082,-448.242,-26.855,-18.555,-11.719,62.500
1692228430.086,-433.594,-28.320,-23.438,-34.180,5.859
1692228430.090,-403.809,-24.902,-20.020,-47.363,-38.086
1692228430.093,-381.348,-29.297,-18.555,-40.039,26.855
1692228430.097,-360.840,-32.715,-25.391,-30.273,194.336
1692228430.101,-344.727,-31.738,-26.367,-35.645,-35.156
1692228430.105,-330.078,-32.715,-27.832,-54.199,-256.348
1692228430.109,-307.617,-30.273,-26.367,-63.477,-177.734
1692228430.111,-287.598,-30.762,-21.484,-57.617,-96.191
1692228430.115,-265.625,-27.344,-23.926,-37.109,-126.465
1692228430.119,-243.652,-28.809,-25.879,-27.832,-95.215
1692228430.123,-232.422,-34.180,-25.879,-37.109,33.203
1692228430.127,-221.191,-30.273,-21.973,-39.062,-24.902
1692228430.131,-206.543,-26.855,-18.555,-36.621,-74.219
1692228430.135,-197.266,-32.227,-20.508,-36.621,-37.109
1692228430.138,-188.965,-31.250,-23.926,-40.039,257.324
1692228430.142,-176.270,-24.414,-23.926,-52.734,363.770
1692228430.146,-165.039,-23.438,-20.508,-70.312,-130.371
1692228430.150,-151.367,-25.391,-24.902,-67.871,-276.855
1692228430.154,-149.414,-25.879,-26.367,-45.410,-165.039
1692228430.156,-143.066,-21.973,-20.996,-34.668,-145.508
1692228430.160,-124.512,-20.996,-20.020,-44.434,-163.086
1692228430.164,-120.117,-18.066,-17.578,-47.363,-110.352
1692228430.168,-128.906,-20.508,-17.090,-41.504,19.043
1692228430.172,-118.164,-29.297,-19.043,-37.598,-49.805
1692228430.176,-96.191,-28.809,-20.020,-45.898,-36.621
1692228430.180,-97.656,-33.691,-27.832,-74.707,95.703
1692228430.183,-104.004,-32.227,-27.344,-82.520,383.789
1692228430.187,-104.980,-25.879,-20.996,-63.965,157.227
1692228430.191,-97.656,-29.785,-20.508,-54.199,-193.359
1692228430.195,-84.961,-25.391,-19.531,-53.711,-76.660
1692228430.199,-82.520,-20.020,-21.973,-45.898,-115.723
1692228430.201,-83.496,-17.090,-25.391,-250.000,-251.465
1692228430.205,-81.543,-14.160,-23.926,-573.242,-240.234
1692228430.209,-83.008,-19.531,-26.367,-747.559,-125.000
1692228430.213,-77.637,-30.273,-30.273,-879.883,-102.539
1692228430.217,-79.102,-34.180,-27.832,-981.445,-158.203
1692228430.221,-82.520,-30.273,-28.320,-999.023,-89.355
1692228430.225,-78.125,-26.855,-24.414,-989.746,291.016
1692228430.228,-73.730,-28.320,-25.391,-1000.000,290.527
1692228430.232,-63.965,-27.344,-29.785,-794.434,9.277
1692228430.236,-55.176,-20.508,-26.855,-464.355,-76.660
1692228430.240,-50.781,-19.043,-22.461,-292.969,111.328
1692228430.244,-51.758,-18.555,-22.461,-181.152,165.039
1692228430.246,-46.387,-17.090,-25.879,-84.473,-156.738
1692228430.250,-50.781,-18.066,-25.391,-2.441,-136.719
1692228430.254,-53.223,-22.461,-31.738,36.621,-62.988
1692228430.258,-48.828,-30.762,-39.062,47.363,-130.859
1692228430.262,-53.711,-31.250,-30.273,68.359,-228.027
1692228430.266,-41.504,-26.367,-21.973,115.234,-20.508
1692228430.270,-35.156,-27.832,-22.949,145.020,201.172
1692228430.273,-34.180,-28.320,-21.973,145.508,47.852
1692228430.277,-31.738,-22.461,-21.484,139.648,-105.957
1692228430.281,-36.621,-21.484,-24.902,136.230,38.086
1692228430.285,-34.668,-21.484,-28.809,142.578,222.656
1692228430.289,-27.832,-28.809,-25.879,148.926,-10.742
1692228430.307,-26.367,-28.809,-24.414,147.949,-145.508
1692228430.311,-30.762,-27.832,-29.297,123.535,10.742
1692228430.315,-40.527,-31.738,-27.832,106.445,-0.977
1692228430.319,-35.645,-32.715,-25.879,108.887,-190.430
1692228430.323,-61.035,-33.203,-24.902,114.746,-144.531
1692228430.327,-126.465,-27.832,-22.461,106.445,82.520
1692228430.331,-162.109,-23.926,-21.484,86.914,86.426
1692228430.334,-174.316,-25.391,-23.438,70.312,-2.441
1692228430.338,-180.664,-26.367,-24.414,75.684,-72.754
1692228430.342,-174.316,-31.738,-22.461,96.680,178.711
1692228430.346,-153.320,-26.855,-20.508,97.168,330.078
1692228430.350,-140.137,-20.996,-17.578,82.520,-113.770
1692228430.351,-136.230,-26.367,-21.484,64.453,-142.090
1692228430.355,-130.371,-26.367,-26.855,68.359,11.719
1692228430.359,-118.164,-21.484,-23.438,85.938,-86.426
1692228430.363,-111.328,-20.020,-18.555,85.449,-140.137
1692228430.367,-110.352,-28.809,-21.484,67.871,-33.691
1692228430.371,-106.934,-34.180,-23.438,54.199,66.895
1692228430.375,-95.703,-25.391,-20.996,58.105,9.766
1692228430.378,-85.938,-22.949,-24.414,65.918,-85.938
1692228430.382,-77.637,-28.809,-24.902,76.660,25.879
1692228430.386,-74.707,-29.297,-23.438,64.453,211.426
1692228430.390,-85.938,-30.762,-29.297,31.250,-32.715
1692228430.394,-88.379,-36.621,-30.762,22.461,-200.684
1692228430.396,-74.707,-34.180,-28.320,42.969,-104.980
1692228430.400,-72.266,-28.809,-27.344,56.152,-53.711
1692228430.404,-67.383,-22.461,-23.438,53.711,-145.508
1692228430.408,-64.941,-22.461,-20.508,41.504,-155.273
1692228430.412,-67.383,-28.809,-20.508,39.062,16.602
1692228430.416,-64.453,-26.367,-20.508,53.223,131.348
1692228430.420,-60.547,-24.902,-20.020,50.293,98.145
1692228430.423,-67.383,-33.691,-23.438,35.156,36.621
1692228430.427,-70.312,-33.691,-20.996,19.043,189.453
1692228430.431,-60.547,-25.879,-20.996,11.230,283.691
1692228430.435,-53.711,-20.996,-20.020,21.484,-68.848
1692228430.439,-47.852,-22.461,-19.043,31.738,-164.062
1692228430.441,-51.758,-24.902,-23.438,31.250,-92.285
1692228430.445,-57.617,-22.461,-21.484,20.508,-156.250
1692228430.449,-60.547,-23.926,-18.555,11.230,-181.641
1692228430.453,-59.570,-26.367,-20.996,16.602,-127.930
1692228430.457,-52.246,-27.832,-24.414,27.832,-62.500
1692228430.461,-55.664,-25.879,-25.391,27.832,-37.109
1692228430.465,-60.547,-22.461,-24.414,10.254,-112.305
1692228430.468,-59.570,-25.879,-22.949,-4.395,-30.273
1692228430.472,-58.594,-24.902,-22.461,2.930,304.688
1692228430.476,-46.387,-22.461,-20.508,9.766,141.602
1692228430.480,-42.969,-26.855,-21.484,16.113,-143.555
1692228430.484,-42.969,-28.809,-25.391,13.672,-140.137
1692228430.486,-37.598,-28.320,-27.832,2.441,-165.527
1692228430.490,-27.344,-24.902,-24.902,5.859,-184.570
1692228430.494,-22.461,-16.602,-26.855,22.949,-130.371
1692228430.498,-33.691,-17.578,-30.762,20.508,-84.961
1692228430.502,-29.785,-24.902,-28.809,-3.418,-111.328
1692228430.506,-19.043,-28.809,-27.832,-21.973,-177.734
1692228430.510,-20.508,-21.973,-25.879,-21.484,-142.090
1692228430.513,-25.391,-19.043,-26.855,0.488,260.742
1692228430.517,-28.320,-21.484,-28.320,-3.418,418.945
1692228430.521,-30.762,-17.090,-28.320,-21.484,-25.391
1692228430.525,-41.992,-17.578,-25.879,-27.344,-221.191
1692228430.529,-46.387,-22.949,-22.949,-23.926,82.031
1692228430.531,-45.410,-24.414,-22.949,-20.996,119.141
1692228430.535,-48.340,-26.855,-26.367,-25.391,-155.762
1692228430.539,-47.363,-27.344,-23.438,-33.203,-118.164
1692228430.543,-51.758,-22.461,-19.043,-46.387,-87.402
1692228430.547,-59.082,-23.926,-19.531,-53.223,-149.902
1692228430.551,-52.246,-24.902,-23.926,-41.992,-107.910
1692228430.555,-54.199,-26.855,-27.832,-35.156,142.578
1692228430.558,-62.988,-26.855,-25.391,-49.316,279.785
1692228430.562,-56.152,-27.832,-20.508,-62.988,-27.832
1692228430.566,-49.805,-26.367,-17.090,-59.082,-222.656
1692228430.570,-50.293,-27.344,-17.090,-48.340,-46.387
1692228430.574,-48.340,-32.227,-19.043,-33.203,-32.715
1692228430.576,-51.758,-26.367,-25.391,-38.086,-197.266
1692228430.580,-58.105,-24.902,-26.855,-54.199,-213.379
1692228430.584,-55.176,-24.902,-24.414,-48.340,-110.352
1692228430.588,-50.293,-26.367,-21.484,-32.715,-35.645
1692228430.592,-54.199,-35.156,-18.066,-25.391,-66.406
1692228430.596,-41.016,-34.668,-20.996,-29.785,-25.879
1692228430.600,-29.785,-29.297,-20.508,-46.387,312.012
1692228430.603,-33.691,-29.785,-18.555,-62.500,381.348
1692228430.607,-30.273,-27.832,-23.926,-47.852,-45.410
1692228430.611,-32.227,-26.855,-25.391,-26.855,-153.809
1692228430.615,-26.855,-24.902,-20.996,-25.879,27.832
1692228430.619,-21.973,-25.879,-21.484,-36.133,-39.062
1692228430.622,-29.297,-29.785,-24.902,-52.734,-196.777
1692228430.626,-31.250,-27.344,-28.320,-52.734,-78.613
1692228430.630,-36.133,-22.461,-27.344,-38.086,26.367
1692228430.634,-43.945,-25.391,-23.926,-37.598,-72.754
1692228430.638,-50.293,-33.691,-27.344,-51.270,-202.148
1692228430.642,-57.129,-34.668,-30.762,-52.734,-59.082
1692228430.646,-56.641,-33.203,-26.855,-42.480,143.555
1692228430.649,-48.828,-29.297,-22.949,-34.180,-6.836
1692228430.653,-41.504,-23.438,-24.414,-32.227,-122.070
1692228430.657,-52.246,-27.832,-24.902,-46.875,14.648
1692228430.661,-55.176,-28.809,-18.066,-58.594,104.004
1692228430.665,-43.945,-23.926,-17.578,-55.664,-125.000
1692228430.696,-40.527,-25.879,-22.949,-43.945,-164.062
1692228430.700,-44.922,-28.809,-23.926,-29.785,-50.293
1692228430.704,-50.293,-29.297,-20.020,-43.457,-82.031
1692228430.708,-49.805,-27.344,-17.578,-70.312,-85.449
1692228430.712,-43.457,-26.855,-21.484,-62.988,-87.402
1692228430.716,-36.621,-33.203,-20.020,-42.969,133.789
1692228430.720,-30.762,-34.180,-20.996,-35.645,300.781
1692228430.723,-29.785,-28.320,-24.414,-43.945,0.000
1692228430.727,-36.133,-28.320,-24.902,-52.246,-193.848
1692228430.731,-30.273,-23.926,-22.461,-46.387,53.223
1692228430.735,-32.227,-24.902,-20.996,-42.969,154.297
1692228430.739,-25.879,-29.297,-19.531,-33.691,-130.859
1692228430.726,-24.902,-24.902,-18.555,-39.062,-112.305
1692228430.730,-34.180,-20.996,-20.020,-58.105,-85.449
1692228430.734,-30.273,-19.531,-22.461,-46.387,-156.738
1692228430.738,-30.762,-25.391,-24.902,-27.832,-220.703
1692228430.742,-33.203,-24.414,-27.344,-27.832,-96.680
1692228430.746,-32.227,-21.484,-28.809,-34.668,97.656
1692228430.750,-33.203,-26.855,-25.879,-44.434,29.785
1692228430.753,-34.668,-25.391,-23.926,-47.852,-50.781
1692228430.757,-28.809,-25.391,-22.461,-36.133,81.543
1692228430.761,-28.320,-21.973,-25.879,-24.414,40.039
1692228430.765,-32.227,-18.555,-27.344,-35.156,-109.375
1692228430.769,-33.691,-18.555,-27.344,-57.617,-170.898
1692228430.771,-40.527,-25.391,-26.367,-62.500,30.273
1692228430.775,-45.410,-29.297,-27.344,-45.898,341.309
1692228430.779,-36.621,-23.438,-29.785,-30.762,61.523
1692228430.783,-35.156,-24.414,-27.344,-37.109,-146.973
1692228430.787,-43.457,-25.879,-30.762,-53.223,-102.539
1692228430.791,-48.340,-23.926,-29.297,-52.246,-41.504
1692228430.795,-52.734,-20.508,-26.367,-38.086,-30.273
1692228430.798,-41.504,-20.996,-23.926,-24.902,-76.660
1692228430.802,-30.273,-23.926,-17.090,-18.066,274.414
1692228430.806,-28.809,-26.855,-19.043,-26.367,510.254
1692228430.810,-29.297,-25.879,-23.926,-38.574,40.039
1692228430.814,-32.715,-30.273,-25.391,-35.645,-233.887
1692228430.816,-26.367,-33.203,-20.996,-16.602,-117.676
1692228430.820,-22.949,-24.902,-16.602,-13.672,-156.250
1692228430.824,-30.273,-23.926,-22.461,-32.227,-188.965
1692228430.828,-36.133,-24.414,-31.738,-44.434,-151.367
1692228430.832,-33.691,-26.367,-31.738,-41.992,-93.262
1692228430.836,-27.344,-28.809,-24.414,-26.855,-41.016
1692228430.840,-24.414,-22.461,-21.973,-21.484,-49.316
1692228430.843,-27.832,-21.973,-20.996,-21.484,40.527
1692228430.847,-38.086,-30.273,-23.926,-27.344,172.363
1692228430.851,-35.645,-30.273,-29.297,-25.391,-41.016
1692228430.855,-26.855,-28.809,-28.320,-4.395,-180.664
1692228430.859,-25.391,-32.227,-23.926,2.441,44.434
1692228430.861,-25.391,-26.855,-21.484,-14.648,75.195
1692228430.865,-28.809,-23.438,-18.066,-18.066,-130.371
1692228430.869,-31.250,-26.367,-17.578,-14.160,-136.230
1692228430.873,-27.344,-23.438,-24.414,-11.719,15.137
1692228430.877,-16.602,-20.996,-24.414,-3.906,11.719
1692228430.881,-29.297,-27.344,-21.484,-17.090,-26.855
1692228430.885,-44.434,-28.809,-25.391,-39.551,-56.152
1692228430.888,-33.691,-31.250,-31.738,-35.156,221.680
1692228430.892,-20.996,-27.832,-24.414,-13.672,383.301
1692228430.896,-21.973,-22.461,-17.578,-13.184,-80.078
1692228430.900,-29.785,-27.344,-22.461,-26.855,-208.008
1692228430.904,-32.715,-24.414,-23.438,-38.086,-121.582
1692228430.907,-30.273,-23.438,-24.902,-38.574,-187.988
1692228430.911,-25.391,-29.297,-24.414,-15.137,-175.781
1692228430.915,-23.438,-32.227,-24.414,-4.883,-29.785
1692228430.919,-25.879,-31.250,-26.367,-15.625,40.527
1692228430.923,-24.902,-32.227,-20.996,-24.414,-118.164
1692228430.927,-26.855,-31.738,-16.602,-31.250,-227.539
1692228430.931,-33.691,-27.344,-17.578,-23.926,65.918
1692228430.934,-33.203,-24.414,-16.602,-13.184,335.938
1692228430.938,-32.227,-27.344,-16.602,-29.785,111.328
1692228430.942,-41.992,-33.691,-21.973,-60.547,-136.230
1692228430.946,-41.504,-34.180,-21.484,-62.988,-155.762
1692228430.950,-26.855,-32.715,-20.996,-43.457,-157.227
1692228430.951,-20.020,-29.785,-23.926,-23.438,-167.969
1692228430.955,-21.973,-26.367,-25.879,-16.602,-121.582
1692228430.959,-30.762,-23.926,-28.320,-41.016,-124.512
1692228430.963,-31.738,-22.949,-28.320,-53.223,-125.488
1692228430.967,-21.484,-19.531,-28.809,-38.086,-72.754
1692228430.971,-20.020,-22.461,-29.297,-30.273,58.105
1692228430.975,-21.973,-30.273,-29.785,-31.738,255.859
1692228430.978,-27.344,-27.832,-30.273,-39.551,439.453
1692228430.982,-27.344,-21.484,-26.367,-58.105,59.570
1692228430.986,-20.996,-21.973,-24.414,-56.152,-211.914
1692228430.990,-20.508,-26.367,-25.391,-28.320,-66.895
1692228430.994,-17.578,-28.320,-27.832,-30.762,-108.398
1692228430.997,-26.855,-33.203,-29.297,-58.105,-194.824
1692228431.001,-38.086,-36.133,-31.738,-68.848,-151.367
1692228431.005,-32.227,-31.738,-31.738,-61.035,-80.566
1692228431.009,-21.484,-23.438,-28.809,-44.922,-124.023
1692228431.013,-20.996,-19.043,-27.344,-38.086,-141.113
1692228431.017,-19.043,-19.531,-25.391,-35.156,94.238
1692228431.021,-16.602,-22.461,-27.344,-40.527,251.953
1692228431.024,-22.461,-19.531,-28.809,-41.504,21.484
1692228431.028,-16.602,-15.137,-27.832,-24.414,-131.348
1692228431.032,-16.602,-23.926,-27.344,-7.324,43.457
1692228431.036,-25.879,-34.668,-25.391,-21.973,198.730
1692228431.040,-32.715,-33.203,-25.879,-54.199,-55.176
1692228431.056,-35.156,-30.762,-23.926,-53.711,-168.457
1692228431.060,-34.668,-27.832,-25.879,-37.109,-67.383
1692228431.064,-38.086,-28.809,-28.809,-33.203,-48.828
1692228431.068,-43.945,-28.320,-27.344,-38.574,-135.254
1692228431.072,-36.621,-22.949,-20.996,-51.270,-188.965
1692228431.076,-30.273,-24.902,-20.508,-54.199,41.504
1692228431.080,-30.273,-27.832,-23.926,-36.133,142.090
1692228431.083,-32.227,-32.227,-25.879,-21.484,-8.301
1692228431.087,-34.180,-28.809,-24.902,-24.902,-29.297
1692228431.091,-37.109,-25.391,-21.484,-42.969,120.117
1692228431.095,-42.480,-25.879,-22.461,-53.223,43.945
1692228431.099,-36.133,-18.555,-24.414,-39.062,-141.602
1692228431.101,-31.250,-17.090,-30.273,-25.879,-139.648
1692228431.105,-31.250,-20.996,-32.227,-28.809,212.402
1692228431.109,-29.785,-22.949,-29.785,-45.898,213.867
1692228431.113,-31.738,-20.996,-26.855,-55.176,-182.617
1692228431.117,-29.785,-25.879,-24.414,-44.434,-119.141
1692228431.121,-25.879,-29.297,-23.438,-32.227,-5.859
1692228431.125,-22.949,-23.926,-23.438,-37.109,-36.133
1692228431.128,-29.297,-26.367,-25.391,-56.152,-163.574
1692228431.132,-37.598,-28.320,-24.902,-61.035,-44.922
1692228431.136,-32.227,-26.855,-23.438,-50.293,215.332
1692228431.140,-21.484,-23.438,-24.902,-35.156,-15.137
1692228431.144,-25.879,-24.902,-30.273,-33.203,-106.934
1692228431.146,-28.809,-27.344,-29.785,-45.410,45.410
1692228431.150,-19.043,-26.855,-27.344,-54.199,-22.461
1692228431.154,-11.719,-25.879,-22.949,-46.875,-201.660
1692228431.158,-6.348,-26.855,-18.555,-26.855,-202.148
1692228431.162,-8.301,-24.902,-16.113,-24.902,-115.234
1692228431.166,-13.672,-25.391,-20.020,-41.016,-26.855
1692228431.170,-29.785,-28.809,-25.879,-47.363,53.711
1692228431.173,-38.574,-33.203,-20.996,-40.527,12.207
1692228431.177,-35.156,-36.133,-21.484,-24.414,197.266
1692228431.181,-35.645,-36.133,-29.297,-23.926,331.055
1692228431.185,-33.203,-29.785,-27.344,-37.109,-23.438
1692228431.189,-27.344,-24.902,-21.973,-44.434,-176.758
1692228431.192,-25.879,-28.809,-20.996,-40.039,-145.996
1692228431.196,-23.438,-32.227,-20.020,-26.367,-125.488
1692228431.200,-20.020,-39.062,-20.996,-20.996,-115.723
1692228431.204,-26.367,-34.668,-20.996,-30.273,-30.273
1692228431.208,-31.250,-23.438,-21.973,-44.434,48.340
1692228431.212,-26.855,-27.344,-19.043,-46.875,6.348
1692228431.216,-26.855,-32.715,-18.066,-34.668,-22.949
1692228431.219,-33.203,-33.691,-22.949,-27.832,-1.953
1692228431.223,-43.945,-29.297,-17.578,-26.855,148.438
1692228431.227,-53.711,-20.020,-19.531,-38.574,-74.219
1692228431.231,-46.387,-24.902,-23.438,-44.434,-231.445
1692228431.235,-37.109,-28.809,-20.508,-32.715,-103.027
1692228431.236,-34.180,-25.391,-14.648,-22.949,-59.570
1692228431.240,-35.156,-27.344,-16.113,-30.762,-97.168
1692228431.244,-39.062,-27.344,-20.508,-49.805,-122.559
1692228431.248,-41.992,-27.832,-18.555,-48.828,-104.004
1692228431.252,-32.715,-29.297,-17.578,-27.832,-53.711
1692228431.256,-25.391,-27.344,-18.066,-16.602,-24.414
1692228431.260,-27.344,-22.461,-21.973,-29.297,-65.430
1692228431.263,-25.391,-15.137,-21.484,-35.156,182.129
1692228431.267,-23.926,-22.461,-19.531,-38.574,483.398
1692228431.271,-19.531,-25.391,-24.414,-37.598,107.910
1692228431.275,-19.043,-26.367,-25.391,-27.832,-216.797
1692228431.279,-21.973,-27.832,-21.484,-27.344,-165.527
1692228431.281,-24.902,-27.832,-20.020,-31.250,-212.891
1692228431.285,-35.156,-31.250,-21.484,-34.668,-289.062
1692228431.289,-39.062,-34.668,-20.020,-27.832,-182.617
1692228431.293,-36.133,-36.621,-18.066,-21.484,-13.184
1692228431.297,-32.227,-31.250,-20.996,-25.391,-82.031
1692228431.301,-32.227,-27.832,-20.996,-35.156,-106.934
1692228431.305,-33.691,-33.203,-20.020,-41.992,161.621
1692228431.308,-34.668,-32.715,-22.949,-29.785,462.402
1692228431.312,-32.227,-29.785,-28.320,-12.207,166.016
1692228431.316,-43.945,-30.762,-30.273,-17.578,-189.941
1692228431.320,-48.828,-31.250,-26.855,-33.203,-64.453
1692228431.324,-28.320,-24.414,-22.461,-39.551,-23.438
1692228431.326,-20.508,-21.484,-20.020,-25.391,-141.602
1692228431.330,-18.066,-22.949,-20.508,-2.441,-133.789
1692228431.334,-16.602,-23.926,-25.391,-5.859,-72.754
1692228431.338,-20.508,-29.297,-25.879,-21.484,-86.914
1692228431.342,-30.273,-30.273,-25.391,-24.414,-119.141
1692228431.346,-27.344,-25.879,-23.926,-18.066,-117.676
1692228431.350,-18.066,-29.785,-20.996,1.953,160.156
1692228431.353,-17.090,-35.156,-20.020,8.789,349.121
1692228431.357,-23.438,-30.762,-17.090,-5.859,-46.387
1692228431.361,-32.227,-31.250,-21.484,-23.926,-204.102
1692228431.365,-26.367,-32.715,-24.414,-27.344,92.773
1692228431.369,-26.367,-29.785,-22.461,-4.883,152.344
1692228431.371,-21.484,-29.297,-19.043,12.695,-127.441
1692228431.375,-20.508,-26.855,-18.066,0.488,-147.949
1692228431.379,-24.414,-26.855,-23.926,-22.461,-145.508
1692228431.383,-23.926,-28.809,-27.344,-20.508,-175.781
1692228431.387,-27.832,-30.762,-20.020,-6.348,-162.109
1692228431.391,-22.949,-30.273,-20.996,4.883,-8.301
1692228431.395,-28.320,-32.715,-25.391,3.906,199.219
1692228431.398,-36.133,-31.738,-25.879,-22.461,-24.902
1692228431.402,-36.133,-30.273,-28.320,-33.691,-218.750
1692228431.406,-28.320,-30.762,-24.414,-10.254,-0.488
1692228431.410,-27.344,-25.391,-21.484,2.441,87.402
1692228431.414,-41.016,-23.926,-23.438,-3.418,-41.504
1692228431.431,-43.945,-29.297,-29.785,-15.625,-68.848
1692228431.435,-38.574,-38.086,-32.227,-23.438,-13.672
1692228431.439,-34.180,-35.645,-28.320,-19.043,33.203
1692228431.443,-36.621,-34.668,-28.320,-17.578,-69.336
1692228431.447,-37.598,-38.086,-26.367,-15.625,-60.547
1692228431.451,-37.598,-38.574,-23.926,-30.762,20.020
1692228431.455,-43.945,-41.016,-25.879,-45.898,-2.930
1692228431.458,-42.969,-34.668,-27.344,-34.668,-41.992
1692228431.462,-37.109,-30.273,-26.367,-16.113,-13.672
1692228431.466,-39.062,-27.832,-26.367,-23.926,-7.324
1692228431.470,-50.781,-33.691,-29.785,-42.480,-92.285
1692228431.474,-57.129,-38.574,-34.180,-51.270,-168.457
1692228431.477,-53.711,-37.598,-30.762,-44.922,-169.922
1692228431.481,-51.270,-38.086,-29.297,-24.902,241.211
1692228431.485,-45.898,-33.203,-33.203,-35.156,438.965
1692228431.489,-35.645,-26.855,-32.715,-50.781,-45.898
1692228431.493,-28.320,-23.926,-31.250,-42.969,-113.281
1692228431.497,-34.180,-31.738,-34.668,-39.062,111.328
1692228431.501,-31.250,-38.574,-33.203,-21.484,72.754
1692228431.504,-18.555,-28.809,-31.250,-11.719,-79.590
1692228431.508,-18.555,-30.273,-28.809,-22.461,-37.598
1692228431.512,-20.996,-33.203,-27.832,-20.020,148.926
1692228431.516,-20.508,-25.879,-35.156,-9.766,-27.344
1692228431.520,-27.832,-32.715,-32.715,4.883,-123.047
1692228431.521,-35.645,-39.062,-29.297,3.418,-75.195
1692228431.525,-32.227,-34.668,-37.598,-22.461,-69.824
1692228431.529,-21.973,-32.715,-33.691,-28.809,-91.309
1692228431.533,-12.695,-31.738,-26.367,-17.578,-94.238
1692228431.537,-11.719,-30.273,-27.832,-0.488,-58.594
1692228431.541,-9.766,-26.855,-31.250,4.883,3.906
1692228431.545,-10.254,-25.879,-31.250,-13.184,88.379
1692228431.548,-21.484,-23.438,-29.297,-21.973,-35.645
1692228431.552,-29.297,-22.461,-27.832,-13.184,162.109
1692228431.556,-27.832,-28.809,-27.832,-1.953,362.305
1692228431.560,-31.738,-29.785,-30.273,-1.465,-73.730
1692228431.564,-40.039,-32.227,-32.715,-17.578,-242.676
1692228431.566,-39.551,-38.574,-29.297,-24.414,-63.965
1692228431.570,-38.086,-34.668,-25.879,-20.508,-136.230
1692228431.574,-42.969,-40.039,-29.297,-19.043,-251.465
1692228431.578,-39.062,-41.992,-27.832,-8.789,-134.277
1692228431.582,-36.133,-34.180,-26.855,-7.324,-102.539
1692228431.586,-39.551,-37.109,-31.250,-23.438,-105.469
1692228431.590,-33.691,-32.715,-32.715,-22.461,-85.938
1692228431.593,-29.297,-24.902,-34.668,-3.906,28.809
1692228431.597,-26.367,-30.273,-34.180,13.184,365.723
1692228431.601,-27.344,-28.809,-29.297,0.000,144.043
1692228431.605,-42.969,-24.902,-29.297,-27.832,-227.051
1692228431.609,-48.828,-30.273,-33.203,-37.598,-157.227
1692228431.611,-34.668,-33.691,-32.715,-27.344,-131.836
1692228431.615,-25.391,-33.203,-30.762,-13.672,-175.293
1692228431.619,-28.320,-32.227,-33.203,-13.672,-144.043
1692228431.623,-29.785,-33.691,-33.203,-29.297,-133.301
1692228431.627,-32.227,-33.203,-29.785,-34.668,-127.441
1692228431.631,-39.062,-35.645,-30.762,-34.668,-44.922
1692228431.635,-35.645,-34.180,-34.180,-37.598,-62.500
1692228431.638,-31.738,-27.344,-36.133,-35.645,264.648
1692228431.642,-39.551,-33.691,-39.062,-46.875,466.309
1692228431.646,-49.805,-35.156,-34.180,-58.105,73.242
1692228431.650,-49.316,-31.738,-30.273,-53.711,-47.363
1692228431.654,-40.039,-33.203,-30.762,-40.527,-28.320
1692228431.657,-34.668,-33.203,-31.250,-39.062,-68.359
1692228431.661,-35.645,-32.715,-33.203,-42.480,-147.949
1692228431.665,-46.387,-31.738,-28.320,-47.363,-127.930
1692228431.669,-54.688,-25.879,-27.832,-50.293,-90.820
1692228431.673,-43.945,-22.949,-35.156,-34.180,-108.398
1692228431.677,-28.320,-27.344,-36.133,-28.320,-52.734
1692228431.681,-27.344,-27.344,-30.273,-43.945,3.906
1692228431.684,-36.133,-23.438,-30.273,-53.223,147.461
1692228431.688,-38.574,-27.344,-32.227,-59.082,-40.527
1692228431.692,-34.668,-33.691,-31.738,-49.805,-237.305
1692228431.696,-34.180,-35.156,-31.250,-30.273,-49.316
1692228431.700,-42.480,-31.738,-29.785,-37.598,-47.852
1692228431.702,-44.434,-28.809,-35.156,-53.711,-128.906
1692228431.706,-44.434,-34.180,-38.086,-50.293,-116.211
1692228431.710,-41.992,-41.016,-28.320,-41.992,30.273
1692228431.714,-30.273,-34.668,-25.391,-25.391,109.863
1692228431.718,-28.320,-30.762,-27.344,-30.762,-78.125
1692228431.722,-42.969,-37.109,-32.227,-57.129,-73.730
1692228431.726,-43.945,-41.992,-34.668,-55.176,189.453
1692228431.729,-35.645,-37.109,-30.762,-42.969,265.137
1692228431.733,-37.598,-30.273,-28.320,-38.086,-29.785
1692228431.737,-42.480,-34.180,-25.391,-40.527,-125.488
1692228431.741,-35.645,-37.598,-28.809,-52.246,21.973
1692228431.745,-25.879,-32.715,-29.785,-53.711,-27.832
1692228431.761,-25.879,-30.273,-29.297,-47.363,-198.730
1692228431.765,-26.855,-29.785,-30.762,-39.551,-111.328
1692228431.769,-26.855,-30.762,-33.203,-41.992,65.918
1692228431.773,-30.273,-34.180,-33.691,-61.523,28.320
1692228431.777,-36.133,-35.156,-33.203,-67.871,-148.438
1692228431.781,-35.645,-36.133,-37.109,-55.664,-6.836
1692228431.785,-26.367,-34.180,-30.762,-38.086,474.121
1692228431.788,-27.344,-33.203,-29.785,-42.969,215.332
1692228431.792,-34.668,-36.621,-33.691,-62.012,-210.938
1692228431.796,-29.297,-34.668,-32.715,-53.223,-122.070
1692228431.800,-22.461,-33.691,-34.668,-36.621,-90.332
1692228431.804,-20.508,-28.320,-32.715,-21.973,-168.457
1692228431.806,-20.020,-22.461,-29.297,-19.043,-131.348
1692228431.810,-27.344,-24.902,-26.855,-39.062,-58.594
1692228431.814,-28.320,-28.809,-24.414,-55.664,-112.305
1692228431.818,-30.762,-35.645,-26.855,-52.246,-175.781
1692228431.822,-40.527,-32.715,-30.273,-39.062,-135.254
1692228431.826,-38.086,-30.762,-26.367,-34.180,83.496
1692228431.830,-25.879,-28.320,-22.461,-42.969,104.004
1692228431.833,-25.391,-23.438,-28.809,-53.223,-27.344
1692228431.837,-31.250,-29.297,-27.344,-53.711,6.836
1692228431.841,-30.273,-36.133,-22.949,-42.969,188.477
1692228431.845,-30.762,-34.668,-24.414,-30.273,389.160
1692228431.849,-33.691,-23.926,-27.344,-41.992,21.484
1692228431.851,-39.551,-22.461,-28.809,-53.711,-250.977
1692228431.855,-35.645,-31.738,-22.949,-45.898,-208.984
1692228431.859,-26.367,-30.762,-19.043,-32.715,-218.750
1692228431.863,-25.391,-24.902,-19.531,-20.996,-176.758
1692228431.867,-27.344,-25.879,-19.043,-41.504,-151.367
1692228431.871,-33.203,-28.320,-20.996,-62.012,-84.473
1692228431.875,-36.133,-28.809,-22.949,-54.688,-85.938
1692228431.878,-34.180,-29.785,-21.484,-31.738,-104.004
1692228431.882,-24.414,-32.715,-21.973,-15.625,53.223
1692228431.886,-24.902,-30.273,-21.973,-27.344,311.035
1692228431.890,-30.273,-28.809,-23.926,-45.898,109.375
1692228431.894,-34.668,-35.156,-23.926,-48.340,-201.172
1692228431.896,-41.992,-35.645,-20.996,-32.227,-117.188
1692228431.900,-33.203,-26.855,-23.926,-32.227,-82.520
1692228431.904,-25.391,-27.344,-29.785,-38.574,-142.090
1692228431.908,-21.973,-35.156,-33.691,-52.246,-160.156
1692228431.912,-13.184,-30.273,-31.250,-60.059,-116.211
1692228431.916,-11.719,-28.320,-30.273,-45.410,22.949
1692228431.920,-3.906,-29.297,-29.297,-31.738,84.473
1692228431.923,-7.324,-27.832,-28.809,-41.016,34.668
1692228431.927,-27.344,-33.203,-30.273,-47.852,224.121
1692228431.931,-44.434,-36.133,-33.203,-46.387,310.059
1692228431.935,-46.387,-34.180,-34.180,-45.410,-50.781
1692228431.939,-31.738,-28.809,-27.344,-34.668,-145.020
1692228431.941,-25.879,-27.344,-27.832,-41.992,-2.441
1692228431.945,-25.879,-27.832,-29.297,-57.129,-136.230
1692228431.949,-30.273,-31.250,-32.715,-54.688,-265.137
1692228431.953,-34.180,-32.715,-39.551,-49.805,-167.969
1692228431.957,-24.414,-27.832,-30.273,-43.457,-52.734
1692228431.961,-19.531,-22.949,-21.973,-44.922,-5.371
1692228431.965,-23.926,-27.832,-21.484,-57.617,18.555
1692228431.968,-30.273,-28.809,-24.902,-59.570,2.441
1692228431.972,-38.086,-23.926,-25.391,-49.805,118.164
1692228431.976,-28.809,-20.996,-19.043,-47.363,-6.348
1692228431.980,-17.578,-20.996,-19.531,-49.316,-132.812
1692228431.984,-25.391,-25.879,-25.391,-60.059,-76.172
1692228431.987,-31.250,-24.902,-25.391,-64.941,-76.172
1692228431.991,-31.738,-21.484,-21.973,-62.500,-117.676
1692228431.995,-20.508,-18.555,-21.973,-53.223,-139.160
1692228431.999,-22.949,-20.508,-24.902,-47.363,44.922
1692228432.003,-29.297,-22.949,-23.926,-59.082,102.539
1692228432.007,-33.203,-23.438,-24.902,-66.895,-32.715
1692228432.011,-35.645,-27.832,-26.367,-64.941,-94.238
1692228432.014,-31.250,-30.762,-24.414,-44.922,229.492
1692228432.018,-32.715,-31.250,-24.414,-38.086,494.629
1692228432.022,-29.785,-31.738,-29.785,-55.664,46.875
1692228432.026,-26.367,-31.250,-33.203,-69.336,-185.059
1692228432.030,-28.320,-26.367,-33.691,-62.012,-113.770
1692228432.032,-27.344,-26.855,-31.250,-49.316,-114.258
1692228432.036,-19.531,-26.367,-26.855,-47.363,-130.859
1692228432.040,-27.832,-24.414,-29.297,-58.105,-116.211
1692228432.044,-32.227,-27.832,-34.668,-77.637,-53.711
1692228432.048,-20.996,-29.297,-32.715,-74.707,-94.238
1692228432.052,-11.230,-25.391,-28.809,-51.758,-56.152
1692228432.056,-5.859,-27.832,-23.438,-37.598,53.223
1692228432.059,-14.160,-30.762,-20.020,-48.828,319.336
1692228432.063,-17.578,-28.809,-23.438,-69.336,135.254
1692228432.067,-11.719,-30.762,-25.391,-69.824,-232.422
1692228432.071,-7.812,-33.203,-29.297,-52.734,-150.879
1692228432.075,-0.488,-28.320,-29.297,-35.156,-99.121
1692228432.076,-3.418,-23.926,-30.273,-43.457,-140.625
1692228432.080,-14.648,-28.809,-35.156,-62.500,-187.500
1692228432.084,-20.508,-31.250,-32.227,-58.594,-144.043
1692228432.088,-22.949,-33.203,-32.227,-41.016,-74.707
1692228432.092,-15.625,-29.297,-29.785,-28.320,-87.891
1692228432.096,-21.973,-28.320,-29.297,-39.551,-63.965
1692228432.100,-33.203,-32.227,-32.227,-55.176,260.254
1692228432.103,-28.809,-29.297,-28.809,-53.223,341.309
1692228432.107,-26.855,-23.926,-27.344,-40.039,-19.043
1692228432.111,-27.344,-20.996,-26.855,-28.320,-93.750
1692228432.115,-28.809,-25.391,-25.879,-37.598,146.484
1692228432.119,-34.668,-29.297,-29.297,-48.828,116.211
1692228432.121,-39.551,-29.785,-27.832,-46.875,-218.750
1692228432.125,-35.645,-32.227,-29.785,-36.133,-169.922
1692228432.129,-36.621,-35.156,-29.785,-29.785,-69.336
1692228432.133,-48.340,-38.086,-26.855,-32.227,-96.191
1692228432.137,-48.828,-33.203,-30.762,-43.457,-193.848
1692228432.141,-39.551,-26.855,-35.156,-52.246,-75.684
1692228432.145,-32.715,-23.926,-31.738,-41.016,158.203
1692228432.148,-31.738,-26.855,-29.785,-26.855,-24.414
1692228432.152,-38.574,-31.250,-36.133,-25.391,-156.738
1692228432.156,-40.039,-29.785,-41.504,-42.969,48.828
1692228432.160,-42.480,-30.273,-36.621,-47.363,180.664
1692228432.164,-38.574,-32.227,-34.180,-37.598,-84.961
1692228432.181,-22.949,-33.691,-31.738,-27.832,-166.504
1692228432.185,-24.902,-31.250,-30.762,-27.344,-34.668
1692228432.189,-24.414,-21.484,-28.320,-35.645,-55.176
1692228432.193,-21.484,-21.484,-28.320,-39.551,-190.918
1692228432.197,-22.461,-27.832,-35.156,-32.715,-175.781
1692228432.201,-24.902,-28.809,-33.691,-28.809,-21.484
1692228432.205,-25.391,-24.902,-30.273,-26.367,8.789
1692228432.208,-23.926,-20.508,-28.320,-32.715,1.465
1692228432.212,-28.320,-22.461,-22.949,-49.316,-47.852
1692228432.216,-36.621,-23.438,-23.926,-44.434,104.492
1692228432.220,-41.992,-21.484,-30.273,-41.992,291.992
1692228432.224,-36.621,-23.438,-30.273,-46.875,-39.062
1692228432.226,-35.645,-26.855,-26.855,-52.246,-183.594
1692228432.230,-48.828,-22.949,-26.367,-67.871,-59.570
1692228432.234,-58.105,-17.578,-23.926,-60.547,-126.465
1692228432.238,-47.852,-21.484,-23.926,-43.945,-184.570
1692228432.242,-38.574,-31.250,-25.879,-41.992,-85.938
1692228432.246,-40.527,-31.250,-26.855,-60.547,36.133
1692228432.250,-38.086,-30.762,-29.297,-78.125,14.160
1692228432.253,-40.527,-31.738,-25.879,-76.172,-158.203
1692228432.257,-37.598,-28.809,-22.949,-52.246,-62.012
1692228432.261,-36.621,-26.855,-25.391,-34.668,218.262
1692228432.265,-38.086,-21.484,-28.320,-48.828,38.086
1692228432.269,-46.387,-22.949,-28.809,-62.988,-161.133
1692228432.271,-54.199,-22.461,-25.391,-58.105,-70.312
1692228432.275,-43.457,-16.113,-24.414,-44.434,-24.902
1692228432.279,-35.156,-22.461,-27.344,-34.668,-74.219
1692228432.283,-30.762,-21.973,-25.879,-35.156,-78.125
1692228432.287,-27.832,-16.113,-24.902,-48.340,47.363
1692228432.291,-36.621,-22.949,-27.832,-53.223,140.625
1692228432.295,-31.250,-19.531,-27.344,-39.062,41.992
1692228432.298,-19.531,-14.160,-26.855,-31.738,-52.246
1692228432.302,-26.855,-25.391,-28.320,-35.156,163.086
1692228432.306,-36.621,-30.762,-28.320,-48.828,299.805
1692228432.310,-30.273,-23.926,-30.762,-67.871,-75.684
1692228432.314,-13.672,-17.090,-30.762,-52.734,-242.676
1692228432.316,-8.301,-18.555,-27.344,-35.156,-144.531
1692228432.320,-22.461,-25.879,-26.367,-38.574,-85.938
1692228432.324,-24.902,-23.438,-27.832,-49.316,-143.066
1692228432.328,-26.367,-25.879,-27.344,-63.477,-41.504
1692228432.332,-30.762,-25.391,-22.949,-50.781,66.895
1692228432.336,-26.367,-21.484,-23.438,-31.738,-9.766
1692228432.340,-20.996,-21.973,-24.414,-25.879,50.293
1692228432.343,-22.461,-27.344,-25.391,-42.969,114.746
1692228432.347,-37.598,-32.227,-26.855,-58.594,193.848
1692228432.351,-35.156,-28.809,-26.367,-43.457,-8.789
1692228432.355,-27.344,-30.762,-27.832,-32.227,-194.824
1692228432.359,-28.320,-28.809,-22.949,-26.855,-91.309
1692228432.361,-31.738,-23.438,-22.949,-41.504,-86.426
1692228432.365,-40.527,-23.438,-24.902,-56.641,-202.148
1692228432.369,-35.156,-21.484,-19.531,-44.922,-203.125
1692228432.373,-33.203,-26.855,-25.879,-30.273,-104.004
1692228432.377,-36.133,-31.250,-28.320,-25.879,-61.523
1692228432.381,-34.180,-28.809,-27.832,-35.156,-27.832
1692228432.385,-33.203,-23.926,-31.738,-46.387,-57.129
1692228432.388,-33.691,-23.438,-24.902,-47.852,199.707
1692228432.392,-31.738,-25.879,-21.484,-35.645,507.324
1692228432.396,-38.086,-26.367,-22.461,-28.320,118.164
1692228432.400,-36.621,-28.809,-26.855,-40.039,-160.645
1692228432.404,-21.484,-26.855,-30.273,-47.363,-68.848
1692228432.406,-23.438,-24.902,-31.250,-50.781,-140.625
1692228432.410,-25.879,-23.438,-33.203,-46.387,-227.051
1692228432.414,-26.855,-26.855,-32.227,-36.133,-90.332
1692228432.418,-23.926,-29.297,-30.762,-37.109,-12.207
1692228432.422,-20.508,-27.344,-31.250,-41.504,-137.695
1692228432.426,-27.832,-21.973,-30.273,-42.969,-155.273
1692228432.430,-30.762,-22.949,-29.297,-39.551,75.195
1692228432.433,-27.832,-28.809,-27.344,-30.762,295.410
1692228432.437,-36.133,-29.297,-28.809,-46.387,145.996
1692228432.441,-34.668,-36.621,-28.320,-45.898,-80.078
1692228432.445,-15.137,-49.316,-19.043,-17.090,-62.500
1692228432.449,-20.996,-38.086,-22.949,-18.555,-28.320
1692228432.452,-48.340,-9.766,-34.180,-32.715,-168.945
1692228432.456,-69.336,-7.324,-35.156,-45.410,-148.438
1692228432.460,-87.402,-13.184,-36.133,-68.359,-78.125
1692228432.464,-99.121,-10.742,-39.551,-83.496,-87.891
1692228432.468,-90.820,-8.789,-33.203,-79.102,-119.141
1692228432.472,-81.055,-6.348,-34.668,-77.148,-28.320
1692228432.476,-70.801,6.348,-32.715,-71.777,254.883
1692228432.479,-72.266,15.137,-22.949,-76.172,314.453
1692228432.483,-85.449,1.953,-35.645,-108.398,-41.504
1692228432.487,-97.168,1.465,-49.316,-122.070,-185.547
1692228432.491,-110.352,0.977,-46.387,-112.793,47.363
1692228432.495,-116.699,4.395,-44.434,-106.445,86.426
1692228432.497,-104.004,11.230,-39.062,-115.723,-187.988
1692228432.501,-104.004,1.465,-35.645,-130.371,-203.125
1692228432.505,-115.723,5.371,-38.574,-128.418,-55.176
1692228432.509,-116.699,13.672,-34.180,-116.699,-101.562
1692228432.513,-124.023,9.766,-32.715,-127.930,-183.105
1692228432.517,-135.254,7.324,-34.668,-151.367,-2.930
1692228432.521,-140.625,10.254,-38.574,-158.203,250.488
1692228432.524,-142.578,16.602,-38.086,-160.156,0.488
1692228432.528,-132.324,19.531,-36.133,-139.160,-224.121
1692228432.532,-127.441,15.137,-39.062,-121.094,-44.434
1692228432.536,-127.930,10.742,-39.551,-129.883,51.758
1692228432.540,-123.535,18.066,-39.551,-149.902,-164.062
1692228432.556,-106.934,20.020,-38.574,-137.695,-178.223
1692228432.560,-91.797,7.812,-38.574,-107.910,-9.277
1692228432.564,-83.984,1.953,-40.527,-91.309,-17.090
1692228432.568,-80.566,-0.977,-39.551,-86.914,-101.562
1692228432.572,-87.402,-6.348,-40.039,-95.215,-133.789
1692228432.576,-89.355,-12.695,-43.457,-87.402,142.090
1692228432.580,-76.172,-12.695,-41.016,-61.523,215.820
1692228432.583,-51.758,-13.672,-42.969,-43.945,47.852
1692228432.587,-38.086,-17.578,-41.504,-55.176,72.754
1692228432.591,-44.434,-19.043,-36.621,-63.965,173.828
1692228432.595,-51.270,-32.227,-40.039,-57.129,148.438
1692228432.599,-40.039,-36.621,-39.062,-44.922,-169.434
1692228432.601,-12.207,-31.738,-31.250,-20.020,-148.926
1692228432.605,1.465,-32.227,-34.180,-16.602,-92.285
1692228432.609,3.418,-35.645,-40.527,-26.855,-187.988
1692228432.613,1.465,-40.039,-33.691,-28.809,-163.086
1692228432.617,5.859,-39.062,-28.809,-14.160,29.297
1692228432.621,14.160,-44.434,-25.879,2.930,149.414
1692228432.625,17.578,-45.410,-22.949,1.465,132.812
1692228432.628,24.902,-36.621,-21.484,-10.254,-78.125
1692228432.632,22.949,-40.527,-19.043,-11.230,-51.270
1692228432.636,15.625,-42.480,-25.879,4.883,218.750
1692228432.640,16.602,-41.504,-32.227,25.879,-14.160
1692228432.644,16.602,-44.434,-27.344,28.809,-144.043
1692228432.646,16.113,-40.527,-19.531,8.789,-11.719
1692228432.650,15.625,-38.574,-20.020,2.930,-81.055
1692228432.654,11.230,-37.109,-23.926,10.742,-198.242
1692228432.658,11.719,-33.203,-19.043,29.297,-119.629
1692228432.662,12.207,-31.738,-20.020,36.133,29.785
1692228432.666,1.953,-36.133,-24.414,15.137,61.523
1692228432.670,-5.859,-39.062,-20.508,-0.977,-8.301
1692228432.673,-2.930,-36.621,-20.020,6.836,-12.207
1692228432.677,-3.418,-37.598,-23.438,17.578,254.395
1692228432.681,-2.930,-34.180,-26.855,21.484,512.695
1692228432.685,-0.977,-24.902,-28.320,12.207,116.211
1692228432.689,-6.348,-29.785,-21.973,-5.371,-199.219
1692228432.706,-10.254,-34.668,-21.484,-8.301,-176.270
1692228432.710,-8.301,-29.785,-25.879,6.348,-184.570
1692228432.714,-14.160,-31.738,-22.949,7.812,-190.430
1692228432.718,-20.508,-33.691,-19.043,-12.207,-161.621
1692228432.722,-12.207,-33.691,-23.926,-21.973,-125.977
1692228432.726,-5.371,-38.574,-26.367,-6.348,-82.031
1692228432.730,-0.977,-37.598,-20.996,2.441,-12.695
1692228432.733,-0.977,-34.668,-18.555,-0.977,18.066
1692228432.737,-5.859,-29.785,-24.414,-10.254,171.387
1692228432.741,-0.977,-25.879,-25.879,-20.020,4.883
1692228432.745,-2.441,-31.250,-15.137,-18.066,-245.605
1692228432.749,-8.301,-37.598,-21.484,-7.812,-68.359
1692228432.736,0.000,-32.715,-24.414,5.859,59.082
1692228432.740,4.883,-17.578,-18.066,1.465,-134.766
1692228432.744,-2.930,-20.508,-17.578,-21.484,-208.008
1692228432.748,-8.789,-32.715,-19.043,-23.438,-162.598
1692228432.752,-10.742,-31.250,-21.973,-13.184,-78.613
1692228432.756,-8.301,-25.879,-20.020,-46.387,-60.547
1692228432.760,-10.742,-24.902,-24.414,-102.051,1.465
1692228432.763,-14.648,-26.855,-28.320,-135.742,73.730
1692228432.767,-19.043,-25.879,-27.344,-145.020,12.695
1692228432.771,-26.367,-24.902,-27.344,-136.719,-101.074
1692228432.775,-25.879,-19.043,-27.344,-139.648,-145.020
1692228432.779,-21.484,-18.066,-23.926,-138.672,211.914
1692228432.781,-26.855,-23.926,-22.949,-139.160,481.445
1692228432.785,-31.250,-22.949,-26.855,-150.391,14.160
1692228432.789,-29.785,-16.113,-29.297,-137.695,-200.684
1692228432.793,-25.879,-16.602,-29.297,-111.816,-99.121
1692228432.797,-17.090,-19.531,-26.367,-110.352,-151.367
1692228432.801,-15.625,-20.996,-20.508,-128.418,-144.531
1692228432.805,-20.508,-19.043,-19.043,-129.395,-1.953
1692228432.808,-17.578,-22.461,-21.484,-114.258,200.195
1692228432.812,-7.324,-21.973,-25.391,-103.027,26.855
1692228432.816,-10.742,-18.555,-32.715,-103.516,-138.672
1692228432.820,-18.555,-22.949,-30.762,-107.910,-58.594
1692228432.824,-22.461,-27.832,-27.832,-106.934,-101.562
1692228432.827,-22.461,-30.762,-29.785,-91.309,-172.363
1692228432.831,-15.625,-26.855,-23.926,-71.777,-125.977
1692228432.835,-12.695,-19.531,-16.113,-58.594,81.055
1692228432.839,-15.137,-14.648,-20.996,-64.453,65.918
1692228432.843,-24.902,-19.531,-21.973,-81.543,-121.582
1692228432.847,-30.762,-27.832,-17.090,-68.848,-65.430
1692228432.851,-26.367,-30.762,-21.973,-46.875,244.629
1692228432.854,-33.203,-27.344,-24.414,-38.574,326.660
1692228432.858,-42.969,-27.344,-22.461,-54.199,-49.805
1692228432.862,-46.875,-31.738,-22.949,-68.848,-182.617
1692228432.866,-45.410,-30.273,-25.391,-58.105,10.254
1692228432.870,-41.504,-26.855,-26.367,-49.805,2.930
1692228432.871,-38.574,-22.461,-24.414,-49.316,-187.012
1692228432.875,-48.828,-20.996,-27.344,-55.664,-77.148
1692228432.879,-57.617,-25.879,-29.297,-68.359,-8.301
1692228432.883,-42.480,-23.926,-25.391,-66.406,-151.367
1692228432.887,-32.227,-20.508,-23.438,-47.363,-174.316
1692228432.891,-35.156,-22.949,-25.391,-33.203,12.207
1692228432.895,-40.527,-28.809,-25.391,-41.016,406.250
1692228432.898,-38.086,-25.391,-23.926,-50.293,191.895
1692228432.902,-32.715,-19.043,-22.461,-48.828,-248.047
1692228432.906,-35.645,-21.484,-24.902,-41.504,-164.551
1692228432.910,-28.809,-28.320,-29.297,-34.180,-148.926
1692228432.914,-27.344,-35.156,-25.391,-38.574,-173.340
1692228432.931,-32.227,-30.762,-26.855,-49.805,-157.715
1692228432.935,-40.039,-31.250,-32.227,-58.105,-137.695
1692228432.939,-34.668,-34.180,-29.785,-39.551,-113.281
1692228432.943,-20.996,-26.855,-27.344,-17.578,-108.887
1692228432.947,-28.320,-23.926,-26.367,-18.066,-39.062
1692228432.951,-29.785,-19.531,-21.484,-20.508,38.574
1692228432.955,-24.902,-15.625,-20.996,-24.902,51.758
1692228432.958,-22.949,-20.508,-20.508,-18.066,9.766
1692228432.962,-18.555,-21.484,-15.137,5.859,10.742
1692228432.966,-20.020,-23.926,-12.207,23.438,269.043
1692228432.970,-22.949,-28.320,-17.578,4.395,397.949
1692228432.974,-26.367,-25.391,-21.484,-23.438,-11.230
1692228432.976,-22.461,-26.855,-16.113,-11.719,-207.031
1692228432.980,-24.414,-23.926,-14.648,2.930,-88.867
1692228432.984,-33.203,-16.113,-13.672,-0.977,-88.867
1692228432.988,-22.461,-21.484,-14.648,-23.926,-151.367
1692228432.992,-19.043,-25.879,-18.555,-43.457,-124.512
1692228432.996,-28.809,-28.320,-18.066,-31.738,-1.465
1692228433.000,-36.621,-26.855,-20.508,-18.555,71.289
1692228433.003,-41.992,-19.043,-27.832,-25.879,-41.504
1692228433.007,-38.086,-22.461,-25.879,-40.527,-15.625
1692228433.011,-33.691,-22.949,-21.973,-48.828,389.160
1692228433.015,-31.250,-20.508,-25.391,-45.410,169.922
1692228433.019,-18.555,-20.996,-25.391,-34.180,-160.156
1692228433.021,-15.625,-20.020,-22.461,-31.738,-39.551
1692228433.025,-20.996,-23.438,-23.438,-42.969,-85.449
1692228433.029,-26.367,-23.926,-24.902,-59.570,-193.848
1692228433.033,-28.320,-22.949,-24.414,-62.012,-198.730
1692228433.037,-8.301,-20.020,-27.832,-40.527,-86.426
1692228433.041,7.812,-18.555,-29.297,-24.902,9.277
1692228433.045,-21.484,-30.273,-20.020,-47.363,20.020
1692228433.048,-60.059,-35.156,-13.184,-74.219,-84.961
1692228433.052,-51.758,-30.273,-16.113,-63.477,100.098
1692228433.056,-30.273,-30.273,-21.484,-40.039,271.973
1692228433.060,-34.668,-34.180,-19.531,-40.039,-117.676
1692228433.064,-41.016,-31.738,-13.184,-55.176,-268.066
1692228433.066,-49.316,-32.715,-14.160,-65.430,-134.766
1692228433.070,-57.617,-37.598,-19.043,-57.617,-219.727
1692228433.074,-47.852,-26.367,-19.531,-37.109,-302.734
1692228433.078,-43.945,-22.461,-17.090,-27.832,-171.875
1692228433.082,-39.062,-27.344,-16.602,-29.785,-79.102
1692228433.086,-40.527,-25.391,-16.113,-39.551,-87.891
1692228433.090,-46.875,-23.926,-18.066,-52.246,-60.547
1692228433.093,-43.945,-21.484,-20.508,-40.527,47.852
1692228433.097,-40.039,-24.414,-20.020,-21.973,229.980
1692228433.101,-38.086,-29.785,-21.973,-34.180,25.391
1692228433.105,-38.574,-27.832,-20.996,-54.199,-198.242
1692228433.109,-36.621,-25.879,-17.578,-58.105,-165.527
1692228433.112,-33.691,-31.250,-16.113,-46.387,-171.875
1692228433.116,-31.738,-32.715,-19.043,-38.574,-131.836
1692228433.120,-33.203,-25.879,-20.508,-37.109,-30.273
1692228433.124,-41.992,-25.879,-19.043,-48.340,14.648
1692228433.128,-49.316,-29.297,-23.926,-59.570,-38.086
1692228433.132,-45.410,-27.832,-20.996,-46.387,-39.062
1692228433.136,-45.898,-25.391,-15.625,-33.691,9.277
1692228433.139,-44.922,-25.879,-19.531,-41.016,266.602
1692228433.143,-39.551,-27.344,-25.391,-62.500,410.156
1692228433.147,-34.180,-27.832,-27.344,-70.312,-27.832
1692228433.151,-30.762,-27.344,-24.414,-55.176,-224.609
1692228433.155,-26.855,-24.414,-19.531,-38.086,-140.137
1692228433.156,-23.926,-19.043,-18.066,-35.645,-164.551
1692228433.160,-30.273,-22.461,-17.090,-51.270,-242.676
1692228433.164,-38.086,-30.273,-21.484,-66.406,-226.562
1692228433.168,-35.156,-23.438,-20.996,-56.641,-126.465
1692228433.172,-23.438,-16.602,-18.555,-32.715,-43.457
1692228433.176,-22.949,-23.926,-21.484,-34.180,-46.387
1692228433.180,-23.438,-27.344,-21.484,-44.922,27.344
1692228433.183,-30.273,-24.414,-24.902,-47.363,424.316
1692228433.187,-46.387,-21.973,-30.273,-52.246,251.465
1692228433.191,-41.016,-20.508,-23.926,-40.527,-172.363
1692228433.195,-11.719,-12.207,-29.297,-19.531,-110.840
1692228433.199,4.883,-14.160,-25.391,-19.531,-95.703
1692228433.202,-28.809,-30.273,-6.836,-48.340,-199.707
1692228433.206,-58.594,-33.691,-10.742,-66.895,-186.035
1692228433.210,-41.016,-34.180,-13.184,-41.016,-40.039
1692228433.214,-23.438,-34.180,-10.254,-21.484,-1.953
1692228433.218,-25.391,-38.574,-13.184,-38.086,-101.562
1692228433.222,-31.250,-44.434,-19.043,-63.965,-143.555
1692228433.226,-32.227,-47.363,-22.949,-62.012,196.289
1692228433.229,-27.832,-43.457,-23.438,-32.227,315.918
1692228433.233,-18.066,-38.574,-17.090,-18.066,16.113
1692228433.237,-17.090,-38.086,-22.461,-27.344,-143.555
1692228433.241,-25.391,-39.062,-26.367,-27.344,44.922
1692228433.245,-22.949,-43.945,-18.066,-25.391,114.746
1692228433.247,-16.602,-49.316,-13.672,-19.043,-177.246
1692228433.251,-20.508,-52.734,-13.672,-1.465,-93.262
1692228433.255,-19.043,-50.781,-7.812,1.953,-39.551
1692228433.259,-21.973,-44.922,-7.324,-5.371,-121.094
1692228433.263,-26.367,-44.434,-11.230,-12.695,-186.523
1692228433.267,-19.043,-49.316,-9.277,1.465,8.789
1692228433.271,-13.672,-49.316,-7.812,32.227,359.375
1692228433.274,-22.461,-47.363,-11.719,29.785,239.258
1692228433.278,-30.273,-49.316,-12.207,9.766,-19.043
1692228433.282,-20.020,-45.410,-11.230,17.578,101.074
1692228433.286,-8.301,-38.086,-13.184,27.832,287.109
1692228433.290,-11.719,-35.645,-12.207,27.344,31.738
1692228433.306,-16.602,-33.691,-8.301,27.344,-73.242
1692228433.310,-18.066,-32.227,-7.812,11.230,-67.871
1692228433.314,-26.855,-36.133,-11.719,-4.395,-91.309
1692228433.318,-23.438,-37.598,-14.648,3.906,-93.262
1692228433.322,-13.672,-34.668,-8.789,17.578,-92.285
1692228433.326,-13.672,-32.227,-8.789,13.672,38.086
1692228433.330,-16.113,-26.855,-16.113,-0.977,137.207
1692228433.333,-20.020,-20.020,-16.602,-14.160,76.172
1692228433.337,-27.344,-19.043,-16.602,-8.789,-57.129
1692228433.341,-23.438,-25.391,-16.113,8.301,140.137
1692228433.345,-17.578,-25.879,-13.184,6.348,283.203
1692228433.349,-21.484,-23.926,-15.625,-13.184,-119.141
1692228433.352,-20.020,-27.832,-20.020,-19.043,-180.664
1692228433.356,-22.461,-27.344,-19.043,-16.113,-44.922
1692228433.360,-29.785,-22.949,-17.578,-8.789,-60.059
1692228433.364,-15.137,-24.414,-17.578,-4.395,-127.930
1692228433.368,-2.930,-20.508,-18.555,-14.160,-65.430
1692228433.372,-12.695,-21.484,-23.438,-26.367,-13.184
1692228433.376,-19.531,-25.879,-24.414,-22.949,-90.820
1692228433.379,-20.508,-22.949,-24.414,-3.906,-178.711
1692228433.383,-19.043,-25.391,-24.414,8.301,-75.195
1692228433.387,-22.461,-24.902,-20.996,1.953,131.836
1692228433.391,-26.855,-20.996,-25.391,-11.230,-92.773
1692228433.395,-26.367,-22.949,-25.391,-15.137,-238.281
1692228433.411,-27.344,-26.367,-22.949,-9.277,-117.188
1692228433.415,-20.996,-23.926,-21.973,-3.418,-81.543
1692228433.419,-21.973,-22.461,-21.484,-10.742,-79.590
1692228433.423,-33.691,-28.320,-26.855,-33.691,-89.844
1692228433.427,-37.109,-28.320,-24.902,-33.203,-49.316
1692228433.431,-33.203,-22.949,-20.508,-16.113,51.758
1692228433.435,-34.668,-27.832,-23.438,-15.625,-1.953
1692228433.438,-37.598,-29.297,-21.973,-23.438,-62.012
1692228433.442,-40.039,-27.832,-20.996,-33.203,139.160
1692228433.446,-41.016,-28.320,-27.832,-45.410,420.898
1692228433.450,-49.316,-30.273,-28.809,-44.922,146.973
1692228433.454,-53.223,-28.320,-25.391,-36.621,-158.691
1692228433.441,-39.551,-22.461,-24.902,-34.668,-111.328
1692228433.445,-40.039,-26.855,-24.414,-56.641,-157.715
1692228433.449,-42.480,-27.832,-23.926,-61.035,-246.582
1692228433.453,-34.668,-27.832,-24.902,-36.621,-163.574
1692228433.457,-32.715,-30.762,-29.785,-34.180,-32.715
1692228433.461,-25.879,-25.391,-33.691,-43.945,-34.180
1692228433.465,-24.902,-18.555,-29.785,-50.781,-15.625
1692228433.468,-25.391,-24.902,-26.855,-55.664,140.137
1692228433.472,-22.461,-28.809,-28.809,-42.480,124.023
1692228433.476,-19.531,-20.508,-27.832,-27.832,-147.949
1692228433.480,-16.602,-20.508,-23.438,-34.180,-193.359
1692228433.484,-20.508,-21.973,-19.043,-49.316,49.316
1692228433.486,-25.391,-18.066,-20.020,-48.340,212.891
1692228433.490,-28.809,-22.949,-21.484,-43.945,-41.992
1692228433.494,-23.438,-21.484,-15.137,-34.180,-121.094
1692228433.498,-21.973,-15.625,-15.625,-28.809,-57.129
1692228433.502,-27.344,-21.484,-24.902,-38.086,-75.684
1692228433.506,-31.738,-21.973,-25.391,-44.434,-7.324
1692228433.510,-30.762,-20.996,-27.344,-45.898,-5.859
1692228433.513,-33.203,-29.297,-32.227,-40.039,256.836
1692228433.517,-25.391,-26.855,-29.785,-40.039,582.031
1692228433.521,-11.230,-18.555,-23.926,-47.852,156.738
1692228433.525,-16.602,-20.508,-23.438,-50.293,-214.844
1692228433.529,-25.391,-27.344,-25.391,-40.527,-148.926
1692228433.532,-24.902,-29.785,-27.344,-36.133,-134.277
1692228433.536,-25.391,-29.297,-27.832,-36.133,-214.844
1692228433.540,-30.762,-27.344,-27.344,-40.039,-165.039
1692228433.544,-39.062,-20.508,-26.855,-48.340,-89.844
1692228433.548,-38.086,-16.602,-24.414,-52.734,-120.605
1692228433.552,-37.109,-21.973,-26.367,-51.758,-111.816
1692228433.556,-36.133,-29.785,-29.785,-39.551,48.828
1692228433.559,-34.668,-29.785,-30.762,-34.668,269.043
1692228433.563,-36.133,-25.879,-29.785,-54.688,-7.812
1692228433.567,-35.156,-24.414,-30.273,-63.477,-250.000
1692228433.571,-33.203,-21.484,-29.785,-48.340,35.645
1692228433.575,-24.902,-17.578,-23.438,-37.598,136.719
1692228433.576,-27.344,-19.043,-20.508,-40.039,-125.488
1692228433.580,-26.367,-19.531,-22.949,-46.387,-211.426
1692228433.584,-23.926,-12.695,-24.902,-51.758,-63.965
1692228433.588,-36.133,-17.578,-24.414,-44.434,1.953
1692228433.592,-41.016,-30.762,-24.902,-38.574,-43.457
1692228433.596,-39.551,-32.227,-21.484,-47.852,-2.930
1692228433.600,-34.668,-28.320,-21.484,-52.246,172.363
1692228433.603,-32.715,-22.949,-21.973,-50.293,318.359
1692228433.607,-36.133,-23.438,-21.484,-36.621,-14.648
1692228433.611,-27.344,-30.273,-16.602,-21.973,-165.527
1692228433.615,-22.461,-29.785,-14.648,-33.203,-12.207
1692228433.619,-34.668,-26.855,-19.043,-46.387,-52.734
1692228433.622,-36.621,-23.926,-17.090,-46.387,-196.289
1692228433.626,-27.344,-20.020,-17.578,-37.598,-122.559
1692228433.630,-24.414,-25.391,-22.461,-29.297,6.836
1692228433.634,-24.902,-32.227,-15.137,-28.320,-51.270
1692228433.638,-28.809,-30.273,-14.160,-38.574,-215.332
1692228433.642,-33.691,-33.691,-24.414,-45.410,-74.707
1692228433.646,-32.715,-30.762,-23.926,-38.574,165.527
1692228433.649,-25.879,-24.414,-17.090,-24.902,1.465
1692228433.653,-21.484,-26.855,-20.020,-23.438,-179.688
1692228433.657,-23.926,-31.250,-21.973,-41.504,-70.312
1692228433.661,-25.391,-33.203,-19.531,-55.176,52.246
1692228433.665,-19.531,-27.344,-17.090,-43.945,-95.703
1692228433.681,-14.648,-19.531,-17.090,-21.973,-141.602
1692228433.685,-29.785,-22.461,-20.508,-20.508,-87.402
1692228433.689,-39.062,-28.809,-23.926,-41.504,-76.172
1692228433.693,-32.715,-33.203,-21.973,-49.805,-12.695
1692228433.697,-28.809,-30.273,-20.508,-29.297,-93.262
1692228433.701,-17.578,-21.973,-19.043,-12.207,160.645
1692228433.705,-17.090,-19.531,-17.090,-12.695,359.375
1692228433.708,-24.902,-21.973,-20.508,-22.949,2.930
1692228433.712,-30.762,-23.926,-23.438,-32.227,-130.371
1692228433.716,-34.180,-25.879,-25.391,-22.949,73.730
1692228433.720,-30.273,-21.973,-25.879,-4.883,148.438
1692228433.724,-31.738,-20.996,-23.926,-6.836,-149.414
1692228433.726,-46.875,-28.320,-20.020,-16.113,-137.207
1692228433.730,-58.594,-27.832,-23.438,-24.414,-63.965
1692228433.734,-54.688,-28.320,-25.879,-28.320,-104.980
1692228433.738,-46.875,-33.691,-23.438,-18.066,-112.793
1692228433.742,-32.227,-31.738,-23.438,-7.812,-22.461
1692228433.746,-33.203,-30.273,-22.949,-20.020,74.219
1692228433.750,-41.992,-27.344,-21.484,-31.250,24.902
1692228433.753,-41.992,-25.391,-23.926,-31.738,-78.613
1692228433.757,-33.691,-25.879,-27.832,-20.508,-73.242
1692228433.761,-29.297,-24.902,-26.855,0.488,280.273
1692228433.765,-32.715,-24.902,-27.344,-11.719,172.852
1692228433.769,-43.457,-26.855,-22.949,-36.133,-184.082
1692228433.771,-48.340,-31.738,-15.137,-33.691,-166.992
1692228433.775,-40.039,-30.762,-14.648,-15.137,-116.211
1692228433.779,-32.227,-28.320,-18.555,-5.859,-124.512
1692228433.783,-29.297,-22.949,-18.555,-7.812,-114.258
1692228433.787,-37.598,-19.531,-20.020,-24.414,-72.754
1692228433.791,-43.457,-24.414,-23.438,-35.645,11.719
1692228433.795,-42.969,-25.391,-26.367,-30.762,78.125
1692228433.798,-46.875,-24.902,-28.320,-29.297,44.434
1692228433.802,-42.480,-26.855,-23.438,-27.344,244.141
1692228433.806,-31.738,-25.879,-22.461,-29.785,496.094
1692228433.810,-38.086,-27.832,-24.414,-42.969,110.840
1692228433.814,-39.062,-31.738,-28.809,-40.527,-219.727
1692228433.816,-26.855,-30.762,-26.855,-16.602,-88.867
1692228433.820,-20.020,-27.832,-27.832,-9.766,-105.957
1692228433.824,-22.949,-27.344,-30.273,-29.297,-213.867
1692228433.828,-27.344,-24.902,-24.414,-39.551,-166.504
1692228433.832,-31.738,-27.832,-24.902,-22.461,-67.383
1692228433.836,-32.715,-26.367,-22.949,-2.441,35.156
1692228433.840,-34.668,-18.555,-19.043,-13.672,37.109
1692228433.843,-49.316,-24.414,-24.414,-42.480,14.160
1692228433.847,-52.246,-33.203,-24.414,-47.363,136.230
1692228433.851,-42.969,-28.320,-20.996,-45.898,-35.645
1692228433.855,-40.039,-29.297,-23.438,-54.688,-152.344
1692228433.859,-36.621,-32.715,-23.438,-63.477,46.875
1692228433.861,-31.250,-24.414,-20.508,-81.055,-0.488
1692228433.865,-33.203,-23.926,-21.973,-105.469,-189.453
1692228433.869,-31.250,-32.227,-23.438,-114.746,-194.336
1692228433.873,-26.855,-28.320,-24.414,-101.562,-116.699
1692228433.877,-23.926,-21.484,-24.414,-95.703,-62.500
1692228433.881,-20.996,-22.949,-18.066,-106.445,-53.223
1692228433.885,-26.367,-23.926,-20.996,-113.281,-39.551
1692228433.888,-25.391,-20.020,-28.809,-115.723,155.273
1692228433.892,-19.531,-15.625,-29.785,-111.328,367.188
1692228433.896,-25.391,-20.508,-26.855,-104.492,19.531
1692228433.900,-33.691,-27.832,-26.855,-112.305,-181.641
1692228433.904,-42.480,-24.414,-27.344,-131.836,-94.238
1692228433.907,-43.457,-26.367,-25.879,-120.117,-125.000
1692228433.911,-43.945,-27.832,-23.926,-93.750,-95.703
1692228433.915,-40.039,-20.996,-18.555,-86.426,-41.992
1692228433.919,-32.715,-21.973,-16.113,-95.215,20.020
1692228433.923,-42.480,-27.832,-17.090,-106.445,-43.945
1692228433.927,-48.828,-29.297,-12.695,-105.957,-109.375
1692228433.931,-50.781,-27.344,-14.648,-88.379,96.191
1692228433.934,-47.852,-27.344,-20.508,-72.754,324.219
1692228433.938,-39.551,-29.297,-20.020,-84.473,43.945
1692228433.942,-34.668,-28.320,-12.695,-94.727,-222.168
1692228433.946,-33.691,-26.855,-13.672,-88.379,-139.648
1692228433.950,-35.645,-25.391,-19.531,-75.684,-78.613
1692228433.951,-34.180,-24.414,-23.438,-65.918,-80.078
1692228433.955,-30.273,-29.297,-25.391,-69.824,-94.727
1692228433.959,-33.691,-29.297,-30.273,-91.309,-46.387
1692228433.963,-42.480,-27.832,-32.715,-100.586,-36.133
1692228433.967,-47.852,-28.320,-26.367,-89.355,-88.379
1692228433.971,-51.758,-25.391,-21.484,-69.824,-36.133
1692228433.975,-50.293,-26.367,-20.020,-71.289,262.207
1692228433.978,-49.316,-26.855,-19.531,-86.914,592.285
1692228433.982,-48.828,-24.414,-17.578,-90.820,165.527
1692228433.986,-43.945,-23.926,-20.996,-80.566,-287.109
1692228433.990,-38.086,-21.973,-21.973,-60.547,-160.645
1692228433.994,-30.273,-19.531,-20.508,-60.547,-117.188
1692228433.997,-34.668,-24.902,-27.344,-78.613,-201.172
1692228434.001,-42.480,-32.715,-27.344,-94.727,-198.730
1692228434.005,-49.316,-29.785,-27.832,-92.285,-153.320
1692228434.009,-48.828,-28.320,-31.738,-78.613,-123.535
1692228434.013,-39.062,-30.762,-28.320,-62.988,-160.156
1692228434.017,-51.270,-30.762,-28.809,-64.453,-19.531
1692228434.021,-54.199,-27.832,-32.227,-78.125,112.793
1692228434.024,-44.434,-21.484,-29.297,-80.078,10.742
1692228434.028,-32.227,-23.926,-26.367,-66.895,-119.629
1692228434.032,-27.344,-34.180,-25.879,-55.176,-38.574
1692228434.036,-40.039,-35.645,-26.855,-63.965,155.273
1692228434.040,-45.898,-26.855,-24.902,-80.078,-38.574
1692228434.056,-50.781,-26.367,-22.949,-83.008,-153.320
1692228434.060,-42.480,-27.344,-25.879,-66.895,-54.199
1692228434.064,-35.645,-25.879,-23.438,-59.082,-29.785
1692228434.068,-52.734,-30.762,-24.414,-76.172,-94.727
1692228434.072,-62.500,-36.133,-28.809,-88.867,-151.367
1692228434.076,-56.152,-32.227,-30.273,-83.496,-48.340
1692228434.080,-49.316,-23.438,-28.320,-72.266,97.656
1692228434.083,-42.480,-21.484,-28.320,-56.641,78.125
1692228434.087,-39.062,-25.879,-28.809,-60.547,5.859
1692228434.091,-43.945,-30.762,-27.832,-73.242,189.453
1692228434.095,-49.316,-29.297,-28.320,-70.312,403.809
1692228434.099,-42.480,-26.367,-32.715,-57.129,49.316
1692228434.101,-38.086,-32.715,-31.738,-44.922,-140.625
1692228434.105,-36.133,-26.855,-27.832,-52.734,-86.914
1692228434.109,-36.621,-21.484,-30.273,-61.035,-145.996
1692228434.113,-42.480,-29.785,-29.785,-67.383,-217.773
1692228434.117,-42.480,-33.203,-23.926,-59.082,-112.793
1692228434.121,-38.086,-30.273,-23.438,-32.715,77.637
1692228434.125,-41.504,-27.832,-29.297,-32.227,22.949
1692228434.128,-51.270,-29.297,-33.691,-67.383,-141.113
1692228434.132,-57.129,-33.691,-30.273,-74.707,-94.238
1692228434.136,-58.594,-36.133,-28.809,-50.293,77.637
1692228434.140,-55.664,-31.738,-28.320,-37.109,-36.133
1692228434.144,-48.340,-29.297,-22.949,-37.598,-134.766
1692228434.146,-47.852,-33.691,-25.391,-49.316,8.789
1692228434.150,-45.898,-31.738,-21.973,-51.270,167.480
1692228434.154,-44.922,-29.785,-18.555,-43.945,-79.102
1692228434.158,-44.922,-31.738,-22.461,-24.902,-201.660
1692228434.162,-48.828,-27.344,-23.438,-22.461,-51.758
1692228434.166,-51.270,-30.762,-23.926,-50.293,84.961
1692228434.170,-50.781,-32.715,-29.297,-63.965,-31.738
1692228434.173,-47.363,-24.414,-30.273,-54.199,-140.625
1692228434.177,-40.039,-18.066,-22.949,-36.133,151.367
1692228434.181,-40.039,-19.043,-21.973,-21.973,321.777
1692228434.185,-43.457,-21.484,-28.320,-34.668,-41.992
1692228434.189,-40.039,-24.902,-27.344,-41.504,-224.609
1692228434.192,-30.273,-26.367,-22.461,-22.949,-137.695
1692228434.196,-22.949,-21.973,-17.578,-12.207,-109.375
1692228434.200,-26.855,-22.949,-16.113,-9.766,-115.234
1692228434.204,-33.691,-23.438,-20.508,-16.602,-133.301
1692228434.208,-32.715,-21.973,-21.484,-24.902,-42.969
1692228434.212,-33.203,-26.855,-22.461,-24.902,0.977
1692228434.216,-31.738,-24.902,-22.461,-15.625,-52.246
1692228434.219,-41.992,-29.785,-21.484,-10.254,11.719
1692228434.223,-44.434,-33.203,-25.391,-18.555,201.172
1692228434.227,-39.062,-23.926,-27.832,-33.691,17.090
1692228434.231,-44.922,-25.391,-31.250,-41.504,-209.961
1692228434.235,-36.621,-32.715,-28.809,-29.785,-111.816
1692228434.236,-28.809,-32.715,-26.855,-18.555,-72.266
1692228434.240,-37.109,-30.762,-31.738,-26.855,-142.090
1692228434.244,-46.387,-29.785,-29.297,-41.992,-160.645
1692228434.248,-45.898,-25.879,-23.438,-38.086,-112.793
1692228434.252,-37.598,-25.391,-26.367,-24.414,-43.945
1692228434.256,-31.738,-32.227,-28.320,-20.996,101.562
1692228434.260,-27.832,-33.691,-26.855,-20.996,95.703
1692228434.263,-31.250,-31.738,-23.926,-25.391,205.566
1692228434.267,-40.039,-30.762,-20.508,-23.438,489.258
1692228434.271,-34.668,-24.902,-21.973,-6.836,163.574
1692228434.275,-30.762,-26.855,-19.531,-1.953,-95.215
1692228434.279,-41.016,-32.227,-18.555,-15.625,-104.492
1692228434.281,-45.898,-30.273,-22.461,-30.762,-186.035
1692228434.285,-48.828,-30.762,-22.949,-33.691,-240.234
1692228434.289,-42.480,-26.367,-23.438,-23.926,-186.523
1692228434.293,-36.621,-23.926,-20.996,-21.484,-60.059
1692228434.297,-41.016,-26.855,-25.391,-31.738,-78.125
1692228434.301,-32.715,-27.832,-27.344,-38.574,-100.098
1692228434.305,-31.250,-26.367,-21.973,-48.340,-50.781
1692228434.308,-32.715,-26.855,-22.461,-48.340,277.344
1692228434.312,-26.855,-25.879,-22.461,-33.203,173.340
1692228434.316,-30.762,-24.902,-22.461,-42.480,-192.383
1692228434.320,-41.016,-27.832,-23.438,-59.570,-120.605
1692228434.324,-50.293,-28.809,-24.414,-61.523,-118.652
1692228434.326,-52.246,-28.320,-25.879,-49.805,-187.988
1692228434.330,-40.527,-24.902,-23.438,-33.691,-120.605
1692228434.334,-33.203,-27.344,-19.043,-31.250,33.203
1692228434.338,-36.133,-35.156,-17.578,-45.898,3.906
1692228434.342,-38.574,-34.668,-20.508,-51.758,-138.672
1692228434.346,-36.621,-27.832,-18.555,-40.527,-129.883
1692228434.350,-32.227,-26.367,-16.113,-32.227,231.445
1692228434.353,-34.180,-26.367,-22.461,-33.203,433.594
1692228434.357,-31.738,-21.973,-30.762,-52.734,19.043
1692228434.361,-36.133,-23.926,-29.785,-60.547,-213.867
1692228434.365,-41.504,-31.250,-25.879,-56.641,27.344
1692228434.369,-43.945,-30.762,-27.832,-43.945,114.258
1692228434.371,-38.086,-27.344,-28.320,-32.227,-139.160
1692228434.375,-25.879,-24.902,-23.926,-39.062,-105.469
1692228434.379,-32.715,-24.902,-22.461,-50.293,-67.871
1692228434.383,-33.691,-22.461,-21.484,-52.734,-120.605
1692228434.387,-27.344,-21.973,-22.949,-45.410,-140.625
1692228434.391,-28.809,-26.855,-27.344,-41.016,28.809
1692228434.395,-27.832,-27.344,-29.785,-56.641,251.465
1692228434.398,-26.855,-23.926,-28.809,-71.289,-16.602
1692228434.402,-31.738,-23.926,-27.344,-64.941,-204.590
1692228434.406,-30.273,-26.367,-26.855,-44.922,-8.789
1692228434.410,-20.996,-22.461,-28.320,-30.273,78.125
1692228434.414,-27.344,-27.832,-25.391,-42.969,-77.148
1692228434.417,-42.480,-41.016,-18.066,-56.641,-149.414
1692228434.421,-21.484,-55.176,-9.277,-30.762,13.672
1692228434.425,10.254,-43.945,-4.883,5.859,47.363
1692228434.429,-9.277,-15.625,-24.414,-14.160,-105.957
1692228434.433,-46.387,-11.719,-37.109,-66.406,-107.910
1692228434.437,-65.918,-11.230,-32.227,-101.562,-80.078
1692228434.441,-68.848,-5.859,-33.203,-103.027,-73.730
1692228434.444,-69.824,0.977,-39.062,-96.680,-92.285
1692228434.448,-62.500,0.488,-38.086,-78.613,-102.051
1692228434.452,-59.082,-3.906,-35.156,-73.242,131.348
1692228434.456,-69.336,-0.488,-41.992,-112.305,258.789
1692228434.460,-73.242,-2.441,-44.922,-129.395,-104.004
1692228434.477,-69.824,-5.859,-50.293,-115.234,-208.008
1692228434.481,-51.758,-4.395,-47.363,-88.379,-68.848
1692228434.485,-64.941,-1.465,-42.969,-88.379,-67.871
1692228434.489,-80.078,-1.465,-43.945,-116.211,-203.613
1692228434.493,-70.801,-2.930,-39.551,-122.070,-125.488
1692228434.497,-63.965,-4.883,-36.133,-103.027,179.199
1692228434.501,-61.523,-2.930,-39.551,-88.379,104.980
1692228434.504,-75.195,-5.371,-43.945,-101.074,-159.668
1692228434.508,-69.824,-10.742,-42.969,-104.492,-80.078
1692228434.512,-58.594,-5.859,-42.969,-99.609,75.684
1692228434.516,-68.359,-5.859,-43.945,-105.469,-83.008
1692228434.520,-63.965,-16.113,-38.574,-92.285,-132.812
1692228434.521,-51.758,-21.484,-34.668,-73.242,-33.691
1692228434.525,-62.988,-25.391,-39.062,-80.566,-64.453
1692228434.529,-65.430,-28.320,-38.574,-97.656,-163.086
1692228434.533,-49.805,-24.414,-34.668,-83.008,-143.066
1692228434.537,-39.551,-27.344,-35.156,-63.965,70.801
1692228434.541,-31.738,-33.203,-36.133,-56.152,222.168
1692228434.545,-35.645,-29.297,-34.180,-56.152,127.441
1692228434.548,-39.062,-21.973,-28.320,-59.082,-27.344
1692228434.552,-30.762,-19.531,-25.879,-50.293,82.031
1692228434.556,-17.578,-24.902,-22.949,-30.762,402.344
1692228434.560,-6.348,-23.926,-22.949,-19.043,173.828
1692228434.564,-12.207,-23.926,-23.438,-27.344,-162.109
1692228434.566,-15.137,-24.414,-24.902,-43.945,-148.926
1692228434.570,-14.648,-26.367,-28.320,-42.969,-217.773
1692228434.574,-14.648,-27.344,-24.414,-14.648,-262.207
1692228434.578,-10.742,-20.020,-20.020,3.906,-128.906
1692228434.582,-10.254,-19.531,-17.578,-4.395,-41.992
1692228434.586,-16.113,-23.438,-17.578,-20.508,-40.527
1692228434.590,-17.090,-22.949,-20.020,-20.508,-26.855
1692228434.593,-11.230,-22.461,-16.602,-7.324,-8.301
1692228434.597,-12.207,-26.855,-18.066,2.930,280.762
1692228434.601,-16.602,-21.484,-25.391,-6.836,143.066
1692228434.605,-19.531,-17.578,-17.578,-21.973,-220.215
1692228434.609,-23.926,-25.879,-15.625,-24.414,-152.832
1692228434.611,-17.090,-24.414,-17.578,-15.625,-135.254
1692228434.615,-8.301,-18.555,-14.648,-5.859,-173.340
1692228434.619,-16.113,-18.066,-18.555,-8.301,-151.855
1692228434.623,-26.367,-22.949,-23.926,-25.879,-78.125
1692228434.627,-31.738,-29.785,-23.926,-39.551,-78.613
1692228434.631,-26.367,-26.855,-21.484,-26.367,-94.238
1692228434.635,-7.812,-28.809,-14.160,11.230,1.953
1692228434.638,-4.395,-40.039,-9.766,31.250,233.398
1692228434.642,-28.320,-20.508,-23.438,-17.578,476.074
1692228434.646,-48.828,3.418,-30.273,-79.102,63.477
1692228434.650,-37.109,-4.395,-27.832,-61.523,-196.777
1692228434.654,-29.297,-11.719,-31.250,-31.250,-27.832
1692228434.656,-41.504,-14.648,-27.344,-54.688,-48.828
1692228434.660,-41.992,-16.602,-23.926,-72.754,-164.062
1692228434.664,-41.504,-16.602,-24.414,-74.707,-141.602
1692228434.668,-45.410,-20.020,-31.738,-69.336,-20.020
1692228434.672,-41.992,-19.043,-34.180,-47.363,3.906
1692228434.676,-42.969,-21.484,-28.809,-40.527,-86.914
1692228434.680,-45.410,-24.902,-29.297,-50.781,5.371
1692228434.683,-44.922,-28.320,-26.855,-58.105,262.207
1692228434.687,-43.945,-28.320,-26.367,-53.223,0.977
1692228434.691,-40.039,-26.855,-26.855,-30.273,-193.359
1692228434.695,-36.621,-31.738,-27.832,-21.484,-83.984
1692228434.699,-32.227,-30.762,-24.414,-37.109,-67.871
1692228434.702,-27.832,-25.879,-23.926,-44.434,-104.980
1692228434.706,-29.297,-21.973,-26.855,-37.598,-190.430
1692228434.710,-18.555,-19.531,-21.973,-12.695,8.789
1692228434.714,-7.324,-18.066,-17.578,2.441,74.707
1692228434.718,-10.742,-20.996,-19.531,-10.742,-85.938
1692228434.722,-14.648,-27.344,-25.879,-29.785,-165.039
1692228434.726,-24.902,-26.855,-25.391,-26.855,177.734
1692228434.729,-21.973,-22.949,-21.973,-8.301,453.125
1692228434.733,-7.324,-20.996,-21.973,-11.230,23.438
1692228434.737,-7.812,-19.043,-22.949,-29.785,-127.930
1692228434.741,-15.625,-23.438,-21.484,-46.387,-73.242
1692228434.745,-21.484,-23.926,-18.555,-48.340,-132.324
1692228434.747,-19.531,-20.996,-23.438,-33.691,-180.176
1692228434.751,-14.160,-24.414,-25.879,-15.625,-104.004
1692228434.755,-11.719,-19.531,-19.531,-14.160,-12.207
1692228434.759,-15.625,-15.137,-20.020,-32.227,-43.457
1692228434.763,-19.531,-18.555,-20.996,-39.062,-122.559
1692228434.767,-13.184,-25.879,-23.438,-30.762,-37.109
1692228434.771,-16.602,-32.227,-27.344,-23.438,437.500
1692228434.774,-17.578,-31.250,-32.227,-27.344,385.254
1692228434.778,-18.555,-25.879,-37.598,-47.363,-227.051
1692228434.782,-26.367,-24.414,-30.273,-61.035,-167.969
1692228434.786,-26.855,-28.320,-29.785,-50.293,-26.367
1692228434.790,-28.320,-29.297,-33.691,-35.645,-153.809
1692228434.806,-22.949,-23.926,-23.926,-42.480,-155.762
1692228434.810,-27.344,-20.020,-21.973,-20.996,-96.191
1692228434.814,-42.969,-30.273,-27.832,-215.332,-95.703
1692228434.818,-35.156,-31.738,-27.832,-599.121,-126.465
1692228434.822,-16.602,-22.461,-21.973,-835.449,-148.926
1692228434.826,-14.648,-19.531,-16.113,-966.797,181.152
1692228434.830,-21.973,-22.461,-20.020,-1000.000,244.141
1692228434.833,-22.461,-23.926,-22.949,-998.047,-72.266
1692228434.837,-18.555,-20.020,-22.949,-1000.000,-145.020
1692228434.841,-10.742,-22.949,-20.508,-1000.000,36.621
1692228434.845,-15.137,-22.949,-21.484,-1000.000,181.152
1692228434.849,-26.855,-21.484,-26.367,-1000.000,-185.059
1692228434.851,-25.879,-28.809,-26.855,-1000.000,-242.188
1692228434.855,-23.926,-28.809,-24.414,-999.512,-166.992
1692228434.859,-20.996,-27.344,-28.320,-988.770,-174.316
1692228434.863,-22.949,-27.344,-26.855,-1000.000,-171.875
1692228434.867,-28.809,-28.809,-20.020,-813.965,-112.305
1692228434.871,-27.832,-28.809,-20.996,-412.109,-10.254
1692228434.875,-20.508,-21.484,-20.996,-166.504,15.625
1692228434.878,-13.672,-16.602,-17.578,10.254,21.973
1692228434.882,-15.625,-22.461,-16.602,126.465,36.133
1692228434.886,-22.949,-26.855,-16.602,184.082,308.594
1692228434.890,-27.344,-27.344,-15.137,225.098,207.520
1692228434.894,-20.020,-29.297,-21.484,264.648,-92.285
1692228434.896,-12.695,-33.203,-23.926,308.594,-35.645
1692228434.900,-16.602,-29.785,-15.137,333.496,-55.176
1692228434.904,-22.949,-29.297,-19.043,327.148,-122.070
1692228434.908,-8.301,-32.227,-19.043,328.125,-119.629
1692228434.912,-1.953,-27.832,-13.672,334.961,-115.234
1692228434.916,-4.395,-20.020,-11.719,351.074,3.418
1692228434.920,-1.953,-17.578,0.488,354.492,85.938
1692228434.923,-8.301,-24.902,1.465,330.078,14.648
1692228434.927,-13.184,-27.832,-17.090,317.871,163.574
1692228434.931,-27.832,-35.156,-36.133,308.105,458.496
1692228434.935,-36.621,-39.551,-41.992,298.340,154.785
1692228434.939,-32.227,-36.621,-38.574,300.781,-137.207
1692228434.941,-33.203,-34.180,-30.762,289.551,-14.648
1692228434.945,-36.621,-31.738,-33.203,257.324,-117.188
1692228434.949,-30.762,-35.156,-31.738,247.070,-218.262
1692228434.953,-30.762,-39.062,-26.855,256.836,-149.902
1692228434.957,-36.621,-36.133,-28.320,253.418,-83.496
1692228434.961,-35.156,-32.227,-25.391,236.816,-53.223
1692228434.965,-34.180,-32.227,-25.391,209.961,-33.691
1692228434.968,-31.250,-34.180,-27.344,192.871,2.441
1692228434.972,-27.832,-36.621,-25.391,201.172,221.680
