timestamps,TP9,AF7,AF8,TP10,Right AUX
1688257728.858,-41.016,-20.996,-4.395,3.418,-2.441
1688257728.862,-1.465,-21.973,-4.883,-12.207,-142.090
1688257728.866,-2.930,-27.832,-20.020,-43.945,-116.211
1688257728.870,-41.504,-39.062,-33.691,-56.641,318.359
1688257728.874,-84.961,-40.039,-41.504,-53.711,367.676
1688257728.878,-75.195,-29.785,-38.574,-43.457,6.836
1688257728.882,-20.996,-22.949,-30.762,-40.527,58.594
1688257728.885,-1.465,-22.949,-26.367,-45.898,132.812
1688257728.889,-24.902,-34.180,-27.344,-60.547,-170.898
1688257728.893,-61.035,-36.133,-28.809,-54.199,-214.844
1688257728.897,-50.781,-25.879,-26.367,-16.602,-69.824
1688257728.901,-8.301,-26.855,-22.949,-22.461,-126.953
1688257728.903,-5.371,-27.832,-27.344,-26.855,-74.219
1688257728.907,18.555,-27.344,-27.832,-52.734,-93.262
1688257728.911,0.977,-37.598,-32.715,-61.035,2.930
1688257728.914,-28.809,-41.504,-30.762,-58.594,-29.297
1688257728.918,-54.688,-36.133,-24.414,-45.410,-17.090
1688257728.922,-31.250,-29.785,-17.090,-26.855,-45.898
1688257728.926,-4.395,-30.762,-16.113,-22.949,190.430
1688257728.930,-15.137,-31.738,-8.301,-21.973,189.453
1688257728.933,-44.434,-34.180,-7.812,-14.648,-179.199
1688257728.937,-73.730,-39.551,-23.438,-5.371,-66.895
1688257728.941,-52.246,-33.203,-28.809,-13.184,207.520
1688257728.945,-17.090,-27.832,-28.320,-30.273,6.836
1688257728.949,-15.137,-27.344,-34.180,-39.551,-331.055
1688257728.953,-41.504,-15.625,-27.344,-28.809,-24.902
1688257728.957,-73.242,-20.020,-30.273,-20.020,235.352
1688257728.960,-55.664,-33.691,-37.109,-22.949,-0.488
1688257728.964,-16.113,-27.832,-24.902,-24.902,-98.633
1688257728.968,-14.160,-31.738,-25.879,-29.785,-4.395
1688257728.972,-50.293,-45.410,-37.109,-29.785,48.340
1688257728.976,-93.750,-51.270,-40.527,-23.926,-173.828
1688257728.992,-70.312,-38.086,-35.156,-10.254,-146.484
1688257728.996,-6.348,-15.625,-22.461,-13.184,-120.117
1688257729.000,10.742,-15.137,-9.766,-15.625,-181.152
1688257729.004,-20.508,-31.250,-14.648,-10.254,-215.820
1688257729.008,-58.105,-36.621,-27.344,-15.625,-121.582
1688257729.012,-60.059,-31.738,-42.969,-29.785,133.301
1688257729.016,-29.297,-32.715,-46.875,-38.574,78.613
1688257729.019,-22.949,-34.180,-38.086,-46.387,-82.031
1688257729.023,-38.086,-40.527,-30.762,-47.852,-210.938
1688257729.027,-53.223,-38.086,-18.555,-24.902,61.035
1688257729.031,-54.688,-40.527,-14.648,-29.297,330.078
1688257729.035,-0.977,-31.250,-12.695,-25.879,-45.410
1688257729.037,28.320,-20.996,-13.184,-13.184,-145.996
1688257729.041,-8.301,-29.297,-21.973,-26.855,-71.289
1688257729.045,-58.594,-24.902,-31.738,-34.668,-151.367
1688257729.049,-70.312,-23.926,-40.039,-33.691,-149.902
1688257729.053,-22.461,-25.879,-33.691,-30.762,19.043
1688257729.057,2.441,-32.227,-27.832,-40.039,145.508
1688257729.061,-22.461,-37.598,-37.109,-50.293,8.301
1688257729.064,-60.547,-36.621,-37.109,-44.922,-124.512
1688257729.068,-63.477,-25.391,-23.926,-27.832,20.996
1688257729.072,-26.855,-21.484,-18.066,-23.438,196.777
1688257729.076,1.953,-20.996,-16.113,-30.762,-101.074
1688257729.080,-5.859,-22.461,-16.602,-41.504,-233.887
1688257729.082,-51.758,-39.551,-27.344,-51.758,-100.098
1688257729.086,-69.824,-33.203,-35.645,-38.086,5.859
1688257729.090,-25.879,-12.207,-30.273,-27.832,-81.055
1688257729.094,5.371,-15.625,-31.738,-43.945,-154.785
1688257729.098,-4.883,-25.391,-41.504,-53.711,-57.129
1688257729.102,-47.852,-28.809,-41.016,-45.410,35.156
1688257729.106,-81.055,-36.133,-36.133,-42.480,-22.461
1688257729.109,-52.734,-40.527,-34.668,-41.016,-70.801
1688257729.113,-12.207,-35.156,-31.738,-31.250,211.914
1688257729.117,-5.371,-23.438,-23.926,-29.297,237.305
1688257729.121,-31.738,-24.414,-23.926,-28.320,-185.547
1688257729.125,-63.477,-30.762,-30.762,-28.809,-145.996
1688257729.128,-38.574,-30.273,-26.855,-24.902,-14.160
1688257729.132,0.977,-28.809,-26.855,-36.133,-122.070
1688257729.136,2.441,-25.391,-25.391,-40.039,-258.789
1688257729.140,-17.578,-22.461,-15.137,-5.859,-104.980
1688257729.144,-49.316,-27.832,-19.043,14.648,121.582
1688257729.148,-42.480,-41.016,-22.949,-2.441,88.867
1688257729.152,-11.230,-52.734,-25.391,-32.715,-13.184
1688257729.155,-7.324,-43.945,-25.879,-49.316,-7.812
1688257729.159,-29.297,-32.715,-25.391,-44.434,141.602
1688257729.163,-57.129,-30.273,-27.832,-20.020,1.953
1688257729.167,-36.133,-21.484,-14.648,6.348,-97.656
1688257729.171,-1.465,-21.973,-16.113,-4.395,-102.051
1688257729.173,2.930,-30.762,-25.879,-19.531,-119.629
1688257729.177,-12.207,-22.461,-16.113,-11.719,-150.879
1688257729.181,-35.645,-9.277,-3.906,7.324,-116.211
1688257729.185,-40.039,-22.461,-10.742,6.348,10.742
1688257729.189,-20.508,-35.156,-23.926,-41.016,4.395
1688257729.193,-15.137,-35.156,-27.832,-71.289,-28.320
1688257729.197,-46.875,-40.039,-30.273,-68.359,-11.230
1688257729.200,-75.195,-41.016,-24.902,-32.715,263.672
1688257729.204,-62.500,-36.133,-20.020,0.488,482.422
1688257729.208,-21.973,-31.738,-24.414,-3.418,18.066
1688257729.212,-7.324,-30.762,-27.832,-32.227,-268.555
1688257729.216,-29.297,-36.133,-32.227,-54.199,-164.551
1688257729.217,-58.105,-38.086,-30.273,-44.434,-160.156
1688257729.221,-60.059,-32.715,-26.367,-31.738,-104.004
1688257729.225,-15.625,-16.113,-23.926,-28.320,-5.371
1688257729.229,19.043,-5.371,-14.648,-24.902,-110.840
1688257729.233,-4.395,-21.484,-19.531,-39.551,-196.289
1688257729.237,-51.270,-39.551,-29.785,-53.223,-110.840
1688257729.241,-66.406,-36.133,-28.320,-43.457,60.547
1688257729.244,-33.691,-31.250,-33.203,-40.039,92.285
1688257729.248,-1.953,-24.414,-38.574,-45.898,-26.367
1688257729.252,-7.324,-19.043,-31.250,-38.086,-184.570
1688257729.256,-51.270,-26.367,-36.621,-36.621,-53.711
1688257729.260,-80.566,-34.668,-40.527,-35.156,295.898
1688257729.262,-41.992,-32.227,-27.832,-35.645,59.082
1688257729.266,1.953,-19.043,-9.277,-35.156,-163.086
1688257729.270,0.977,-14.648,-7.812,-31.738,-168.945
1688257729.274,-38.574,-23.926,-33.203,-41.504,-157.227
1688257729.278,-82.520,-41.504,-47.852,-34.668,-88.379
1688257729.282,-55.176,-50.781,-41.992,-27.832,15.137
1688257729.286,-6.348,-40.039,-38.086,-38.574,305.664
1688257729.289,3.418,-25.879,-31.738,-43.457,244.141
1688257729.293,-24.902,-29.785,-24.414,-32.227,-133.789
1688257729.297,-58.105,-30.762,-24.414,-4.395,-132.812
1688257729.301,-40.039,-29.785,-26.367,8.789,78.613
1688257729.305,1.953,-28.320,-25.879,-17.090,62.500
1688257729.308,6.836,-20.996,-25.391,-44.434,-250.977
1688257729.312,-28.320,-22.461,-25.879,-36.133,-223.145
1688257729.316,-49.316,-22.461,-20.020,-13.672,-3.906
1688257729.320,-26.367,-18.555,-16.113,-3.906,-44.434
1688257729.324,0.000,-20.996,-21.484,-23.926,-196.777
1688257729.328,-5.859,-32.227,-29.297,-53.223,-3.418
1688257729.332,-55.664,-37.598,-39.551,-62.012,105.469
1688257729.335,-93.750,-44.434,-39.062,-49.316,-142.090
1688257729.339,-76.172,-40.527,-34.668,-32.227,-166.992
1688257729.343,-27.344,-32.715,-35.156,-28.809,25.391
1688257729.347,9.277,-26.367,-27.344,-20.996,92.773
1688257729.351,-1.953,-18.066,-21.484,-13.672,-165.039
1688257729.367,-52.246,-28.809,-31.250,-23.438,-164.062
1688257729.371,-63.965,-32.227,-44.922,-22.461,60.547
1688257729.375,-30.762,-31.250,-40.039,-35.156,44.922
1688257729.379,-23.438,-34.180,-31.250,-52.246,-145.508
1688257729.383,-28.809,-29.297,-22.949,-38.086,-220.703
1688257729.387,-54.199,-31.250,-20.508,-19.043,0.000
1688257729.391,-73.730,-37.598,-29.297,-4.395,115.234
1688257729.394,-33.691,-30.273,-21.484,-5.371,-37.598
1688257729.398,-16.113,-28.320,-26.367,-44.434,-154.785
1688257729.402,-32.715,-36.621,-43.457,-67.871,69.824
1688257729.406,-59.082,-31.250,-43.945,-46.875,159.180
1688257729.410,-59.082,-19.531,-36.133,-14.648,-132.324
1688257729.413,-17.578,-18.555,-24.902,-15.137,-122.070
1688257729.417,0.488,-19.043,-22.461,-39.062,-121.582
1688257729.421,-16.602,-27.344,-26.855,-53.711,-229.980
1688257729.425,-50.781,-32.715,-31.250,-43.457,-222.168
1688257729.429,-70.801,-33.691,-33.203,-27.344,23.438
1688257729.433,-43.457,-31.738,-31.250,-31.250,173.340
1688257729.437,-4.395,-30.273,-25.391,-34.180,16.113
1688257729.440,0.488,-32.715,-20.508,-23.438,-181.641
1688257729.444,-31.250,-19.043,-15.625,-9.277,-64.453
1688257729.448,-59.570,-17.090,-18.555,-1.953,234.863
1688257729.452,-30.762,-20.020,-19.043,2.930,96.191
1688257729.456,2.930,-15.625,-19.531,-11.719,-129.395
1688257729.458,-13.672,-17.090,-33.203,-33.203,-158.691
1688257729.462,-49.316,-27.832,-42.480,-39.551,-112.305
1688257729.466,-66.406,-32.715,-40.527,-34.180,-92.773
1688257729.470,-38.574,-41.992,-32.715,-33.203,12.695
1688257729.474,-3.418,-55.664,-33.203,-43.945,28.320
1688257729.478,-11.230,-51.270,-35.156,-53.223,-80.078
1688257729.482,-46.387,-42.480,-24.414,-54.199,-57.617
1688257729.485,-70.801,-37.598,-20.996,-37.109,-33.203
1688257729.489,-60.547,-32.227,-20.996,-15.137,262.695
1688257729.493,-12.207,-24.902,-24.902,-18.555,507.812
1688257729.497,13.184,-16.602,-27.832,-41.504,8.301
1688257729.501,-19.043,-13.672,-23.438,-47.363,-232.910
1688257729.502,-54.199,-26.855,-29.785,-35.156,-99.121
1688257729.506,-52.734,-42.969,-30.273,-23.926,-61.523
1688257729.510,-35.645,-47.363,-22.461,-29.785,-168.945
1688257729.514,-23.438,-41.504,-21.973,-43.457,-194.824
1688257729.518,-30.762,-36.133,-25.879,-31.738,-118.652
1688257729.522,-65.430,-38.574,-18.066,-2.441,-33.203
1688257729.526,-74.219,-38.574,-14.160,-1.465,61.035
1688257729.529,-52.734,-32.715,-19.531,-21.484,96.680
1688257729.533,-31.738,-37.109,-27.832,-42.480,160.645
1688257729.537,-41.504,-38.086,-42.969,-61.035,-65.918
1688257729.541,-73.730,-29.297,-35.156,-45.410,-225.098
1688257729.545,-53.711,-25.879,-20.996,-18.066,5.371
1688257729.548,-13.184,-25.879,-20.508,-23.438,31.250
1688257729.552,-0.977,-32.715,-27.832,-54.688,-166.016
1688257729.556,-9.277,-33.203,-32.227,-62.988,-197.266
1688257729.560,-60.059,-32.715,-27.344,-36.133,-131.348
1688257729.564,-66.406,-32.715,-23.438,-8.789,-30.273
1688257729.568,-22.949,-23.926,-23.926,-22.461,61.523
1688257729.572,-34.180,-24.902,-31.250,-39.551,12.207
1688257729.575,-39.062,-40.039,-36.621,-29.297,291.016
1688257729.579,-44.434,-34.668,-35.156,-16.602,404.785
1688257729.583,-79.102,-22.461,-33.203,-2.930,-5.859
1688257729.587,-32.715,-30.273,-29.785,-14.648,-66.406
1688257729.591,42.480,-33.691,-26.367,-37.109,-12.207
1688257729.592,7.812,-31.738,-25.391,-51.758,-163.574
1688257729.596,-44.922,-38.574,-28.809,-45.410,-250.977
1688257729.600,-30.762,-35.156,-31.250,-14.160,-9.277
1688257729.604,-1.953,-29.785,-35.156,-14.648,165.527
1688257729.608,24.902,-38.086,-42.480,-47.852,-55.176
1688257729.612,4.883,-47.363,-48.340,-85.449,-167.480
1688257729.616,-56.152,-41.992,-46.875,-82.520,142.090
1688257729.619,-80.078,-33.691,-43.457,-50.293,295.410
1688257729.623,-43.945,-33.691,-34.668,-35.645,-8.789
1688257729.627,9.277,-26.855,-19.531,-18.066,-162.598
1688257729.631,1.465,-15.625,-20.996,-13.672,-82.520
1688257729.635,-37.598,-20.996,-29.785,-33.691,-87.402
1688257729.638,-64.453,-21.484,-29.785,-38.574,-175.293
1688257729.642,-43.945,-20.996,-21.973,-18.066,-95.703
1688257729.646,-11.719,-31.738,-18.555,-16.113,17.090
1688257729.650,-17.090,-35.645,-20.508,-24.902,-103.027
1688257729.654,-37.598,-29.297,-23.926,-20.020,-207.520
1688257729.658,-61.523,-30.273,-20.996,-2.441,-36.621
1688257729.662,-52.734,-39.551,-25.391,-6.348,309.570
1688257729.665,-15.137,-42.969,-37.598,-30.762,256.348
1688257729.669,-3.906,-29.785,-35.645,-40.527,-125.000
1688257729.673,-31.738,-13.672,-32.715,-55.664,-197.266
1688257729.677,-55.664,-17.090,-40.039,-51.758,36.133
1688257729.681,-50.781,-20.020,-38.574,-23.438,99.121
1688257729.683,-6.348,-10.742,-22.461,-15.137,-143.555
1688257729.687,4.883,-18.066,-18.555,-28.809,-190.430
1688257729.691,-40.039,-41.504,-36.133,-48.340,-190.918
1688257729.695,-81.055,-37.109,-40.527,-48.340,-181.152
1688257729.699,-63.477,-25.879,-29.785,-32.227,-93.262
1688257729.703,-6.836,-28.320,-16.602,-31.738,8.301
1688257729.707,-1.465,-21.973,-16.113,-45.410,332.520
1688257729.710,-10.254,-13.672,-23.926,-33.203,115.723
1688257729.714,-28.320,-13.672,-28.320,-5.859,-242.676
1688257729.718,-44.434,-15.137,-26.367,0.000,-74.707
1688257729.722,0.977,-20.996,-19.043,-5.371,-58.105
1688257729.726,22.949,-27.832,-14.648,-28.809,-210.938
1688257729.743,0.488,-21.973,-16.602,-44.434,-218.262
1688257729.747,-44.434,-28.320,-29.785,-33.691,-41.016
1688257729.751,-75.195,-39.062,-44.434,-28.809,46.387
1688257729.755,-39.062,-25.879,-41.992,-25.391,-89.355
1688257729.759,0.000,-20.996,-32.715,-26.855,-163.086
1688257729.763,-21.484,-34.180,-33.203,-46.387,-10.254
1688257729.767,-62.012,-25.391,-43.457,-47.852,34.668
1688257729.770,-60.547,-12.695,-38.086,-13.672,15.625
1688257729.774,-28.809,-20.508,-31.738,-16.602,21.484
1688257729.778,-4.395,-26.367,-37.109,-57.617,144.043
1688257729.782,1.465,-16.602,-23.438,-62.500,264.160
1688257729.786,-43.945,-11.719,-16.602,-46.387,-58.105
1688257729.803,-80.078,-25.879,-28.809,-36.621,-93.262
1688257729.807,-30.762,-38.574,-32.227,-22.461,6.348
1688257729.811,11.230,-26.855,-27.832,-25.879,-124.023
1688257729.815,1.465,-27.344,-24.414,-33.203,-208.984
1688257729.819,-30.273,-36.133,-20.020,-27.344,-165.527
1688257729.823,-60.547,-27.344,-22.461,-19.531,16.602
1688257729.827,-46.387,-18.555,-34.668,-15.137,84.473
1688257729.830,1.953,-19.043,-38.086,-25.879,-128.418
1688257729.834,9.277,-18.555,-24.902,-30.273,-121.582
1688257729.838,-36.621,-23.926,-18.555,-16.602,306.152
1688257729.842,-68.359,-26.367,-16.113,-5.371,126.465
1688257729.846,-49.316,-28.320,-24.902,-25.391,-139.160
1688257729.833,-10.742,-34.668,-43.457,-62.500,-122.559
1688257729.837,8.789,-26.855,-41.992,-73.242,-213.867
1688257729.841,-17.578,-20.508,-31.738,-54.199,-280.273
1688257729.845,-57.129,-28.809,-29.785,-31.738,-166.016
1688257729.849,-58.105,-40.527,-29.785,-20.508,-19.043
1688257729.853,-18.066,-36.621,-25.391,-32.715,62.988
1688257729.857,-6.348,-27.832,-21.484,-49.316,-16.602
1688257729.860,-40.039,-44.434,-31.738,-47.852,-30.273
1688257729.864,-75.684,-43.457,-43.945,-19.531,74.707
1688257729.868,-85.938,-24.414,-41.992,-0.977,34.180
1688257729.872,-47.363,-22.461,-43.457,-33.691,23.438
1688257729.876,-15.137,-24.414,-39.062,-62.012,-47.363
1688257729.877,-25.391,-38.574,-27.344,-57.129,161.133
1688257729.881,-56.641,-41.504,-18.066,-43.457,393.066
1688257729.885,-56.152,-33.691,-20.508,-29.297,54.199
1688257729.889,-12.695,-33.691,-21.484,-33.691,-119.629
1688257729.893,1.953,-32.227,-23.926,-33.203,-108.398
1688257729.897,-13.184,-30.273,-32.227,-29.785,-177.734
1688257729.901,-39.551,-22.461,-29.297,-15.625,-103.516
1688257729.904,-51.270,-14.648,-27.344,5.371,119.629
1688257729.908,-22.949,-22.949,-33.203,-5.371,250.977
1688257729.912,0.977,-32.715,-28.320,-28.320,-84.473
1688257729.916,-2.930,-27.832,-20.020,-48.828,-293.457
1688257729.920,-41.016,-17.090,-14.648,-39.062,-138.672
1688257729.923,-63.965,-28.320,-14.648,-9.277,-49.316
1688257729.927,-38.086,-42.480,-24.902,-19.531,-104.980
1688257729.931,-3.418,-33.691,-31.738,-39.551,-127.930
1688257729.935,-9.277,-24.902,-33.203,-34.668,-90.332
1688257729.939,-41.504,-25.879,-23.926,-21.973,-55.176
1688257729.943,-61.035,-29.785,-22.461,1.465,-26.367
1688257729.947,-41.992,-37.598,-33.203,-4.395,-61.035
1688257729.950,-4.395,-37.109,-40.527,-20.508,210.449
1688257729.954,0.000,-29.785,-38.574,-3.418,318.848
1688257729.958,-41.992,-28.809,-27.832,-14.160,-171.387
1688257729.962,-85.938,-31.250,-24.902,-34.180,-172.363
1688257729.966,-44.922,-31.738,-22.461,-37.109,-33.203
1688257729.968,14.648,-26.367,-29.785,-46.875,-166.992
1688257729.972,8.301,-18.066,-27.344,-43.457,-226.562
1688257729.976,-23.926,-19.531,-17.578,-26.367,-124.512
1688257729.980,-57.617,-23.438,-18.555,-6.348,-20.508
1688257729.984,-42.969,-27.832,-27.832,-13.184,13.672
1688257729.988,2.930,-25.879,-35.156,-36.621,-32.715
1688257729.992,6.836,-30.762,-31.738,-31.250,-1.953
1688257729.995,-25.879,-33.203,-27.832,-12.695,319.336
1688257729.999,-74.219,-34.180,-29.785,-16.602,167.480
1688257730.003,-66.406,-38.574,-34.180,-24.902,-112.793
1688257730.007,-16.113,-35.156,-37.109,-25.391,-101.562
1688257730.011,-11.230,-34.180,-35.156,-60.059,-185.547
1688257730.012,-44.434,-35.156,-36.133,-72.266,-252.441
1688257730.016,-71.289,-32.227,-30.273,-32.227,-170.898
1688257730.020,-47.363,-30.273,-25.391,-7.812,-48.828
1688257730.024,3.906,-36.133,-31.738,-21.484,-44.922
1688257730.028,15.625,-37.109,-33.203,-42.969,-165.039
1688257730.032,-21.973,-37.598,-38.574,-53.711,-134.277
1688257730.036,-64.453,-32.227,-39.062,-26.855,113.770
1688257730.039,-56.641,-20.020,-33.203,-2.441,119.629
1688257730.043,-22.949,-24.414,-26.855,-22.461,5.371
1688257730.047,-14.648,-29.297,-22.949,-32.227,-52.246
1688257730.051,-20.508,-30.762,-19.043,-31.250,142.090
1688257730.055,-53.711,-33.203,-23.438,-25.879,339.355
1688257730.058,-62.988,-21.973,-31.250,-14.648,31.738
1688257730.062,-13.672,-19.043,-29.297,-20.020,-137.207
1688257730.066,18.555,-19.043,-23.438,-26.855,-169.434
1688257730.070,11.230,-17.578,-12.695,-19.531,-233.398
1688257730.074,-41.016,-27.832,-16.113,-23.438,-171.875
1688257730.078,-86.426,-40.039,-41.016,-39.062,141.113
1688257730.082,-67.871,-44.922,-52.734,-57.617,276.367
1688257730.085,-29.297,-41.504,-39.062,-64.453,-63.965
1688257730.089,-25.391,-36.621,-24.902,-57.617,-251.465
1688257730.093,-48.340,-30.273,-21.484,-37.109,46.387
1688257730.097,-60.547,-19.043,-17.090,-0.488,226.562
1688257730.101,-12.207,-13.184,-4.883,8.789,-63.965
1688257730.133,33.203,-16.602,-1.465,-7.812,-176.270
1688257730.137,6.348,-20.996,-20.508,-32.715,-166.504
1688257730.141,-42.480,-29.785,-30.762,-43.457,-153.320
1688257730.145,-66.406,-30.762,-31.738,-33.691,-143.555
1688257730.149,-40.527,-31.250,-32.227,-22.461,-48.340
1688257730.153,10.254,-32.227,-22.949,-16.113,94.727
1688257730.157,12.695,-24.414,-21.484,-23.926,84.473
1688257730.160,-42.969,-26.367,-28.320,-44.434,-26.855
1688257730.164,-86.426,-31.738,-32.715,-42.480,-23.438
1688257730.168,-57.617,-28.809,-31.250,-25.879,18.555
1688257730.172,2.930,-21.973,-23.438,-19.531,-124.023
1688257730.176,6.836,-15.137,-18.066,-18.066,-197.754
1688257730.162,-20.508,-18.555,-20.996,-19.531,-118.164
1688257730.166,-46.875,-22.949,-17.578,-3.418,265.625
1688257730.170,-41.504,-24.414,-20.020,0.000,408.203
1688257730.174,-3.906,-31.250,-36.133,-27.344,-55.176
1688257730.178,2.930,-39.551,-42.480,-51.270,-167.969
1688257730.182,-22.949,-40.527,-39.551,-46.387,-32.715
1688257730.186,-47.363,-29.785,-28.809,-13.184,7.812
1688257730.189,-41.992,-40.527,-30.762,0.000,-27.344
1688257730.193,-5.371,-49.316,-41.504,-18.555,-13.672
1688257730.197,0.488,-47.363,-48.828,-40.527,-59.082
1688257730.201,-20.020,-36.621,-41.016,-37.598,-194.336
1688257730.205,-43.457,-22.949,-19.043,-7.324,-182.617
1688257730.208,-41.992,-29.785,-15.625,18.066,114.746
1688257730.212,-12.207,-43.945,-21.973,8.789,235.352
1688257730.216,-5.859,-49.316,-29.297,-22.461,-58.105
1688257730.220,-18.555,-41.504,-30.762,-32.227,-162.598
1688257730.224,-64.453,-38.086,-32.715,-38.574,-49.316
1688257730.228,-72.266,-36.133,-29.785,-41.992,144.531
1688257730.232,-9.277,-33.691,-21.484,-25.879,58.105
1688257730.235,34.668,-25.879,-14.160,-5.371,-153.320
1688257730.239,20.508,-20.508,-6.348,5.859,93.262
1688257730.243,-42.480,-39.062,-23.926,-11.719,298.828
1688257730.247,-65.918,-42.969,-35.156,-14.160,-71.289
1688257730.251,-31.738,-39.551,-27.344,-30.762,-209.961
1688257730.253,-8.789,-43.457,-22.461,-57.129,-168.945
1688257730.257,-23.438,-38.086,-26.367,-61.523,-252.441
1688257730.261,-56.152,-30.273,-23.926,-48.340,-233.398
1688257730.265,-53.223,-21.484,-4.883,-4.883,-41.504
1688257730.269,-20.996,-28.809,-8.789,16.113,33.203
1688257730.273,0.977,-33.691,-24.902,-0.977,-28.809
1688257730.277,-15.137,-40.527,-29.785,-27.344,-67.871
1688257730.280,-54.688,-47.852,-25.391,-29.297,54.688
1688257730.284,-81.543,-37.109,-26.367,-7.812,307.617
1688257730.288,-59.082,-31.250,-39.551,-25.879,83.984
1688257730.292,-26.855,-36.621,-49.316,-54.199,-191.406
1688257730.296,-7.812,-35.645,-32.715,-51.270,-154.785
1688257730.297,-22.461,-21.973,-19.043,-42.480,-198.242
1688257730.301,-67.383,-15.137,-34.668,-42.969,-173.340
1688257730.305,-46.875,-19.043,-42.969,-42.969,-77.148
1688257730.309,0.488,-18.066,-31.250,-59.082,-78.125
1688257730.313,10.254,-21.484,-29.297,-80.566,-154.785
1688257730.317,-21.484,-31.250,-36.133,-74.707,-104.004
1688257730.321,-59.082,-36.133,-43.945,-54.688,1.953
1688257730.324,-40.039,-33.691,-37.598,-33.691,313.965
1688257730.328,2.441,-30.762,-21.973,-25.879,437.500
1688257730.332,5.371,-32.715,-25.391,-24.902,-62.012
1688257730.336,-23.926,-32.227,-22.949,-20.508,-275.879
1688257730.340,-66.895,-31.250,-14.648,-4.883,-77.637
1688257730.342,-64.453,-26.855,-24.414,-8.789,-99.121
1688257730.346,-26.367,-30.273,-38.574,-40.039,-224.609
1688257730.350,-20.996,-41.992,-39.551,-60.547,-184.570
1688257730.354,-43.945,-39.062,-38.086,-59.570,-136.230
1688257730.358,-81.055,-35.156,-37.109,-45.410,-126.465
1688257730.362,-83.008,-31.738,-33.203,-36.621,-76.172
1688257730.366,-33.203,-29.785,-30.273,-38.574,138.184
1688257730.369,11.719,-24.902,-20.508,-26.367,186.523
1688257730.373,2.930,-20.508,-14.160,-1.953,-154.785
1688257730.377,-57.129,-36.621,-28.809,-6.348,-229.980
1688257730.381,-78.613,-54.688,-47.852,-30.273,99.121
1688257730.385,-33.203,-55.664,-52.734,-36.621,106.445
1688257730.387,-1.953,-47.363,-43.945,-38.574,-191.895
1688257730.391,-19.531,-40.527,-34.180,-37.109,-217.285
1688257730.395,-48.340,-22.949,-18.066,-14.160,-28.320
1688257730.399,-55.664,-20.996,-11.230,3.418,39.551
1688257730.403,-32.227,-42.480,-27.832,-22.461,-64.453
1688257730.407,-6.348,-44.922,-30.273,-48.828,-107.422
1688257730.411,-11.719,-30.273,-26.855,-30.273,155.762
1688257730.414,-41.016,-23.438,-29.297,-9.766,274.902
1688257730.418,-59.570,-30.762,-32.227,-5.371,-38.574
1688257730.422,-22.949,-32.227,-33.691,-18.555,-103.027
1688257730.426,14.160,-20.508,-28.320,-42.480,-25.391
1688257730.430,-4.395,-25.391,-24.902,-57.129,-80.566
1688257730.433,-52.734,-31.738,-31.738,-51.758,-117.188
1688257730.437,-79.590,-33.691,-28.809,-25.391,30.762
1688257730.441,-41.504,-39.062,-18.066,-13.184,96.680
1688257730.445,-3.906,-35.645,-18.066,-27.344,-67.871
1688257730.449,-13.672,-33.203,-27.832,-44.434,-273.926
1688257730.453,-53.223,-31.250,-38.574,-42.969,-21.484
1688257730.457,-79.590,-21.973,-34.668,-20.996,319.336
1688257730.460,-39.062,-7.812,-22.949,3.906,67.871
1688257730.464,-0.977,-8.301,-27.344,-18.555,-191.895
1688257730.468,-18.066,-27.344,-37.109,-56.152,-54.199
1688257730.472,-51.270,-36.621,-27.344,-46.875,21.484
1688257730.476,-65.918,-34.180,-19.531,-28.320,-114.746
1688257730.492,-31.738,-28.809,-27.832,-21.484,-78.613
1688257730.496,-3.418,-36.621,-41.992,-37.598,-105.469
1688257730.500,-3.906,-32.227,-36.621,-44.434,-182.129
1688257730.504,-26.367,-14.648,-28.809,-42.480,-177.246
1688257730.508,-64.453,-9.277,-29.785,-26.367,-161.133
1688257730.512,-52.734,-14.648,-20.996,-13.672,249.023
1688257730.516,-8.301,-30.762,-23.926,-41.016,405.273
1688257730.519,4.395,-40.527,-38.086,-53.223,-71.289
1688257730.523,-13.184,-32.715,-40.527,-34.180,-225.098
1688257730.527,-64.453,-29.785,-28.809,-24.414,145.996
1688257730.531,-77.148,-34.668,-21.973,-31.738,265.625
1688257730.535,-22.461,-35.156,-27.832,-30.273,-130.371
1688257730.537,1.465,-29.785,-21.484,-25.879,-243.652
1688257730.541,-19.531,-26.367,-14.160,-19.531,-190.430
1688257730.545,-61.523,-33.691,-24.902,-12.695,-160.645
1688257730.549,-62.988,-39.551,-32.227,-11.230,-89.355
1688257730.553,-16.113,-43.457,-30.762,-28.809,-25.391
1688257730.557,6.348,-36.621,-27.832,-45.898,-25.879
1688257730.561,-3.906,-26.855,-24.902,-40.527,-35.156
1688257730.564,-32.227,-20.020,-14.648,-20.996,15.625
1688257730.568,-48.828,-24.414,-16.602,-3.418,194.336
1688257730.572,-10.254,-34.668,-25.391,-3.906,236.328
1688257730.576,26.855,-20.996,-12.695,-10.254,-105.469
1688257730.580,10.742,-16.113,-18.066,-21.973,-323.242
1688257730.582,-48.828,-38.574,-40.527,-28.809,-4.395
1688257730.586,-82.031,-47.363,-40.039,-18.066,260.254
1688257730.590,-31.738,-37.598,-23.438,-13.184,-27.832
1688257730.594,10.742,-27.832,-13.672,-24.414,-183.105
1688257730.598,-13.672,-40.527,-26.367,-44.434,-142.578
1688257730.602,-59.570,-43.457,-34.668,-49.316,-20.020
1688257730.606,-84.473,-35.156,-31.250,-36.133,22.461
1688257730.609,-43.945,-30.762,-24.414,-19.531,-94.727
1688257730.613,1.953,-27.832,-21.973,-26.367,124.023
1688257730.617,-10.254,-34.668,-28.809,-33.691,367.188
1688257730.621,-48.828,-42.969,-31.738,-28.320,1.953
1688257730.625,-71.289,-46.387,-24.414,-5.371,-185.059
1688257730.627,-49.316,-46.387,-29.297,-13.672,-126.465
1688257730.631,-19.531,-44.922,-40.527,-55.176,-196.289
1688257730.635,-31.738,-33.203,-41.992,-71.777,-261.719
1688257730.639,-67.383,-27.344,-50.781,-53.711,-201.660
1688257730.643,-83.008,-23.926,-42.969,-19.531,-68.848
1688257730.647,-47.852,-25.391,-18.066,10.742,20.020
1688257730.651,-2.441,-29.297,-15.625,-16.113,-50.293
1688257730.654,-7.812,-36.133,-38.086,-66.406,-14.648
1688257730.658,-53.223,-58.105,-42.969,-57.617,108.887
1688257730.662,-65.430,-62.988,-18.066,-3.906,-0.977
1688257730.666,-35.645,-38.574,-27.832,9.277,-47.363
1688257730.670,-14.648,-20.996,-52.246,-37.598,7.324
1688257730.672,-27.344,-30.762,-55.176,-82.520,-83.008
1688257730.676,-42.480,-29.785,-37.598,-67.871,-247.070
1688257730.680,-75.684,-27.344,-24.414,-45.410,-132.324
1688257730.684,-97.168,-33.203,-47.363,-69.824,58.594
1688257730.688,-34.180,-25.879,-39.551,-70.312,20.996
1688257730.692,-9.277,-23.926,-23.926,-70.801,-54.688
1688257730.696,-55.176,-28.809,-38.086,-89.844,-60.059
1688257730.699,-106.445,-25.879,-50.293,-80.566,233.398
1688257730.703,-107.422,-19.043,-55.664,-65.918,359.375
1688257730.707,-54.199,-14.160,-51.758,-94.727,-95.215
1688257730.711,-40.039,-29.297,-54.688,-116.211,-213.379
1688257730.715,-64.941,-32.715,-61.035,-106.445,-180.664
1688257730.718,-99.609,-25.879,-61.523,-76.172,-163.086
1688257730.722,-120.605,-40.527,-66.406,-74.219,-77.637
1688257730.726,-50.781,-29.785,-47.852,-67.383,-94.238
1688257730.730,23.926,1.953,-13.184,-28.320,-69.336
1688257730.734,-20.996,-20.020,-27.344,-61.035,-188.965
1688257730.738,-96.191,-44.922,-47.852,-79.590,-184.082
1688257730.742,-105.957,-50.293,-40.039,-56.152,134.277
1688257730.745,-34.668,-32.227,-20.996,-41.504,290.039
1688257730.749,15.625,-7.812,-13.184,-38.086,-58.105
1688257730.753,-12.695,-30.273,-33.203,-57.617,-217.773
1688257730.757,-41.016,-37.598,-24.902,-31.250,-102.051
1688257730.761,-70.312,-31.738,-35.645,-24.902,-46.387
1688257730.762,-42.969,-26.367,-43.457,-36.133,-25.879
1688257730.766,19.531,-5.859,-11.230,-26.855,-92.285
1688257730.770,17.578,8.789,-2.930,-35.645,-156.250
1688257730.774,-53.223,-28.320,-43.945,-74.219,-83.984
1688257730.778,-112.305,-62.012,-72.754,-87.402,-57.617
1688257730.782,-79.102,-46.387,-49.316,-67.383,-22.461
1688257730.786,-23.438,-34.180,-35.645,-63.477,276.367
1688257730.789,-0.977,-27.344,-15.625,-41.016,589.355
1688257730.793,-19.043,-21.484,-0.977,-16.602,164.551
1688257730.797,-56.641,-28.809,-20.020,-4.883,-122.559
1688257730.801,-37.598,-26.855,-25.391,-3.906,-3.418
1688257730.805,-3.418,-26.855,-30.273,-37.598,-144.531
1688257730.808,-4.883,-35.156,-43.457,-53.223,-280.762
1688257730.812,-41.504,-35.645,-53.711,-44.922,-129.883
1688257730.816,-80.078,-36.621,-48.340,-27.344,55.664
1688257730.820,-50.293,-30.273,-29.785,-10.254,-75.195
1688257730.824,1.465,-23.926,-18.555,-15.625,-201.172
1688257730.828,4.883,-25.391,-18.066,-33.203,-9.277
1688257730.832,-21.973,-24.902,-20.996,-30.273,104.492
1688257730.835,-55.664,-21.484,-26.855,-18.066,-33.691
1688257730.839,-50.781,-23.926,-30.273,-12.695,-92.285
1688257730.843,-5.371,-27.344,-27.344,-15.625,12.207
1688257730.847,14.160,-16.602,-13.184,-20.996,122.559
1688257730.851,-23.438,-19.531,-19.043,-32.227,-131.348
1688257730.868,-78.613,-40.039,-42.969,-37.109,-183.594
1688257730.872,-52.246,-36.133,-44.922,-12.207,-59.082
1688257730.876,2.441,-15.137,-24.902,-15.137,-48.828
1688257730.880,-22.461,-27.832,-29.785,-70.312,-178.223
1688257730.884,-63.965,-43.945,-43.945,-79.590,-232.422
1688257730.888,-83.984,-40.527,-33.203,-38.574,-12.695
1688257730.892,-73.242,-32.715,-20.996,-13.184,151.855
1688257730.895,-23.926,-24.414,-16.602,-32.227,55.664
1688257730.899,1.953,-22.949,-8.789,-50.293,-88.867
1688257730.903,-13.184,-28.320,-13.184,-44.434,149.414
1688257730.907,-46.387,-24.902,-26.855,-29.297,370.117
1688257730.911,-52.246,-22.949,-15.137,0.977,31.250
1688257730.912,0.488,-23.926,-6.348,9.766,-97.656
1688257730.916,11.230,-36.621,-30.762,-31.738,-68.359
1688257730.920,-34.668,-50.293,-53.223,-63.965,-205.566
1688257730.924,-63.477,-36.621,-36.133,-42.969,-249.023
1688257730.928,-66.406,-23.438,-23.926,-23.438,2.930
1688257730.932,-39.551,-27.832,-30.762,-38.086,181.641
1688257730.936,-30.273,-44.434,-44.922,-69.336,-9.277
1688257730.939,-31.250,-38.086,-42.480,-59.082,-210.449
1688257730.943,-50.293,-29.785,-23.926,-32.715,-69.336
1688257730.947,-75.195,-33.203,-25.879,-21.484,225.098
1688257730.951,-29.785,-24.414,-23.926,-4.395,11.719
1688257730.955,2.930,-16.113,-32.227,-28.320,-158.203
1688257730.972,-12.207,-12.207,-37.109,-44.922,-46.875
1688257730.976,-47.852,-19.043,-35.156,-45.410,-56.152
1688257730.980,-103.027,-46.387,-55.664,-52.246,-144.043
1688257730.984,-92.773,-57.129,-66.406,-58.594,-65.430
1688257730.988,-28.809,-37.109,-40.527,-55.664,-68.359
1688257730.992,3.418,-20.996,-9.766,-23.926,-84.961
1688257730.996,-13.184,-16.113,0.488,5.859,-24.902
1688257730.999,-70.312,-26.367,-31.250,5.859,-32.227
1688257731.003,-69.336,-44.434,-58.594,-7.324,244.629
1688257731.007,-28.320,-40.527,-52.246,-53.223,354.980
1688257731.011,-27.832,-22.461,-41.016,-88.867,-135.254
1688257731.015,-37.598,-16.602,-33.203,-83.496,-226.562
1688257731.003,-57.617,-21.484,-29.297,-55.176,-70.312
1688257731.007,-19.043,-8.301,-9.277,-17.090,-14.648
1688257731.011,45.898,-0.977,3.906,-15.137,-126.953
1688257731.015,40.039,-12.207,-22.461,-47.363,-166.992
1688257731.019,-19.043,-31.250,-56.152,-75.195,-38.086
1688257731.023,-70.801,-46.875,-64.941,-74.707,-13.672
1688257731.027,-52.734,-30.273,-40.039,-37.598,-22.949
1688257731.030,9.277,-4.883,-6.348,-13.672,16.602
1688257731.034,12.695,-16.602,-20.020,-47.852,-48.828
1688257731.038,-26.367,-22.949,-27.832,-48.828,-154.785
1688257731.042,-73.242,-29.785,-29.297,-28.320,-158.691
1688257731.046,-91.309,-45.898,-36.133,-12.695,122.559
1688257731.047,-43.457,-36.621,-24.902,-4.883,336.426
1688257731.051,-14.160,-33.203,-24.902,-20.508,-64.453
1688257731.055,-10.742,-28.320,-10.742,-12.207,-264.648
1688257731.059,-41.016,-28.320,-11.230,-5.371,-107.910
1688257731.063,-80.566,-29.785,-40.039,-26.367,3.906
1688257731.067,-44.434,-23.438,-34.668,-38.086,-29.785
1688257731.071,-16.113,-38.086,-39.551,-55.664,-29.785
1688257731.074,-31.250,-41.016,-46.875,-56.641,127.441
1688257731.078,-63.965,-36.621,-32.715,-35.156,387.207
1688257731.082,-79.590,-41.504,-27.344,-6.836,171.875
1688257731.086,-25.879,-33.691,-22.949,0.977,-148.926
1688257731.090,3.418,-18.555,-28.809,-35.645,-204.102
1688257731.093,-21.484,-3.418,-31.738,-57.617,-286.133
1688257731.097,-56.641,-8.789,-30.762,-46.875,-277.832
1688257731.101,-73.242,-11.719,-21.973,-9.277,-29.297
1688257731.105,-36.133,-8.789,-16.602,-12.207,73.730
1688257731.109,-23.438,-36.621,-37.109,-60.547,-77.637
1688257731.113,-36.621,-44.922,-41.992,-69.336,-93.262
1688257731.117,-48.828,-22.949,-24.902,-38.086,51.758
1688257731.120,-63.477,-21.484,-20.020,-5.859,415.039
1688257731.124,-45.898,-39.062,-29.297,-20.996,249.512
1688257731.128,-15.625,-45.898,-36.621,-49.316,-187.012
1688257731.132,-14.160,-40.039,-42.480,-49.316,-175.293
1688257731.136,-26.855,-13.672,-28.809,-33.691,-142.090
1688257731.137,-70.801,-21.973,-31.738,-28.320,-137.695
1688257731.141,-69.336,-41.992,-46.875,-37.109,-122.070
1688257731.145,-13.184,-34.180,-40.527,-40.527,-154.297
1688257731.149,-4.883,-32.715,-30.273,-43.945,-189.453
1688257731.153,-34.180,-27.344,-27.832,-47.363,-140.625
1688257731.157,-68.848,-30.762,-37.598,-38.086,23.926
1688257731.161,-59.082,-28.809,-40.527,-33.203,387.207
1688257731.164,-9.277,-14.648,-39.062,-41.016,410.156
1688257731.168,20.020,-12.207,-22.461,-20.996,-49.805
1688257731.172,-9.277,-24.414,-16.602,-17.578,-234.863
1688257731.176,-66.406,-36.621,-36.133,-26.367,83.496
1688257731.180,-54.688,-29.297,-34.180,-16.602,258.301
1688257731.182,8.789,-13.672,-14.160,-18.066,-155.762
1688257731.186,5.371,-36.621,-24.902,-51.758,-277.344
1688257731.190,-35.156,-44.922,-36.133,-66.895,-243.652
1688257731.194,-66.895,-23.926,-34.180,-43.457,-224.609
1688257731.198,-59.570,-21.973,-19.531,-12.695,-183.105
1688257731.202,-6.348,-20.508,-7.324,-2.441,-20.996
1688257731.206,14.648,-17.578,-16.602,-14.160,71.777
1688257731.209,-14.160,-39.062,-37.598,-38.086,-86.914
1688257731.213,-34.668,-42.969,-20.996,-20.020,-119.141
1688257731.217,-32.227,-28.320,-8.789,5.371,114.746
1688257731.221,-22.949,-30.273,-41.992,-25.879,149.902
1688257731.225,-2.441,-15.137,-46.387,-45.410,-65.430
1688257731.242,-19.043,-12.207,-34.668,-51.270,-190.918
1688257731.246,-74.219,-36.621,-42.480,-59.082,-93.750
1688257731.250,-97.168,-52.246,-50.781,-58.105,83.496
1688257731.254,-36.621,-39.062,-30.273,-35.645,-55.176
1688257731.258,1.953,-37.109,-29.785,-42.480,-214.844
1688257731.262,-14.648,-34.180,-38.086,-57.617,-61.035
1688257731.266,-48.828,-29.297,-36.621,-45.898,32.227
1688257731.269,-45.898,-17.090,-10.742,-2.441,36.621
1688257731.273,7.812,-14.648,11.719,28.320,-53.711
1688257731.277,19.043,-30.762,-16.602,1.465,85.938
1688257731.281,-27.832,-36.133,-44.922,-48.828,186.035
1688257731.285,-84.961,-41.016,-56.152,-75.195,-194.824
1688257731.288,-112.305,-46.875,-58.105,-62.500,-192.383
1688257731.292,-69.336,-40.039,-44.434,-48.340,-32.227
1688257731.296,-15.137,-28.320,-25.879,-43.457,-81.543
1688257731.300,-5.371,-24.902,-19.043,-43.457,-200.684
1688257731.304,-17.578,-25.391,-9.277,-23.438,-88.379
1688257731.308,-27.832,-19.043,-1.953,13.672,130.859
1688257731.312,-25.391,-21.973,-21.973,0.488,64.453
1688257731.315,-13.184,-40.039,-46.387,-43.457,-115.234
1688257731.319,-13.672,-44.922,-48.828,-55.176,-64.941
1688257731.323,-35.156,-28.320,-30.273,-33.203,129.395
1688257731.327,-67.871,-23.926,-28.809,-25.391,-32.227
1688257731.331,-54.199,-34.668,-37.598,-36.621,-123.047
1688257731.332,-9.277,-31.738,-28.809,-41.992,-83.984
1688257731.336,24.414,-6.836,-4.883,-20.508,-148.438
1688257731.340,12.207,-4.883,1.953,-0.488,-222.168
1688257731.344,-47.363,-27.344,-21.973,-7.812,-139.648
1688257731.348,-60.547,-28.809,-37.598,-23.438,91.309
1688257731.352,-37.109,-27.832,-40.039,-46.875,164.062
1688257731.356,-28.320,-31.738,-40.039,-60.547,58.105
1688257731.359,-46.387,-43.457,-41.016,-67.871,-79.102
1688257731.363,-61.523,-36.133,-20.996,-29.785,168.457
1688257731.367,-24.902,-19.043,1.953,18.555,483.398
1688257731.371,12.207,-25.879,-6.836,-3.906,104.492
1688257731.375,8.301,-28.320,-18.555,-39.062,-251.953
1688257731.377,-25.879,-35.645,-30.273,-47.363,-193.848
1688257731.381,-69.824,-41.504,-47.852,-38.574,-169.434
1688257731.385,-69.336,-34.180,-39.551,-28.809,-128.418
1688257731.389,-7.812,-21.973,-21.973,-26.367,-14.648
1688257731.393,25.879,-7.324,-23.926,-21.973,-38.086
1688257731.397,23.438,2.930,-20.508,-3.418,-127.441
1688257731.401,3.906,-9.277,6.348,6.348,-77.637
1688257731.404,-40.527,-31.738,-1.465,-11.719,107.910
1688257731.408,-62.012,-45.898,-52.246,-61.523,413.574
1688257731.412,-50.293,-47.363,-69.336,-97.168,70.312
1688257731.416,-50.293,-36.621,-51.758,-80.566,-287.109
1688257731.420,-68.848,-23.926,-34.668,-46.387,-124.512
1688257731.422,-60.547,-9.766,-19.043,-2.930,-6.836
1688257731.426,-14.648,-5.371,-15.137,3.418,-69.336
1688257731.430,14.648,-23.926,-17.578,-34.180,-142.090
1688257731.434,5.859,-29.297,-11.719,-41.992,-179.199
1688257731.438,-37.109,-19.531,-19.531,-33.691,-148.926
1688257731.442,-69.336,-20.508,-17.578,-10.254,-28.320
1688257731.446,-49.316,-36.133,-28.320,-13.184,62.012
1688257731.449,-23.926,-44.434,-47.363,-39.551,200.684
1688257731.453,-20.996,-29.785,-34.180,-42.969,159.180
1688257731.457,-35.156,-25.391,-14.160,-31.250,-109.375
1688257731.461,-52.246,-20.508,-1.953,-6.836,-183.105
1688257731.465,-41.016,-13.184,-18.066,-2.441,149.902
1688257731.467,-17.578,-21.484,-36.621,-29.785,165.039
1688257731.471,-17.578,-22.461,-34.180,-48.828,-207.031
1688257731.475,-41.016,-22.949,-27.344,-33.691,-148.438
1688257731.479,-68.359,-35.645,-24.414,-7.324,-69.336
1688257731.483,-36.133,-23.926,-6.836,5.859,-117.676
1688257731.487,20.996,-6.348,8.301,1.465,-98.633
1688257731.491,12.207,-26.367,-14.648,-28.320,46.875
1688257731.494,-23.926,-33.691,-26.855,-38.574,199.219
1688257731.498,-59.570,-24.902,-24.414,-23.438,7.812
1688257731.502,-55.664,-32.715,-38.574,-25.879,-83.496
1688257731.506,-17.578,-30.762,-47.852,-37.109,-53.711
1688257731.510,-8.301,-28.320,-48.340,-48.828,-91.309
1688257731.512,-11.230,-13.672,-28.320,-33.691,-175.781
1688257731.516,-42.969,-13.184,-15.137,-11.230,-202.637
1688257731.520,-58.105,-27.344,-24.414,-14.160,33.691
1688257731.524,-18.066,-31.738,-35.645,-24.902,61.035
1688257731.528,7.324,-34.180,-30.273,-28.320,-191.895
1688257731.532,-17.090,-27.832,-25.391,-35.156,-194.336
1688257731.536,-67.383,-24.414,-35.156,-34.668,228.027
1688257731.539,-69.824,-21.973,-33.203,-19.531,349.609
1688257731.543,-20.996,-31.250,-27.832,-25.879,-53.711
1688257731.547,8.301,-33.203,-25.391,-25.879,-221.680
1688257731.551,-20.996,-33.691,-26.855,-35.156,-88.867
1688257731.555,-60.547,-39.551,-28.809,-37.109,-77.637
1688257731.573,-58.105,-44.434,-17.090,-10.742,-191.406
1688257731.577,-21.484,-42.480,-12.695,-13.184,-113.281
1688257731.581,-12.695,-32.227,-26.367,-50.781,-51.270
1688257731.585,-22.461,-17.578,-27.344,-55.664,-219.727
1688257731.589,-38.086,-7.812,-20.508,-24.414,-254.883
1688257731.593,-55.176,-24.902,-30.762,-13.672,57.617
1688257731.597,-22.949,-33.203,-29.297,-11.719,426.758
1688257731.600,-3.906,-36.621,-39.062,-41.016,87.402
1688257731.604,-28.320,-46.875,-50.293,-66.895,-243.164
1688257731.608,-54.199,-35.156,-31.250,-44.922,-49.805
1688257731.612,-60.059,-25.391,-21.484,-12.695,32.227
1688257731.616,-25.391,-22.949,-26.367,-8.301,-90.332
1688257731.617,0.977,-27.832,-35.645,-46.875,-176.758
1688257731.621,-6.836,-30.273,-30.273,-61.035,-195.312
1688257731.625,-41.992,-30.762,-34.668,-49.316,-138.672
1688257731.629,-69.824,-29.297,-50.293,-38.086,-88.379
1688257731.633,-41.992,-41.016,-50.293,-25.391,-0.977
1688257731.637,-9.277,-46.875,-45.410,-33.691,85.938
1688257731.641,-9.277,-20.996,-32.227,-41.016,48.340
1688257731.644,-35.156,-4.395,-19.531,-35.645,16.602
1688257731.648,-72.266,-19.043,-21.484,-23.438,-3.906
1688257731.652,-37.109,-19.043,-11.719,-2.441,245.117
1688257731.656,10.742,-19.531,-13.184,-10.254,479.980
1688257731.660,4.883,-25.391,-26.367,-34.180,45.898
1688257731.662,-17.578,-15.625,-20.020,-28.320,-240.234
1688257731.666,-48.828,-4.883,-19.531,-7.324,-104.492
1688257731.670,-44.434,-10.742,-36.133,-8.301,-107.422
1688257731.674,-16.113,-42.480,-49.805,-31.738,-229.004
1688257731.678,-12.207,-49.316,-46.387,-52.734,-193.848
1688257731.682,-31.250,-31.250,-33.203,-45.410,-66.406
1688257731.686,-39.551,-13.184,-15.137,-6.348,-56.641
1688257731.689,-23.926,-10.742,-13.672,7.812,-9.766
1688257731.693,-4.395,-25.879,-33.203,-21.973,73.730
1688257731.697,-0.977,-23.926,-30.762,-42.480,229.492
1688257731.701,-20.508,-16.113,-20.996,-37.109,-19.043
1688257731.705,-69.824,-26.367,-33.691,-38.086,-255.859
1688257731.707,-95.215,-44.922,-59.570,-52.734,-74.219
1688257731.711,-55.176,-45.898,-67.383,-60.547,-84.473
1688257731.715,-24.414,-38.086,-56.152,-63.477,-205.078
1688257731.719,-20.020,-28.320,-26.367,-39.551,-205.566
1688257731.723,-30.273,-17.578,-3.418,-6.348,-57.617
1688257731.727,-32.227,-11.719,-5.371,6.348,129.395
1688257731.731,15.137,-7.812,-14.160,-10.742,89.844
1688257731.734,31.738,-25.879,-34.668,-59.082,-125.977
1688257731.738,0.000,-39.551,-44.434,-71.777,75.195
1688257731.742,-48.828,-41.016,-50.293,-56.152,439.453
1688257731.746,-61.523,-34.180,-49.805,-38.574,179.688
1688257731.750,-10.254,-31.738,-28.320,-29.785,-106.934
1688257731.752,21.484,-22.949,-7.324,-23.438,-79.590
1688257731.756,-15.625,-18.555,-17.578,-29.297,-142.578
1688257731.760,-66.406,-24.902,-35.156,-29.785,-195.312
1688257731.764,-83.496,-37.109,-45.898,-19.531,-86.426
1688257731.768,-48.828,-35.156,-49.805,-23.438,75.195
1688257731.772,-4.883,-22.949,-37.598,-25.391,36.621
1688257731.776,-22.461,-32.227,-44.434,-45.410,-70.312
1688257731.779,-72.266,-46.875,-41.504,-49.805,18.066
1688257731.783,-80.078,-46.387,-14.648,-10.254,228.516
1688257731.787,-39.551,-27.832,-8.301,0.488,20.020
1688257731.791,-18.555,-20.020,-26.855,-37.109,-239.258
1688257731.795,-33.691,-34.180,-40.039,-66.895,-114.258
1688257731.797,-48.340,-21.973,-27.344,-38.574,-42.480
1688257731.801,-62.500,-10.742,-20.996,0.977,-119.629
1688257731.805,-32.227,-25.879,-26.367,2.441,-143.555
1688257731.809,1.465,-46.387,-33.691,-21.484,-54.688
1688257731.813,-8.789,-44.922,-26.855,-35.645,-1.953
1688257731.817,-39.062,-21.484,-26.855,-35.156,-39.551
1688257731.821,-83.496,-22.949,-43.945,-41.504,-50.781
1688257731.824,-72.266,-33.691,-37.598,-32.715,285.645
1688257731.828,-5.371,-18.066,-19.531,-16.602,483.887
1688257731.832,16.113,-3.418,-9.766,-27.832,-47.852
1688257731.836,-41.992,-24.414,-29.785,-54.199,-240.234
1688257731.840,-96.191,-41.992,-46.387,-50.781,-84.473
1688257731.843,-69.336,-33.203,-36.621,-25.391,-68.848
1688257731.847,-11.230,-26.367,-33.203,-29.297,-196.289
1688257731.851,-6.836,-34.668,-36.133,-55.176,-147.949
1688257731.855,-28.809,-20.020,-23.926,-48.340,-9.766
1688257731.859,-59.570,-12.207,-18.066,-20.020,-99.121
1688257731.863,-68.359,-39.062,-40.527,-17.578,-67.871
1688257731.867,-22.461,-42.969,-41.504,-34.668,124.023
1688257731.870,-4.395,-30.762,-33.203,-51.270,213.379
1688257731.874,-20.020,-15.625,-25.879,-37.598,-65.918
1688257731.878,-41.504,-12.207,-12.207,2.441,-197.754
1688257731.882,-37.598,-18.066,-10.742,15.137,-30.273
1688257731.886,0.000,-14.648,-16.113,-0.977,-42.969
1688257731.887,-2.441,-26.855,-31.250,-37.598,-187.988
1688257731.891,-37.109,-44.434,-48.340,-67.383,-242.188
1688257731.895,-70.312,-44.922,-47.363,-61.523,-196.289
1688257731.899,-68.359,-48.340,-33.203,-39.062,-73.242
1688257731.903,-8.789,-43.457,-11.719,-25.391,-24.902
1688257731.907,24.902,-21.973,-5.859,-23.438,-130.859
1688257731.911,11.230,-7.324,-18.066,-19.043,100.098
1688257731.914,-32.227,-8.301,-19.531,-2.441,208.496
1688257731.918,-81.055,-32.227,-47.363,-13.672,-0.977
1688257731.922,-61.523,-37.598,-67.871,-46.387,-77.148
1688257731.926,-15.625,-28.320,-49.805,-50.293,107.910
1688257731.930,1.465,-23.438,-25.879,-41.016,71.289
1688257731.932,-6.836,-21.973,-3.906,-15.625,-282.715
1688257731.936,-43.457,-40.527,-12.695,-4.395,-125.488
1688257731.940,-42.969,-60.059,-36.133,-30.762,-44.922
1688257731.944,-16.602,-43.457,-49.316,-54.688,-144.531
1688257731.948,-29.297,-30.273,-59.570,-68.359,-228.027
1688257731.952,-62.012,-39.062,-50.293,-57.129,-2.441
1688257731.956,-77.637,-34.180,-31.738,-22.461,265.137
1688257731.959,-33.691,-22.461,-14.648,-5.859,158.203
1688257731.963,11.230,-23.438,-17.090,-23.438,-33.203
1688257731.967,3.906,-33.691,-25.391,-34.668,-57.129
1688257731.971,-28.809,-41.016,-24.902,-25.391,97.168
1688257731.975,-72.754,-49.316,-36.621,-24.414,-89.355
1688257731.992,-68.359,-54.688,-48.828,-40.527,-146.484
1688257731.996,-13.672,-27.832,-37.598,-42.480,-99.609
1688257732.000,-2.930,-18.555,-30.762,-40.527,-228.027
1688257732.004,-29.297,-20.508,-30.273,-32.715,-263.672
1688257732.008,-49.805,-7.324,-22.461,-18.066,-175.781
1688257732.012,-43.945,-21.973,-25.391,-26.855,41.992
1688257732.016,-18.066,-45.898,-48.828,-49.805,137.207
1688257732.019,10.742,-45.410,-50.781,-38.086,-54.688
1688257732.023,-19.043,-46.387,-38.574,-31.738,-201.660
1688257732.027,-78.125,-43.945,-29.785,-25.879,157.715
1688257732.031,-61.035,-33.691,-19.043,-6.836,543.457
1688257732.035,4.395,-19.531,-13.184,-2.441,59.082
1688257732.037,13.184,-22.949,-20.996,-21.484,-254.395
1688257732.041,-16.113,-33.203,-28.809,-40.039,-229.492
1688257732.045,-38.086,-39.551,-26.367,-8.789,-187.500
1688257732.049,-22.949,-34.668,-17.090,25.391,-109.375
1688257732.053,26.367,-20.020,-8.301,16.602,-43.945
1688257732.057,36.133,-18.555,-16.113,-8.789,-25.391
1688257732.061,2.930,-20.996,-28.320,-21.484,-64.941
1688257732.064,-30.762,-16.113,-19.531,-5.859,-95.215
1688257732.068,-33.691,-13.672,-13.184,12.207,35.156
1688257732.072,3.418,-25.391,-20.020,10.254,230.469
1688257732.076,28.809,-36.621,-22.949,3.418,-98.145
1688257732.080,5.371,-37.598,-20.996,-2.441,-311.523
1688257732.082,-42.480,-33.203,-21.484,1.465,-53.711
1688257732.086,-66.895,-36.621,-35.156,-8.789,53.223
1688257732.090,-36.133,-39.551,-49.316,-25.391,-73.242
1688257732.094,-6.836,-39.062,-53.223,-35.156,-115.723
1688257732.098,-15.137,-46.387,-41.992,-28.320,12.695
1688257732.102,-49.316,-40.039,-34.668,-19.043,138.672
1688257732.106,-77.148,-34.668,-33.691,-20.020,107.422
1688257732.109,-32.227,-30.273,-30.762,-29.785,-0.488
1688257732.113,28.320,-11.719,-20.996,-30.762,164.062
1688257732.117,15.625,-17.578,-18.066,-29.297,256.348
1688257732.121,-34.668,-31.738,-29.297,-28.809,-98.145
1688257732.125,-73.730,-41.992,-44.434,-12.207,-137.207
1688257732.127,-46.387,-52.246,-46.387,-18.066,-59.570
1688257732.131,3.418,-40.527,-23.438,-25.391,-160.645
1688257732.135,5.859,-20.508,-6.348,-26.855,-241.699
1688257732.139,-24.902,-19.043,-7.812,-17.578,-45.410
1688257732.143,-44.434,-13.672,-1.465,19.531,107.422
1688257732.147,-12.207,7.324,3.418,36.133,39.062
1688257732.151,0.488,-19.043,-35.156,-28.809,-59.570
1688257732.154,-20.020,-56.641,-62.012,-78.613,-37.109
1688257732.158,-53.711,-62.500,-56.152,-74.707,123.047
1688257732.162,-90.820,-56.152,-50.293,-54.688,-62.988
1688257732.166,-66.895,-43.457,-43.457,-34.180,-222.656
1688257732.170,2.441,-14.160,-22.949,-21.484,-168.457
1688257732.172,10.254,-11.230,-17.090,-26.855,-200.195
1688257732.176,-32.227,-31.738,-28.809,-42.480,-214.355
1688257732.180,-66.406,-33.691,-33.203,-28.809,-123.535
1688257732.184,-63.477,-34.180,-35.156,-21.973,72.754
1688257732.188,-4.395,-32.227,-37.598,-20.996,81.055
1688257732.192,10.742,-32.715,-41.504,-29.785,-22.949
1688257732.196,-49.316,-33.203,-44.434,-58.105,7.324
1688257732.199,-91.309,-23.438,-31.250,-44.922,246.094
1688257732.203,-77.637,-21.484,-24.902,-19.043,600.098
1688257732.207,-29.297,-33.203,-31.250,-19.531,188.477
1688257732.211,-8.301,-47.363,-32.715,-49.316,-250.000
1688257732.215,-15.137,-40.527,-23.438,-45.898,-211.426
1688257732.217,-39.551,-31.250,-11.230,1.953,-197.754
1688257732.221,-49.316,-27.832,-9.277,9.766,-145.020
1688257732.225,-3.906,-26.855,-13.672,-6.836,-38.574
1688257732.229,35.645,-21.973,-10.742,-2.441,-94.727
1688257732.233,32.715,-14.648,-2.930,19.043,-283.691
1688257732.237,-19.043,-31.250,-8.789,25.391,-230.469
1688257732.241,-53.711,-46.387,-18.066,21.484,144.531
1688257732.244,-14.648,-37.598,-18.066,11.230,387.207
1688257732.248,16.113,-26.367,-24.414,-7.812,36.133
1688257732.252,6.348,-23.926,-25.391,-12.695,-238.770
1688257732.256,-21.973,-8.301,-17.578,6.836,-11.719
1688257732.260,-46.387,-1.953,-23.438,17.090,94.727
1688257732.262,-12.207,-17.090,-23.438,9.766,-93.262
1688257732.266,23.438,-31.738,-17.578,-2.930,-169.922
1688257732.270,2.441,-42.969,-23.438,-13.672,-160.645
1688257732.274,-47.363,-44.434,-30.762,-21.973,-144.043
1688257732.278,-66.895,-22.461,-33.203,-14.160,-76.172
1688257732.282,-22.949,-12.695,-35.645,-14.648,-30.762
1688257732.286,17.090,-15.625,-28.320,-8.301,170.410
1688257732.289,-3.418,-23.438,-27.832,-22.461,233.398
1688257732.293,-51.758,-40.039,-31.250,-37.109,-50.293
1688257732.297,-71.777,-38.086,-27.344,-17.090,-121.582
1688257732.301,-42.480,-34.180,-29.785,-18.555,199.219
1688257732.305,4.883,-23.438,-25.879,-22.949,148.926
1688257732.307,18.555,-7.324,-15.137,-18.066,-260.254
1688257732.311,-28.809,-19.043,-17.090,-21.973,-215.820
1688257732.315,-83.496,-34.668,-31.738,-22.949,-89.844
1688257732.319,-62.012,-23.926,-33.691,-22.949,-109.863
1688257732.323,-17.578,-29.785,-23.926,-39.062,-232.422
1688257732.327,-6.348,-40.527,-12.695,-42.480,-60.059
1688257732.331,-25.391,-36.133,-11.230,-42.480,157.227
1688257732.334,-65.430,-30.273,-20.020,-27.344,32.715
1688257732.338,-59.570,-23.926,-26.855,-24.414,-96.680
1688257732.342,-14.648,-20.020,-29.297,-32.715,45.898
1688257732.346,-13.184,-34.668,-38.574,-48.340,138.672
1688257732.350,-50.293,-41.992,-49.316,-57.617,-182.617
1688257732.353,-88.379,-32.715,-45.898,-41.992,-143.066
1688257732.357,-79.590,-33.203,-36.133,-39.062,145.996
1688257732.361,-9.766,-26.367,-10.742,-26.367,66.406
1688257732.365,19.043,-20.508,1.465,-21.484,-188.965
1688257732.369,-14.648,-20.508,-11.230,-31.250,-259.277
1688257732.373,-58.105,-28.320,-28.320,-37.109,-17.578
1688257732.377,-65.918,-33.691,-29.785,-26.855,117.188
1688257732.380,-30.273,-35.645,-33.203,-38.086,25.391
1688257732.384,-16.113,-34.180,-40.039,-56.641,-133.301
1688257732.388,-37.109,-32.227,-44.434,-61.035,18.555
1688257732.392,-60.059,-27.832,-35.645,-35.645,313.965
1688257732.396,-53.711,-21.484,-23.926,-2.441,0.488
1688257732.412,-20.508,-28.320,-33.203,-26.855,-130.371
1688257732.416,-5.371,-28.320,-28.809,-52.734,-90.332
1688257732.420,-26.367,-34.668,-30.762,-52.246,-174.316
1688257732.424,-56.641,-31.738,-28.320,-40.039,-163.574
1688257732.428,-55.176,-18.066,-7.812,-10.742,78.613
1688257732.432,-21.973,-20.020,-14.160,-15.625,322.266
1688257732.436,4.883,-20.020,-18.066,-30.273,43.945
1688257732.439,-8.789,-26.367,-2.930,-22.949,-282.715
1688257732.443,-47.363,-35.645,6.348,-3.906,-114.258
1688257732.447,-78.125,-28.809,-11.230,-29.785,200.195
1688257732.451,-73.730,-22.949,-36.621,-98.633,17.090
1688257732.455,-37.109,-24.902,-34.668,-117.188,-177.734
1688257732.457,-41.504,-29.297,-28.320,-129.883,-181.152
1688257732.461,-83.984,-25.879,-28.809,-128.906,-166.016
1688257732.465,-99.121,-9.766,-21.973,-104.980,-119.629
1688257732.469,-80.078,-16.113,-30.273,-115.723,-54.688
1688257732.473,-62.988,-26.855,-47.852,-161.621,-24.902
1688257732.477,-71.289,-29.297,-51.270,-169.434,-16.602
1688257732.481,-94.238,-26.855,-36.133,-120.605,-38.574
1688257732.484,-135.742,-25.391,-35.156,-94.727,-46.875
1688257732.488,-131.836,-31.738,-51.270,-102.539,256.348
1688257732.492,-79.590,-22.461,-56.641,-100.586,476.562
1688257732.496,-68.359,-20.020,-54.199,-100.098,38.574
1688257732.500,-95.703,-33.203,-52.246,-104.492,-255.371
1688257732.518,-112.305,-35.156,-47.363,-74.219,-109.863
1688257732.522,-62.988,-16.602,-20.996,-30.273,-99.121
1688257732.526,2.441,-18.066,-12.695,-20.508,-218.262
1688257732.530,-23.438,-38.086,-46.875,-60.059,-235.352
1688257732.534,-66.406,-36.133,-58.594,-76.172,-175.293
1688257732.538,-81.055,-37.109,-48.340,-41.016,-76.172
1688257732.542,-62.500,-40.039,-47.363,-19.531,5.371
1688257732.545,-3.418,-17.578,-45.898,-29.297,53.711
1688257732.549,16.113,-20.508,-45.898,-44.922,376.465
1688257732.553,0.000,-32.715,-36.621,-36.133,124.512
1688257732.557,-27.344,-21.484,-19.531,7.812,-248.047
1688257732.561,-30.762,-20.508,-21.973,29.785,-91.797
1688257732.547,-1.953,-24.902,-40.527,-2.930,-97.656
1688257732.551,2.930,-35.156,-58.105,-45.410,-240.234
1688257732.555,-15.625,-47.852,-55.176,-47.852,-239.746
1688257732.559,-44.434,-41.504,-40.039,-29.785,-87.402
1688257732.563,-48.828,-33.691,-29.785,-22.461,5.859
1688257732.567,8.789,-32.715,-17.090,-3.906,24.902
1688257732.571,53.223,-24.902,-6.836,17.090,-14.160
1688257732.574,35.156,-8.789,-2.930,25.879,19.531
1688257732.578,-23.926,-14.160,-22.949,24.902,0.977
1688257732.582,-52.734,-36.133,-51.270,21.973,-94.238
1688257732.586,-2.441,-26.367,-47.363,29.297,-63.965
1688257732.590,37.109,-20.996,-36.621,9.277,195.801
1688257732.592,36.133,-21.484,-24.414,-6.836,363.770
1688257732.596,-0.488,-18.066,-20.508,3.418,-1.465
1688257732.600,-30.273,-22.949,-29.297,7.324,-156.738
1688257732.604,7.324,-14.160,-22.461,5.371,-104.980
1688257732.608,46.875,-5.371,-6.348,7.812,-174.316
1688257732.612,25.879,-5.859,-16.113,-13.184,-198.730
1688257732.616,-41.016,-19.043,-47.852,-31.738,-44.922
1688257732.619,-72.266,-26.855,-49.316,-14.160,229.004
1688257732.623,-19.531,-19.531,-33.203,2.930,25.391
1688257732.627,36.621,-18.066,-24.902,9.277,-216.309
1688257732.631,45.898,-19.043,-15.625,19.043,-175.781
1688257732.635,12.207,-15.625,-10.742,25.879,-140.625
1688257732.638,-27.344,-13.184,-8.789,37.109,-94.238
1688257732.642,-19.531,-15.137,-16.113,30.273,75.195
1688257732.646,2.930,-22.461,-27.832,-12.207,111.816
1688257732.650,1.953,-24.414,-26.367,-26.367,-82.520
1688257732.654,-22.949,-30.762,-30.762,-16.113,-180.176
1688257732.658,-51.758,-34.668,-28.320,0.488,-49.805
1688257732.662,-27.344,-32.227,-10.254,6.348,293.945
1688257732.665,24.902,-26.855,-8.301,-0.488,337.402
1688257732.669,23.926,-23.438,-30.762,-23.926,-109.375
1688257732.673,-15.625,-12.207,-41.992,-42.480,-204.590
1688257732.677,-58.594,-5.859,-39.062,-27.832,51.758
1688257732.681,-53.223,-18.066,-41.504,-8.789,71.777
1688257732.683,-10.254,-29.785,-36.621,-20.020,-142.090
1688257732.687,2.441,-33.203,-32.227,-37.109,-184.082
1688257732.691,-15.625,-30.762,-28.809,-29.297,-172.363
1688257732.695,-35.645,-18.066,-3.418,10.254,-89.355
1688257732.699,-39.551,-21.973,-1.465,21.484,-36.133
1688257732.703,-36.133,-51.758,-35.645,-25.391,43.945
1688257732.707,-18.066,-64.453,-45.898,-38.574,446.777
1688257732.710,-12.695,-40.527,-44.434,-26.367,183.105
1688257732.714,-62.012,-20.020,-44.922,-33.691,-230.957
1688257732.718,-81.055,-23.438,-35.645,-26.855,-48.828
1688257732.722,-18.555,-20.020,-26.855,-26.367,3.418
1688257732.726,17.090,-5.859,-25.879,-49.805,-158.691
1688257732.758,-11.230,-7.324,-29.785,-64.453,-246.094
1688257732.762,-55.664,-20.020,-38.574,-48.340,-125.977
1688257732.766,-82.031,-28.809,-47.852,-38.574,-31.250
1688257732.770,-36.133,-30.762,-40.527,-25.879,-78.613
1688257732.774,15.137,-20.508,-24.414,-24.414,-121.094
1688257732.778,-3.418,-20.996,-25.391,-40.039,-28.320
1688257732.782,-32.227,-7.812,-24.414,-26.367,69.336
1688257732.785,-53.223,-2.930,-23.438,-8.789,41.504
1688257732.789,-53.223,-27.832,-50.293,-37.598,0.977
1688257732.793,-30.762,-42.480,-64.941,-63.477,157.715
1688257732.797,-26.367,-41.504,-57.617,-58.594,275.391
1688257732.801,-62.500,-34.180,-51.758,-61.035,-61.035
1688257732.787,-90.820,-29.297,-43.457,-46.387,-139.160
1688257732.791,-48.828,-24.902,-30.273,-21.973,-27.832
1688257732.795,-2.930,-21.973,-21.973,-25.391,-148.438
1688257732.799,1.953,-17.578,-15.625,-40.527,-207.031
1688257732.803,-33.203,-26.367,-25.391,-40.039,-138.672
1688257732.807,-66.406,-35.156,-38.086,-25.391,35.645
1688257732.811,-27.832,-22.949,-22.461,-5.371,47.852
1688257732.814,0.977,-24.902,-18.555,-21.973,-84.961
1688257732.818,-16.113,-35.156,-30.762,-57.617,-16.113
1688257732.822,-39.062,-30.762,-32.227,-48.340,31.250
1688257732.826,-63.965,-23.926,-30.762,-20.996,-91.309
1688257732.830,-39.062,-17.578,-20.508,-12.207,-133.301
1688257732.833,3.906,-7.812,-23.926,-29.297,-24.414
1688257732.837,14.648,-4.883,-36.133,-37.598,245.605
1688257732.841,-22.461,-20.996,-44.434,-39.062,-29.785
1688257732.845,-73.730,-36.133,-44.922,-24.902,-199.707
1688257732.849,-50.293,-37.598,-25.391,-13.672,-20.020
1688257732.853,14.648,-26.367,-17.578,-6.836,-29.785
1688257732.857,27.344,-4.883,-23.926,-15.137,-97.168
1688257732.860,-23.438,-6.836,-30.273,-46.387,-100.586
1688257732.864,-71.777,-29.297,-37.598,-40.527,185.059
1688257732.868,-85.449,-31.250,-44.922,-49.316,381.836
1688257732.872,-38.086,-20.020,-37.109,-57.129,3.418
1688257732.876,-7.324,-17.578,-23.438,-44.922,-169.434
1688257732.878,-34.668,-15.625,-19.043,-45.410,-86.914
1688257732.882,-69.336,-17.578,-14.648,-35.645,-125.488
1688257732.886,-79.102,-23.438,-18.555,-37.598,-167.969
1688257732.890,-60.059,-36.133,-43.945,-68.848,-132.324
1688257732.894,-51.758,-43.457,-53.711,-98.145,-103.516
1688257732.898,-67.871,-43.945,-46.387,-102.539,-90.820
1688257732.902,-101.074,-45.410,-41.504,-78.613,-19.531
1688257732.905,-104.492,-40.039,-36.621,-46.387,144.043
1688257732.909,-59.570,-31.738,-34.180,-41.504,183.105
1688257732.913,-13.184,-16.113,-21.973,-47.852,-120.605
1688257732.917,-18.066,-15.625,-26.855,-59.082,-253.906
1688257732.921,-73.242,-33.691,-52.246,-68.848,-32.227
1688257732.923,-99.609,-40.039,-59.082,-57.129,64.941
1688257732.927,-49.316,-40.527,-39.062,-42.480,-36.621
1688257732.931,4.395,-33.691,-17.090,-33.691,-104.004
1688257732.935,-6.348,-26.855,-24.414,-40.039,-96.191
1688257732.939,-52.246,-33.691,-38.574,-38.086,-24.902
1688257732.943,-91.309,-58.105,-53.711,-36.621,48.340
1688257732.947,-69.824,-50.293,-59.570,-53.223,40.527
1688257732.950,-33.203,-32.227,-47.852,-68.848,151.367
1688257732.954,-31.738,-37.109,-30.273,-61.523,327.148
1688257732.958,-36.621,-23.926,-3.906,-32.715,-50.781
1688257732.962,-64.941,-25.879,-15.137,-16.113,-194.824
1688257732.966,-57.129,-40.039,-41.016,-25.879,-92.285
1688257732.968,-8.789,-36.133,-40.039,-41.016,-169.922
1688257732.972,-22.461,-50.781,-45.410,-62.012,-259.766
1688257732.976,-62.500,-56.641,-42.969,-64.453,-152.344
1688257732.980,-66.895,-28.809,-26.855,-20.996,-30.273
1688257732.984,-24.902,-5.859,-22.949,12.695,-10.254
1688257732.988,4.395,-11.719,-35.645,-22.949,19.531
1688257732.992,-16.602,-33.203,-47.363,-56.641,4.883
1688257732.995,-49.805,-37.598,-34.668,-53.223,272.461
1688257732.999,-70.312,-28.320,-26.367,-27.344,213.867
1688257733.003,-59.570,-25.391,-38.574,-19.043,-142.090
1688257733.007,-29.297,-27.832,-46.875,-49.316,-147.949
1688257733.011,-28.320,-38.086,-62.988,-74.707,-196.289
1688257733.012,-47.852,-45.410,-55.664,-60.059,-248.535
1688257733.016,-63.965,-32.227,-19.043,-37.598,-171.875
1688257733.020,-53.711,-18.555,-15.137,-25.879,-77.637
1688257733.024,-2.930,-20.020,-20.996,-14.160,-45.410
1688257733.028,29.297,-18.555,-19.531,-11.230,-82.520
1688257733.032,-5.371,-21.973,-19.043,-24.414,-72.754
1688257733.036,-53.223,-31.250,-14.160,-20.020,204.102
1688257733.039,-81.543,-41.504,-37.598,-37.598,321.777
1688257733.043,-67.383,-38.086,-51.758,-85.449,-10.254
1688257733.047,-34.180,-33.691,-39.062,-83.496,-181.152
1688257733.051,-23.438,-19.043,-9.277,-35.156,77.637
1688257733.055,-46.387,-15.137,-0.488,-7.812,125.000
1688257733.058,-67.383,-27.832,-26.855,-14.160,-152.832
1688257733.062,-34.180,-21.973,-31.738,-26.367,-118.164
1688257733.066,-0.977,-13.672,-30.762,-40.527,-97.656
1688257733.070,-12.207,-18.555,-32.715,-35.645,-148.438
1688257733.074,-35.645,-30.273,-13.184,-17.090,-136.719
1688257733.078,-42.480,-29.785,-12.695,-6.348,154.785
1688257733.082,-16.602,-24.414,-37.598,-20.996,353.027
1688257733.085,0.000,-29.785,-50.293,-59.082,-3.418
1688257733.089,-12.207,-32.715,-46.875,-68.848,-202.148
1688257733.093,-50.293,-33.691,-42.480,-54.688,41.016
1688257733.097,-82.520,-31.250,-40.039,-40.039,242.676
1688257733.101,-41.992,-23.926,-34.180,-26.367,-5.859
1688257733.117,17.090,-19.043,-14.160,-14.160,-227.539
1688257733.121,19.531,-21.484,-0.977,-11.230,-215.332
1688257733.125,-31.738,-43.945,-19.531,-9.277,-141.602
1688257733.129,-84.473,-50.293,-42.969,-13.184,-62.500
1688257733.133,-73.730,-38.574,-51.270,-29.785,-67.383
1688257733.137,-25.391,-24.902,-42.480,-53.711,-80.078
1688257733.141,-9.277,-18.555,-41.992,-74.219,-111.816
1688257733.144,-39.551,-20.508,-42.480,-60.059,-168.945
1688257733.148,-62.500,-29.297,-25.879,-29.297,-127.930
1688257733.152,-43.945,-41.992,-25.879,-30.273,209.473
1688257733.156,-11.230,-47.363,-38.086,-47.852,297.852
1688257733.160,8.789,-35.645,-28.320,-44.434,-105.469
1688257733.162,0.977,-15.137,-10.742,-13.672,-174.316
1688257733.166,-45.898,-17.090,-10.742,8.301,-54.688
1688257733.170,-53.223,-24.414,-14.648,4.395,-72.754
1688257733.174,-17.090,-26.367,-31.738,-13.672,-181.152
1688257733.178,-32.715,-43.945,-61.523,-61.523,-126.953
1688257733.182,-57.617,-43.945,-52.734,-74.707,-15.625
1688257733.186,-61.523,-21.973,-27.344,-32.715,35.645
1688257733.189,-62.012,-33.203,-27.344,-31.738,13.672
1688257733.193,-29.297,-43.945,-31.738,-47.852,22.949
1688257733.197,-4.395,-27.832,-31.738,-46.875,172.852
1688257733.201,-24.414,-23.926,-36.133,-54.688,-33.691
1688257733.205,-35.156,-3.418,-11.230,-23.926,-161.133
1688257733.208,-7.812,6.348,0.488,-4.395,-23.926
1688257733.212,20.020,-22.949,-36.621,-47.363,12.207
1688257733.216,15.137,-43.457,-52.734,-75.195,-65.430
1688257733.220,-1.953,-50.781,-35.645,-62.500,-178.711
1688257733.224,-30.273,-35.156,-15.625,-25.391,28.809
1688257733.228,-40.527,-12.695,-10.742,0.488,181.152
1688257733.232,-14.648,-13.184,-13.184,-13.672,-31.250
1688257733.235,-17.090,-28.320,-33.691,-41.992,-133.301
1688257733.239,-55.176,-47.852,-59.570,-64.941,97.656
1688257733.243,-85.938,-53.711,-52.734,-56.641,274.902
1688257733.247,-81.055,-51.758,-31.250,-25.879,68.848
1688257733.251,-18.066,-34.668,-8.301,-7.324,-57.617
1688257733.252,29.785,-21.484,-2.441,-1.953,-127.441
1688257733.256,4.883,-30.762,-11.719,-10.742,-174.316
1688257733.260,-35.156,-24.414,-7.812,1.465,-166.504
1688257733.264,-50.781,-11.230,-5.371,20.020,-69.336
1688257733.268,-49.316,-24.902,-34.180,-12.207,59.082
1688257733.272,-23.438,-36.621,-41.016,-37.109,24.414
1688257733.276,-22.949,-40.039,-36.621,-37.598,-80.566
1688257733.279,-57.617,-33.203,-38.086,-13.184,-28.320
1688257733.283,-80.566,-38.086,-35.645,8.301,305.176
1688257733.287,-41.992,-37.598,-34.180,-20.020,186.523
1688257733.291,0.000,-40.527,-29.297,-57.129,-224.609
1688257733.295,-11.719,-52.246,-41.016,-66.406,-153.809
1688257733.297,-41.504,-37.598,-41.992,-48.828,-85.938
1688257733.301,-64.941,-15.625,-32.227,-23.926,-183.105
1688257733.305,-33.203,-1.465,-20.996,-7.812,-123.047
1688257733.309,-2.441,-20.020,-27.344,-30.273,-115.234
1688257733.313,-17.090,-36.133,-35.645,-51.758,-145.996
1688257733.317,-40.527,-25.879,-26.367,-30.273,-114.258
1688257733.321,-59.082,-17.090,-18.555,-2.441,29.297
1688257733.324,-39.062,-29.785,-23.926,-7.812,258.301
1688257733.328,-10.742,-44.434,-34.180,-37.109,172.363
1688257733.332,-0.488,-14.160,-24.414,-40.527,-99.609
1688257733.336,-33.203,-4.883,-35.645,-39.551,-233.887
1688257733.340,-92.285,-32.715,-56.641,-43.457,123.047
1688257733.343,-85.938,-42.480,-51.270,-32.715,314.941
1688257733.347,-29.297,-34.668,-40.527,-25.391,-134.277
1688257733.351,-5.859,-29.785,-31.738,-30.273,-224.609
1688257733.355,-22.949,-24.902,-19.531,-25.879,-169.922
1688257733.359,-55.664,-33.691,-16.113,-19.043,-145.020
1688257733.363,-54.199,-41.992,-22.949,-28.320,3.906
1688257733.367,-15.137,-31.738,-25.879,-40.527,106.445
1688257733.370,-5.371,-36.621,-33.691,-50.781,132.324
1688257733.374,-43.457,-40.039,-46.875,-69.824,-92.773
1688257733.378,-77.637,-21.973,-39.062,-50.781,-200.195
1688257733.382,-54.199,-7.812,-12.695,-4.883,26.367
1688257733.386,-3.906,-8.301,-13.184,-10.742,-4.395
1688257733.387,4.883,-17.578,-29.297,-40.039,-229.492
1688257733.391,-29.785,-26.367,-34.180,-45.898,-291.016
1688257733.395,-64.453,-25.391,-25.879,-19.043,-192.383
1688257733.399,-61.523,-24.902,-20.996,-2.930,-51.758
1688257733.403,-12.695,-21.484,-16.602,-10.254,-79.102
1688257733.407,17.090,-19.531,-15.625,-26.855,-123.535
1688257733.411,0.488,-17.090,-20.020,-24.902,190.430
1688257733.414,-33.691,-13.184,-24.902,-8.789,342.285
1688257733.418,-64.453,-28.320,-36.621,-18.066,13.672
1688257733.422,-30.273,-29.785,-27.832,-39.062,-110.840
1688257733.426,6.836,-30.762,-20.996,-61.035,19.043
1688257733.430,-17.578,-53.223,-39.062,-60.547,-42.480
1688257733.433,-51.758,-43.945,-44.434,-40.039,-149.414
1688257733.437,-73.242,-26.855,-41.992,-27.832,-69.824
1688257733.441,-44.922,-30.762,-47.852,-37.109,-20.996
1688257733.445,-5.859,-23.438,-44.434,-53.223,-143.555
1688257733.449,-4.395,-21.484,-33.203,-55.176,-209.961
1688257733.453,-43.457,-28.320,-38.086,-44.434,-20.508
1688257733.457,-75.195,-19.043,-37.109,-21.973,274.902
1688257733.460,-54.199,-23.438,-26.367,-22.461,66.895
1688257733.464,-22.461,-47.363,-26.367,-40.039,-230.957
1688257733.468,-11.719,-62.012,-31.738,-34.180,-147.461
1688257733.472,-32.715,-42.480,-34.668,-14.160,-87.402
1688257733.476,-73.730,-17.090,-38.574,-1.465,-114.258
1688257733.493,-50.781,0.000,-32.227,-12.207,-76.172
1688257733.497,-1.465,4.395,-23.926,-33.691,-72.754
1688257733.501,-7.812,-19.531,-37.109,-58.594,-74.219
1688257733.505,-44.434,-32.227,-38.086,-59.082,-112.305
1688257733.509,-76.172,-34.180,-24.414,-36.621,-106.934
1688257733.513,-54.688,-41.504,-8.301,-26.855,286.621
1688257733.517,9.277,-21.973,10.742,-13.672,378.418
1688257733.520,9.277,-7.324,-13.672,-23.926,-121.582
1688257733.524,-43.457,-5.859,-41.016,-49.316,-176.758
1688257733.528,-74.707,-0.488,-35.156,-40.039,-32.715
1688257733.532,-70.312,-17.090,-32.715,-35.645,-68.359
1688257733.536,-48.340,-39.551,-52.734,-63.965,-135.742
1688257733.538,-39.062,-45.410,-62.988,-72.754,-202.637
1688257733.542,-41.504,-36.133,-48.340,-51.758,34.668
1688257733.546,-53.711,-19.531,-25.391,-7.812,135.742
1688257733.550,-62.500,-18.555,-11.719,6.348,-89.355
1688257733.554,-42.480,-19.531,-13.672,-44.922,-21.973
1688257733.558,-31.250,-20.508,-18.555,-89.844,21.973
1688257733.562,-56.152,-37.598,-25.879,-91.309,-37.109
1688257733.565,-78.125,-41.016,-21.973,-49.805,-104.004
1688257733.569,-67.383,-31.738,-7.324,-22.949,-37.598
1688257733.573,-30.273,-41.504,-14.160,-47.363,225.586
1688257733.577,-2.441,-43.945,-11.230,-54.199,-58.594
1688257733.581,-28.320,-50.293,-15.625,-53.711,-329.102
1688257733.583,-81.055,-50.293,-28.809,-43.945,-113.281
1688257733.587,-89.844,-37.598,-21.973,-21.973,20.996
1688257733.591,-39.062,-38.574,-13.184,-8.301,-79.102
1688257733.595,11.230,-31.250,-11.230,3.906,-220.215
1688257733.599,7.324,-23.926,-19.043,-11.719,-203.125
1688257733.603,-32.227,-29.785,-16.602,-16.602,-78.613
1688257733.607,-64.453,-42.969,-24.902,-2.930,25.879
1688257733.610,-32.715,-49.316,-33.691,-11.719,61.035
1688257733.614,3.418,-33.691,-22.461,-27.832,255.859
1688257733.618,-16.602,-24.414,-29.785,-44.434,458.984
1688257733.622,-45.410,-30.273,-39.551,-37.598,89.844
1688257733.626,-69.824,-38.086,-43.457,-11.719,-184.570
1688257733.628,-32.227,-33.691,-27.344,-0.977,-129.883
1688257733.632,5.859,-30.273,-15.625,-14.160,-201.172
1688257733.636,-12.695,-39.062,-28.320,-33.691,-272.461
1688257733.640,-38.086,-44.922,-21.973,-25.391,-174.316
1688257733.644,-82.031,-60.059,-33.203,-36.133,29.297
1688257733.648,-70.312,-44.434,-44.434,-45.410,100.098
1688257733.652,-21.484,-23.438,-40.039,-40.039,0.488
1688257733.655,-8.789,-15.625,-32.227,-46.875,-61.035
1688257733.659,-22.461,-9.766,-15.137,-34.180,148.926
1688257733.663,-72.754,-37.109,-30.762,-32.227,41.992
1688257733.667,-65.918,-48.828,-37.598,-30.273,-72.266
1688257733.671,-6.348,-37.598,-12.695,-23.926,52.246
1688257733.672,5.859,-27.344,-5.859,-30.762,5.371
1688257733.676,-21.973,-12.695,-22.461,-23.926,-186.523
1688257733.680,-41.016,0.977,-10.254,10.254,-122.070
1688257733.684,-40.527,-3.418,-9.766,10.254,20.508
1688257733.688,-33.691,-34.180,-53.711,-41.992,-20.020
1688257733.692,-25.879,-48.340,-64.453,-62.988,-109.863
1688257733.696,-23.926,-42.480,-40.527,-42.969,-95.703
1688257733.699,-48.340,-33.203,-21.973,-14.160,284.668
1688257733.703,-40.527,-10.254,-8.301,11.719,555.176
1688257733.707,19.531,1.465,5.859,7.324,65.918
1688257733.711,40.039,-6.348,1.465,-15.625,-259.766
1688257733.715,-3.418,-7.812,-22.949,-41.504,-186.035
1688257733.718,-67.871,-11.230,-47.363,-51.270,-64.453
1688257733.722,-87.402,-28.809,-54.199,-46.875,-92.285
1688257733.726,-38.574,-31.738,-40.527,-44.922,-133.789
1688257733.730,-3.418,-23.926,-30.273,-41.504,-70.801
1688257733.734,-13.184,-10.254,-16.113,-29.785,-195.801
1688257733.738,-44.434,-13.672,-5.859,-16.113,-152.832
1688257733.742,-41.992,-18.066,-5.371,11.719,147.461
1688257733.745,0.977,-10.742,-6.836,12.207,297.363
1688257733.749,11.230,-9.766,-23.438,-34.180,-18.066
1688257733.753,-20.020,-20.020,-49.316,-66.895,-233.887
1688257733.757,-62.988,-23.926,-40.527,-48.828,-93.750
1688257733.761,-77.637,-23.926,-25.879,-23.926,-19.043
1688257733.763,-34.668,-20.996,-30.762,-22.461,-85.938
1688257733.767,3.906,-19.531,-23.926,-28.809,-188.965
1688257733.771,-10.254,-34.668,-32.227,-41.992,-154.297
1688257733.775,-34.668,-34.668,-32.227,-22.461,-51.758
1688257733.779,-39.062,-13.672,-11.230,22.461,-26.855
1688257733.783,-21.973,-12.207,-16.602,3.906,65.430
1688257733.787,-11.230,-28.320,-38.086,-38.086,312.012
1688257733.790,-14.160,-30.273,-37.109,-48.340,493.164
1688257733.794,-47.852,-28.809,-32.715,-50.293,83.496
1688257733.798,-71.777,-15.625,-18.066,-28.809,-164.551
1688257733.802,-38.086,-9.766,-11.230,-19.043,-60.547
1688257733.806,1.953,-17.578,-22.949,-29.297,-127.441
1688257733.808,-3.418,-35.156,-29.297,-37.598,-250.977
1688257733.812,-41.992,-47.363,-38.086,-30.762,-220.215
1688257733.816,-68.359,-30.762,-47.363,-15.625,-30.273
1688257733.820,-50.781,-25.391,-43.457,-21.973,-35.645
1688257733.824,5.371,-7.324,-25.879,-26.367,-155.762
1688257733.828,14.648,-4.883,-22.949,-34.180,-34.668
1688257733.832,-30.762,-32.227,-33.691,-36.621,188.477
1688257733.835,-62.012,-32.227,-33.691,-16.602,109.863
1688257733.839,-54.199,-25.391,-26.855,-9.766,-73.730
1688257733.843,-21.484,-34.180,-33.691,-29.297,-40.527
1688257733.847,-8.789,-47.363,-44.922,-36.133,33.691
1688257733.851,-26.367,-41.016,-33.203,-26.367,-216.309
1688257733.883,-58.105,-33.691,-24.902,-9.277,-190.918
1688257733.887,-53.223,-24.902,-25.879,0.000,-17.090
1688257733.891,-19.043,-18.555,-33.691,-34.180,-73.730
1688257733.895,-13.672,-27.832,-44.434,-54.688,-225.586
1688257733.899,-40.527,-29.785,-44.922,-38.086,-182.617
1688257733.903,-73.242,-30.762,-36.133,-28.320,66.895
1688257733.907,-69.824,-28.809,-26.855,-22.461,137.695
1688257733.910,-19.043,-22.461,-26.367,-34.180,-18.555
1688257733.914,4.395,-29.297,-23.438,-46.387,-114.746
1688257733.918,-13.184,-28.809,-16.602,-33.203,139.160
1688257733.922,-50.781,-19.043,-24.902,-27.344,347.168
1688257733.926,-73.242,-25.879,-41.992,-26.367,68.359
1688257733.929,-64.941,-29.785,-32.715,-66.406,-90.820
1688257733.933,-9.766,-18.555,-25.391,-56.641,-53.223
1688257733.937,23.926,-21.973,-20.508,-47.363,-83.984
1688257733.940,15.137,-20.996,-5.859,-18.555,-151.855
1688257733.944,-14.648,-20.508,-1.953,19.531,-99.609
1688257733.948,-37.109,-20.996,-11.719,32.715,59.082
1688257733.952,-17.578,-24.414,-19.043,10.254,28.809
1688257733.956,18.066,-34.668,-21.973,-8.301,-122.070
1688257733.957,22.949,-34.180,-17.578,-0.977,-51.758
1688257733.961,-19.043,-28.809,-12.207,10.742,301.270
1688257733.965,-41.504,-21.973,-8.789,35.645,125.488
1688257733.969,-12.207,-18.555,-8.789,38.574,-68.359
1688257733.973,21.973,-18.555,-14.160,9.277,-91.309
1688257733.977,15.137,-31.250,-33.203,-13.672,-76.172
1688257733.981,-7.324,-23.438,-20.996,-2.930,-0.977
1688257733.984,-21.484,0.000,-1.465,39.062,-41.504
1688257733.988,-18.066,-1.465,-29.785,31.250,166.504
1688257733.992,2.930,-15.137,-44.434,-9.277,272.949
1688257733.996,4.395,-26.367,-39.062,-28.809,-109.375
1688257734.000,-26.367,-30.273,-37.109,-23.926,-298.340
1688257734.003,-60.059,-28.809,-28.320,-14.160,-165.039
1688257734.007,-48.828,-22.461,-28.320,-11.230,-78.613
1688257734.011,-21.973,-27.832,-48.340,-33.203,-189.941
1688257734.015,-16.602,-33.203,-48.828,-52.246,-192.871
1688257734.019,-26.855,-25.391,-32.715,-30.762,-45.410
1688257734.023,-51.758,-19.043,-19.531,-1.465,-14.160
1688257734.027,-35.156,-15.137,-5.859,18.066,-44.922
1688257734.030,4.395,-22.949,-8.301,7.812,11.230
1688257734.034,19.043,-13.184,-12.207,-10.742,139.648
1688257734.038,-17.578,-20.020,-32.227,-34.668,-6.836
1688257734.042,-83.008,-48.340,-63.477,-54.688,-142.578
1688257734.046,-77.148,-39.551,-58.105,-42.969,-41.992
1688257734.047,-32.227,-39.062,-48.340,-53.223,-41.016
1688257734.051,-13.672,-44.434,-44.922,-59.570,-191.895
1688257734.055,-12.207,-32.715,-29.785,-41.016,-179.199
1688257734.059,-19.531,-0.977,3.906,5.371,9.766
1688257734.063,-31.250,1.465,3.418,24.902,12.695
1688257734.067,-28.809,-41.504,-37.109,-26.855,-30.762
1688257734.071,-22.949,-53.223,-59.082,-69.824,-108.887
1688257734.074,-33.203,-39.062,-52.246,-56.152,88.867
1688257734.078,-50.781,-23.438,-25.879,-9.766,461.914
1688257734.082,-58.594,-15.625,-13.672,-3.418,168.457
1688257734.086,-37.109,-27.344,-31.738,-41.992,-79.590
1688257734.090,-13.672,-38.574,-46.875,-65.918,-123.047
1688257734.092,-20.508,-25.879,-34.668,-54.199,-227.539
1688257734.096,-44.922,-17.578,-19.531,-25.879,-191.406
1688257734.100,-60.059,-21.973,-19.531,-3.418,-25.391
1688257734.104,-31.738,-19.043,-20.996,-5.371,64.941
1688257734.108,1.953,-15.137,-23.438,-19.043,-78.613
1688257734.112,-9.766,-16.113,-27.832,-32.715,-210.938
1688257734.116,-69.824,-41.504,-42.969,-60.059,-54.199
1688257734.119,-97.656,-42.969,-32.227,-58.105,468.262
1688257734.123,-56.641,-26.855,-21.973,-40.039,273.438
1688257734.127,-24.414,-26.367,-29.785,-42.969,-201.660
1688257734.131,-19.043,-20.996,-26.367,-41.016,-153.320
1688257734.135,-34.180,-17.090,-23.926,-26.855,-165.527
1688257734.137,-65.430,-23.438,-26.367,-13.672,-176.270
1688257734.141,-61.035,-42.969,-31.250,-26.367,-119.629
1688257734.145,-12.207,-32.715,-22.949,-32.227,-120.117
1688257734.149,-2.441,-10.742,-15.625,-44.922,-159.180
1688257734.153,-46.875,-13.672,-28.809,-64.941,-130.859
1688257734.157,-78.613,-17.090,-42.969,-48.828,-25.391
1688257734.161,-49.316,-20.020,-37.598,-26.367,334.473
1688257734.164,9.277,-18.555,-28.809,-18.555,395.508
1688257734.168,21.973,-2.930,-20.996,-17.090,-62.500
1688257734.172,-19.531,-9.277,-20.508,-24.414,-168.945
1688257734.176,-71.777,-38.574,-36.621,-28.809,65.918
1688257734.180,-69.336,-43.457,-46.875,-34.180,78.125
1688257734.182,-7.324,-21.973,-37.109,-27.832,-234.375
1688257734.186,23.438,-15.625,-16.113,-14.160,-227.539
1688257734.190,-13.184,-27.832,-15.625,-7.324,-122.070
1688257734.194,-66.895,-33.691,-26.367,9.277,-114.746
1688257734.198,-72.266,-32.715,-30.273,6.836,-113.281
1688257734.202,-12.695,-22.949,-16.602,-17.578,-41.992
1688257734.206,16.602,-14.160,-17.578,-45.898,45.410
1688257734.209,-22.461,-25.391,-42.480,-56.641,-108.887
1688257734.213,-71.289,-37.109,-40.039,-39.551,-231.445
1688257734.217,-73.730,-29.785,-27.344,-14.160,-20.508
1688257734.221,-18.555,-15.625,-12.207,-14.160,165.039
1688257734.225,0.977,-19.043,-16.113,-50.293,-3.418
1688257734.242,-31.250,-29.297,-30.273,-65.430,-171.875
1688257734.246,-62.012,-26.855,-20.996,-38.574,-5.859
1688257734.250,-64.941,-20.996,-13.184,-3.906,114.258
1688257734.254,-29.297,-25.879,-29.297,-8.789,-65.430
1688257734.258,-0.488,-20.508,-28.809,-19.531,-116.211
1688257734.262,-22.461,-26.367,-32.227,-38.086,1.465
1688257734.266,-63.477,-36.133,-35.645,-51.270,88.379
1688257734.269,-82.031,-35.156,-36.621,-41.016,121.582
1688257734.273,-54.199,-37.598,-50.781,-55.664,-10.742
1688257734.277,-17.090,-30.273,-41.016,-69.336,77.148
1688257734.281,-1.953,-13.672,-27.832,-64.453,191.406
1688257734.285,-32.227,-15.137,-32.715,-52.734,-130.371
1688257734.287,-57.617,-20.020,-26.855,-27.344,-95.703
1688257734.291,-22.461,-16.113,-13.672,-19.531,57.129
1688257734.295,-0.488,-28.320,-19.531,-42.969,-101.562
1688257734.299,-21.973,-35.645,-37.598,-59.082,-249.512
1688257734.303,-60.547,-30.762,-49.316,-44.922,-73.730
1688257734.307,-80.566,-28.809,-41.504,-22.461,103.516
1688257734.311,-46.875,-28.320,-35.645,-16.602,25.879
1688257734.314,-5.859,-25.879,-32.715,-26.855,-76.660
1688257734.318,8.301,-20.508,-21.973,-24.414,-105.469
1688257734.322,-13.184,-19.043,-16.113,-10.254,82.520
1688257734.326,-54.199,-17.090,-11.719,-6.348,-14.160
1688257734.330,-41.016,-5.859,-16.113,-20.996,-140.137
1688257734.333,4.883,-6.836,-25.879,-38.086,-91.797
1688257734.337,10.254,-18.555,-11.230,-42.480,-137.695
1688257734.341,-42.480,-38.574,-17.578,-56.152,-205.078
1688257734.345,-104.004,-56.152,-42.969,-56.641,-73.730
1688257734.349,-98.145,-56.152,-39.551,-45.898,192.383
1688257734.353,-33.691,-47.852,-20.508,-48.828,163.574
1688257734.357,-0.977,-36.621,-1.465,-46.875,-52.734
1688257734.360,-30.762,-35.645,-5.859,-39.062,-127.441
1688257734.364,-83.008,-39.062,-27.344,-26.855,121.094
1688257734.368,-80.078,-26.855,-30.273,-20.996,362.793
1688257734.372,-20.508,-17.578,-27.832,-36.133,-18.066
1688257734.376,-1.953,-22.461,-29.297,-42.480,-246.582
1688257734.377,-35.645,-37.598,-33.691,-37.598,-235.840
1688257734.381,-80.566,-46.387,-41.504,-33.203,-171.875
1688257734.385,-83.496,-42.969,-39.062,-30.762,-102.051
1688257734.389,-29.785,-36.621,-26.855,-37.109,-88.867
1688257734.393,-4.395,-31.250,-18.066,-46.387,-90.820
1688257734.397,-17.090,-31.250,-9.766,-36.133,-156.250
1688257734.401,-49.805,-33.203,-13.672,-24.414,-149.414
1688257734.404,-76.172,-47.852,-38.574,-21.973,96.191
1688257734.408,-50.781,-46.875,-54.688,-45.410,375.977
1688257734.412,-29.297,-24.414,-49.805,-72.754,92.773
1688257734.416,-31.738,-18.555,-31.250,-71.289,-230.957
1688257734.420,-55.176,-24.414,-20.508,-47.852,-129.883
1688257734.423,-66.895,-18.555,-20.996,-13.184,-63.965
1688257734.427,-24.414,-19.531,-20.996,1.953,-83.496
1688257734.431,28.809,-18.555,-4.395,-8.789,-167.480
1688257734.435,24.902,-15.137,-8.301,-15.137,-188.477
1688257734.439,-38.086,-26.855,-41.016,-14.648,-123.535
1688257734.443,-82.520,-41.992,-62.012,-30.273,-38.086
1688257734.447,-50.293,-33.691,-58.594,-46.387,-2.930
1688257734.450,-7.324,-20.996,-46.875,-58.105,178.223
1688257734.454,-0.488,-15.137,-24.414,-39.551,466.797
1688257734.458,-24.902,-5.859,-10.742,-13.184,120.605
1688257734.462,-43.945,-10.254,-12.695,6.836,-172.363
1688257734.466,-3.906,-20.020,-1.465,21.973,-50.781
1688257734.467,9.766,-45.410,-24.414,-21.484,-102.051
1688257734.471,-23.438,-61.523,-63.477,-66.406,-203.125
1688257734.475,-55.176,-44.434,-57.129,-71.289,-152.832
1688257734.479,-68.848,-19.043,-34.180,-49.805,20.508
1688257734.483,-33.203,-18.555,-14.648,-17.090,18.555
1688257734.487,19.531,-27.344,-7.324,-7.324,-56.641
1688257734.491,15.625,-32.227,-22.949,-39.062,-51.758
1688257734.494,-32.715,-36.133,-32.715,-56.641,122.559
1688257734.498,-79.102,-31.250,-40.039,-38.574,37.109
1688257734.502,-70.312,-47.363,-47.363,-37.598,-140.137
1688257734.506,-17.090,-47.852,-35.645,-35.645,-44.922
1688257734.510,5.859,-26.367,-24.414,-34.668,-80.078
1688257734.512,-22.949,-29.297,-22.949,-34.668,-193.359
1688257734.516,-66.895,-32.227,-17.090,-13.672,-167.969
1688257734.520,-55.664,-29.297,-26.367,-7.812,20.508
1688257734.524,0.488,-26.367,-34.668,-25.391,43.457
1688257734.528,4.883,-25.391,-19.531,-39.062,-160.645
1688257734.532,-33.203,-35.645,-18.555,-43.457,-188.477
1688257734.536,-78.125,-43.945,-24.902,-41.016,119.141
1688257734.539,-82.520,-42.480,-23.926,-34.180,430.176
1688257734.543,-25.879,-39.062,-21.973,-37.109,41.504
1688257734.547,6.348,-34.180,-13.672,-50.293,-208.496
1688257734.551,-16.602,-30.762,-8.301,-37.598,-91.797
1688257734.555,-54.199,-25.391,-3.418,-11.230,-81.543
1688257734.558,-61.035,-33.691,-9.277,-2.441,-167.969
1688257734.562,-17.578,-40.039,-21.484,-11.719,-57.617
1688257734.566,19.531,-26.367,-10.254,-25.391,15.625
1688257734.570,-2.930,-24.414,-6.836,-25.391,-173.340
1688257734.574,-55.176,-34.668,-19.531,-7.812,-228.516
1688257734.578,-70.312,-41.504,-25.391,16.602,90.332
1688257734.582,-24.414,-34.180,-19.531,24.414,297.363
1688257734.585,8.301,-33.691,-11.719,-10.254,-30.273
1688257734.589,-8.301,-47.852,-26.367,-48.828,-309.570
1688257734.593,-41.992,-38.086,-28.320,-42.969,-95.703
1688257734.597,-68.848,-27.832,-32.227,-31.250,135.254
1688257734.601,-47.363,-33.691,-41.016,-31.250,-58.594
1688257734.633,-6.348,-37.598,-31.250,-36.621,-201.660
1688257734.637,-9.277,-43.945,-29.785,-45.898,-134.766
1688257734.641,-43.457,-40.527,-26.855,-27.832,-77.637
1688257734.645,-67.871,-36.133,-14.648,1.953,-51.758
1688257734.649,-42.480,-37.598,-12.207,-8.301,-58.594
1688257734.653,-15.137,-36.621,-36.621,-38.574,211.914
1688257734.657,-30.273,-48.828,-57.617,-62.012,338.379
1688257734.660,-48.340,-38.086,-40.039,-43.457,21.973
1688257734.664,-65.918,-21.484,-25.391,-30.762,-60.547
1688257734.668,-44.922,-29.297,-26.855,-41.504,151.367
1688257734.672,1.465,-32.227,-34.180,-62.500,127.930
1688257734.676,29.297,-17.090,-24.414,-68.848,-284.668
1688257734.662,9.277,-17.578,-13.672,-50.293,-264.160
1688257734.666,-47.852,-31.250,-27.832,-34.180,-94.727
1688257734.670,-39.062,-25.879,-28.320,-23.438,-57.129
1688257734.674,5.859,-17.090,-25.879,-33.203,-132.812
1688257734.678,7.324,-15.625,-39.551,-35.645,-122.070
1688257734.682,-33.691,-29.297,-50.293,-28.320,-30.762
1688257734.686,-78.125,-38.086,-46.387,-15.625,59.570
1688257734.689,-64.941,-27.832,-31.738,-2.441,110.352
1688257734.693,-21.973,-25.391,-21.484,-18.555,50.293
1688257734.697,-11.719,-31.250,-24.414,-35.645,-61.035
1688257734.701,-46.387,-31.250,-34.180,-28.320,-141.602
1688257734.705,-86.426,-37.109,-33.203,-16.113,-124.512
1688257734.707,-59.082,-35.645,-16.602,-1.953,44.922
1688257734.711,-3.906,-22.949,-13.184,-0.488,343.750
1688257734.715,-2.441,-19.043,-25.391,-31.250,9.766
1688257734.719,-31.738,-26.367,-31.738,-39.062,-288.086
1688257734.723,-69.824,-30.762,-38.574,-27.344,-98.633
1688257734.727,-67.871,-24.902,-30.273,-8.301,74.707
1688257734.731,-18.066,-23.926,-18.555,-16.602,84.473
1688257734.734,-33.203,-40.527,-35.645,-64.453,-25.391
1688257734.738,-71.289,-46.387,-42.969,-65.430,137.695
1688257734.742,-83.496,-38.086,-30.273,-30.762,510.254
1688257734.746,-85.938,-33.691,-20.508,-20.996,221.680
1688257734.750,-35.156,-21.484,-3.418,-19.043,-150.391
1688257734.752,8.789,-10.742,6.836,-19.043,-187.988
1688257734.756,-15.137,-32.227,-8.789,-43.945,-261.230
1688257734.760,-57.617,-46.875,-14.648,-38.574,-227.051
1688257734.764,-70.801,-41.504,-15.137,-9.277,-133.789
1688257734.768,-29.785,-40.527,-21.973,-19.531,-44.922
1688257734.772,9.766,-33.691,-17.578,-31.738,-2.441
1688257734.776,-1.465,-17.090,-17.090,-29.785,-114.746
1688257734.779,-39.062,-15.625,-25.879,-17.578,-59.082
1688257734.783,-50.781,-15.625,-11.230,15.625,265.137
1688257734.787,-14.160,-14.648,-6.836,10.254,108.398
1688257734.791,6.836,-26.855,-26.367,-15.137,-193.848
1688257734.795,-13.184,-36.621,-31.738,-39.062,-85.938
1688257734.797,-55.664,-49.316,-40.039,-48.340,-3.906
1688257734.801,-77.148,-42.969,-43.457,-28.320,-105.469
1688257734.805,-46.875,-29.297,-38.086,-15.137,-120.117
1688257734.809,-8.789,-31.250,-36.621,-32.715,-6.348
1688257734.813,-3.418,-23.926,-33.691,-54.199,-80.566
1688257734.817,-31.738,-12.207,-28.320,-31.250,-129.883
1688257734.821,-44.434,2.441,-8.301,10.254,34.668
1688257734.824,-19.043,1.465,-5.371,15.137,262.695
1688257734.828,2.930,-23.438,-22.461,-21.484,435.059
1688257734.832,-0.977,-41.016,-25.391,-54.688,6.348
1688257734.836,-54.199,-55.176,-45.410,-77.148,-208.008
1688257734.840,-106.445,-62.500,-58.594,-68.359,-45.410
1688257734.844,-72.266,-38.086,-34.180,-23.926,-57.129
1688257734.848,-16.113,-24.902,-29.297,-26.367,-144.531
1688257734.852,3.418,-19.531,-31.250,-39.551,-128.906
1688257734.856,-17.578,-11.230,-20.020,-19.531,-20.996
1688257734.860,-67.871,-14.160,-31.250,-2.930,-27.344
1688257734.864,-70.312,-28.320,-42.969,-8.789,-85.449
1688257734.868,-23.926,-38.574,-30.762,-34.668,42.480
1688257734.871,0.000,-32.715,-26.855,-37.598,174.316
1688257734.875,-5.371,-23.438,-22.461,-30.762,-99.121
1688257734.879,-40.039,-25.879,-17.578,-13.184,-248.047
1688257734.883,-57.129,-43.457,-44.434,-4.395,-40.527
1688257734.887,-19.043,-46.875,-50.293,-25.391,-38.574
1688257734.887,-2.441,-47.363,-38.086,-49.805,-208.984
1688257734.891,-26.855,-39.551,-30.273,-49.316,-244.141
1688257734.895,-54.688,-30.762,-20.020,-22.461,-71.777
1688257734.899,-56.152,-35.156,-25.879,-4.883,5.859
1688257734.903,-27.344,-35.645,-36.133,-24.414,-11.230
1688257734.907,-2.441,-29.785,-24.414,-45.410,-56.152
1688257734.911,-13.184,-35.156,-15.137,-35.156,141.113
1688257734.914,-56.152,-38.086,-22.461,-24.414,447.266
1688257734.918,-76.172,-29.297,-26.367,-18.066,92.285
1688257734.922,-28.320,-24.902,-24.414,-11.230,-208.496
1688257734.926,12.207,-23.926,-26.367,-22.949,-106.445
1688257734.930,-2.930,-25.879,-23.926,-27.344,-169.922
1688257734.932,-27.832,-19.043,-12.207,-2.441,-233.887
1688257734.936,-46.387,-5.371,-18.555,9.277,-62.500
1688257734.940,-34.668,-21.484,-41.016,-27.832,-36.133
1688257734.944,-5.371,-42.480,-43.457,-56.152,-149.414
1688257734.948,-13.184,-35.645,-44.922,-57.129,-224.609
1688257734.952,-45.898,-21.973,-46.875,-37.598,-45.898
1688257734.956,-67.383,-17.578,-38.086,-4.883,265.137
1688257734.959,-48.828,-25.879,-41.016,-5.859,142.090
1688257734.963,-7.812,-17.578,-41.016,-28.809,-171.387
1688257734.967,2.441,-3.906,-27.832,-28.809,-96.680
1688257734.971,-31.738,-16.602,-28.809,-18.066,59.570
1688257734.975,-78.613,-34.668,-44.434,-24.414,-38.086
1688257734.993,-75.195,-39.551,-53.711,-39.062,-77.637
1688257734.997,-34.180,-29.785,-45.410,-57.129,-165.527
1688257735.001,-23.926,-20.020,-29.297,-58.594,-255.371
1688257735.005,-42.480,-19.043,-15.625,-35.645,-256.348
1688257735.009,-60.059,-18.555,-7.812,-4.395,-161.621
1688257735.013,-39.062,-17.090,-12.207,1.953,113.281
1688257735.017,-8.789,-28.809,-27.832,-28.320,124.512
1688257735.020,-6.836,-34.668,-37.109,-46.875,-104.980
1688257735.024,-36.621,-35.645,-42.480,-53.223,-164.062
1688257735.028,-83.008,-42.969,-47.363,-42.480,164.062
1688257735.032,-72.266,-41.504,-41.992,-14.160,537.109
1688257735.036,-12.695,-25.879,-26.367,-15.625,94.238
1688257735.038,19.531,-6.836,-4.883,-18.555,-287.109
1688257735.042,-11.230,-24.414,-18.066,-34.668,-254.395
1688257735.046,-71.777,-44.434,-46.875,-45.410,-208.496
1688257735.050,-76.172,-37.598,-53.223,-27.832,-153.809
1688257735.054,-22.461,-34.180,-41.992,-34.180,-108.398
1688257735.058,-6.348,-41.016,-34.668,-48.340,-113.281
1688257735.062,-18.555,-33.203,-27.344,-33.203,-81.543
1688257735.065,-38.574,-24.902,-14.160,-7.324,-66.895
1688257735.069,-37.109,-25.879,-10.742,3.418,96.680
1688257735.073,-7.812,-33.691,-22.461,-24.902,341.309
1688257735.077,3.418,-35.156,-27.832,-52.246,46.875
1688257735.081,-9.277,-32.227,-24.414,-43.945,-135.254
1688257735.082,-45.410,-30.273,-27.832,-27.344,108.398
1688257735.086,-53.711,-26.367,-26.367,-10.254,161.133
1688257735.090,-26.855,-39.062,-29.297,-22.461,-20.020
1688257735.094,-5.859,-52.246,-34.180,-38.086,-72.754
1688257735.098,4.883,-39.062,-16.113,-17.090,-76.660
1688257735.102,-30.273,-18.066,-13.672,-5.371,-26.367
1688257735.106,-87.891,-25.879,-39.551,-33.203,67.871
1688257735.109,-63.965,-41.992,-52.734,-53.711,55.176
1688257735.113,-14.160,-40.039,-45.898,-54.688,191.406
1688257735.117,-18.066,-32.715,-39.551,-53.711,286.133
1688257735.121,-40.039,-14.160,-27.344,-35.156,-63.965
1688257735.125,-53.223,-4.395,-20.020,-9.277,-154.785
1688257735.128,-29.297,-6.348,-33.203,-22.461,-62.988
1688257735.132,4.883,-11.719,-44.922,-45.898,-187.012
1688257735.136,10.254,-0.977,-37.109,-35.156,-243.652
1688257735.140,-19.043,9.277,-37.598,-27.344,-144.043
1688257735.144,-76.660,-23.926,-57.617,-44.434,31.738
1688257735.148,-62.012,-31.738,-57.129,-55.176,70.312
1688257735.152,-5.371,-18.555,-41.992,-53.711,-15.625
1688257735.155,1.953,-23.438,-31.738,-52.246,-78.125
1688257735.159,-19.043,-15.625,-27.344,-20.020,81.543
1688257735.163,-50.781,-3.418,-29.785,-3.418,15.137
1688257735.167,-59.570,-25.391,-53.223,-45.410,-132.324
1688257735.171,-32.227,-44.922,-62.988,-70.312,-75.684
1688257735.173,-19.531,-47.852,-50.781,-68.359,-172.852
1688257735.177,-43.945,-42.480,-44.922,-53.711,-267.578
1688257735.181,-69.336,-29.297,-33.691,-22.461,-145.020
1688257735.185,-40.527,-14.648,-17.090,0.977,-13.672
1688257735.189,14.648,-1.465,-4.395,-7.324,-6.836
1688257735.193,23.926,-9.766,-16.602,-32.227,-32.715
1688257735.197,-2.441,-18.066,-31.250,-25.879,-88.379
1688257735.200,-47.363,-37.109,-40.527,-5.371,164.062
1688257735.204,-59.570,-53.223,-54.688,-8.301,589.355
1688257735.208,-9.766,-34.668,-44.922,-21.973,235.352
1688257735.212,16.602,-21.973,-35.156,-34.668,-213.379
1688257735.216,8.301,-2.441,-17.090,-17.090,-129.883
1688257735.217,-20.996,6.348,-7.324,2.441,-146.484
1688257735.221,-56.152,-29.297,-33.203,-20.020,-183.594
1688257735.225,-33.203,-52.734,-43.945,-53.223,-120.117
1688257735.229,6.836,-37.598,-30.762,-64.453,-156.738
1688257735.233,0.000,-31.738,-20.996,-42.969,-193.848
1688257735.237,-38.574,-32.715,-20.020,-18.066,-69.336
1688257735.241,-56.641,-24.414,-24.414,-8.789,98.145
1688257735.244,-20.996,-20.996,-24.414,-14.648,418.945
1688257735.248,11.719,-21.484,-28.809,-20.508,208.008
1688257735.252,-11.719,-33.203,-34.668,-39.062,-263.184
1688257735.256,-47.363,-31.738,-35.156,-42.480,-168.945
1688257735.260,-63.965,-27.344,-34.180,-18.066,-57.617
1688257735.262,-33.203,-39.062,-25.391,-18.066,-122.559
1688257735.266,14.160,-31.738,-10.742,-31.738,-205.566
1688257735.270,3.418,-24.902,-10.254,-32.227,-156.250
1688257735.274,-50.781,-33.203,-29.297,-24.414,-89.844
1688257735.278,-77.637,-31.250,-38.086,-17.578,-56.152
1688257735.282,-33.203,-23.926,-24.902,-17.090,58.105
1688257735.286,7.812,-23.926,-20.020,-40.527,187.988
1688257735.289,2.441,-28.320,-23.926,-49.316,124.023
1688257735.293,-16.602,-33.203,-22.461,-9.277,-126.953
1688257735.297,-25.879,-22.461,-11.230,33.691,-92.285
1688257735.301,-12.207,-7.324,-19.531,9.766,251.465
1688257735.305,-1.465,-22.949,-39.062,-41.992,122.070
1688257735.308,1.465,-34.668,-34.668,-41.504,-288.574
1688257735.312,-19.043,-37.109,-31.738,-16.113,-208.008
1688257735.316,-48.828,-29.785,-27.832,11.719,125.000
1688257735.320,-34.668,-19.531,-21.484,20.508,59.570
1688257735.324,17.578,-13.184,-20.020,-0.488,-228.516
1688257735.328,44.922,-4.395,-8.301,-8.789,-64.941
1688257735.332,-0.977,-15.625,-23.438,-21.484,203.125
1688257735.335,-40.039,-22.461,-27.832,-4.395,-9.277
1688257735.339,-22.949,-23.926,-16.113,11.230,-147.461
1688257735.343,0.000,-29.297,-22.461,-20.508,-65.430
1688257735.347,3.418,-28.320,-18.066,-34.180,-65.430
1688257735.351,-28.320,-31.250,-25.879,-33.203,-190.918
1688257735.353,-73.730,-44.434,-38.574,-35.645,-110.352
1688257735.357,-63.965,-40.527,-34.668,-25.879,159.668
1688257735.361,-18.066,-27.344,-30.273,-26.367,55.176
1688257735.365,3.906,-15.137,-21.484,-44.434,-195.801
1688257735.369,-13.672,-8.789,-12.695,-41.504,-229.492
1688257735.373,-38.086,0.000,3.418,0.000,164.551
1688257735.377,-27.344,5.859,4.883,22.461,436.035
1688257735.380,-15.625,-30.273,-28.320,-29.297,78.613
1688257735.384,-19.043,-49.316,-51.758,-73.730,-167.969
1688257735.388,-40.527,-46.875,-51.758,-73.242,-5.859
1688257735.392,-69.336,-37.109,-36.621,-30.762,116.699
1688257735.396,-62.500,-15.137,-20.508,11.719,-101.074
1688257735.413,-7.812,-5.371,-12.695,4.883,-121.094
1688257735.417,16.113,-5.859,-16.602,-33.691,-132.324
1688257735.421,-14.648,-19.043,-19.531,-52.734,-206.055
1688257735.425,-41.016,-11.719,-8.301,-22.461,-184.082
1688257735.429,-48.340,-11.719,-12.695,-7.324,-31.250
1688257735.433,-28.320,-38.574,-38.574,-39.551,102.051
1688257735.437,3.418,-44.922,-45.410,-63.965,-17.090
1688257735.440,17.090,-30.762,-34.668,-50.781,-256.836
1688257735.444,-4.395,-15.137,-26.855,-28.809,-147.461
1688257735.448,-39.551,-21.973,-32.227,-41.504,169.434
1688257735.452,-20.996,-34.180,-41.016,-56.641,3.418
1688257735.456,15.625,-32.227,-43.457,-62.500,-204.590
1688257735.473,18.066,-22.461,-20.020,-44.922,-168.457
1688257735.477,-12.207,-15.625,-1.465,-10.254,-107.910
1688257735.481,-46.387,-12.695,-8.789,18.555,-37.109
1688257735.485,-33.203,-21.484,-24.414,16.113,14.648
1688257735.489,-16.113,-44.434,-42.480,-22.461,-37.598
1688257735.493,-14.160,-30.762,-32.715,-26.855,-99.121
1688257735.497,-37.598,-22.949,-33.203,-15.137,-76.172
1688257735.500,-82.520,-36.621,-46.875,-13.672,15.137
1688257735.504,-77.637,-43.457,-46.875,-19.531,311.035
1688257735.508,-32.227,-45.410,-41.016,-45.410,523.926
1688257735.512,-11.230,-31.250,-24.902,-58.105,94.238
1688257735.516,-20.508,-6.348,-5.371,-28.320,-222.168
1688257735.502,-46.387,5.859,-13.184,-2.441,-107.422
1688257735.506,-59.082,-28.320,-45.898,-26.855,-59.082
1688257735.510,-38.574,-64.941,-54.199,-62.012,-160.645
1688257735.514,-21.484,-54.199,-38.574,-68.848,-232.910
1688257735.518,-28.320,-30.273,-24.414,-46.387,-184.082
1688257735.522,-57.617,-25.391,-22.461,-19.531,-48.340
1688257735.526,-50.781,-22.461,-25.879,-14.160,77.637
1688257735.529,-14.160,-21.973,-27.832,-32.227,103.516
1688257735.533,-7.812,-26.855,-30.273,-42.969,19.043
1688257735.537,-27.344,-27.832,-29.297,-36.621,-188.477
1688257735.541,-70.801,-38.574,-36.621,-21.973,-176.758
1688257735.545,-80.566,-45.898,-47.363,-12.695,61.035
1688257735.548,-37.109,-34.180,-41.016,-21.484,354.004
1688257735.552,-19.531,-29.785,-36.621,-43.457,91.309
1688257735.556,-25.879,-44.434,-20.996,-33.691,-229.492
1688257735.560,-39.551,-40.527,-8.301,-4.883,-81.055
1688257735.564,-56.641,-26.855,-24.414,-16.602,-1.465
1688257735.568,-33.203,-31.738,-33.203,-39.551,-51.758
1688257735.572,-1.465,-27.344,-31.250,-40.039,-97.656
1688257735.575,-17.578,-30.273,-34.668,-35.156,155.273
1688257735.579,-49.805,-26.855,-37.598,-16.602,407.227
1688257735.583,-49.316,-9.766,-26.367,0.977,45.410
1688257735.587,-21.484,-23.438,-37.598,-29.297,-160.645
1688257735.591,0.977,-29.785,-52.246,-60.547,-104.980
1688257735.593,-6.348,-20.996,-44.434,-55.176,-187.012
1688257735.597,-38.086,-18.555,-28.809,-25.391,-259.766
1688257735.601,-48.340,-11.719,-21.973,9.277,-76.172
1688257735.605,0.977,-6.348,-11.719,12.695,14.160
1688257735.609,31.738,-19.043,-3.418,-12.695,-151.367
1688257735.613,11.230,-23.926,-20.508,-21.484,-159.180
1688257735.617,-31.250,-24.414,-36.621,-30.273,27.344
1688257735.620,-84.473,-46.387,-53.711,-49.805,268.555
1688257735.624,-71.289,-58.105,-66.406,-59.570,67.383
1688257735.628,-15.625,-46.875,-50.293,-58.594,-226.562
1688257735.632,-1.465,-33.203,-30.762,-44.434,-206.055
1688257735.636,-14.160,-20.996,-9.766,-18.066,-157.715
1688257735.638,-32.227,-18.066,4.883,6.836,-43.945
1688257735.642,-33.691,-37.109,-22.461,-8.789,-15.625
1688257735.646,-11.230,-42.480,-40.039,-42.969,-24.902
1688257735.650,-17.578,-35.156,-39.551,-57.129,-73.242
1688257735.654,-41.504,-23.926,-36.133,-41.016,-137.207
1688257735.658,-62.500,-13.184,-30.762,-2.930,-39.551
1688257735.662,-56.641,-35.645,-41.992,-9.277,292.480
1688257735.665,-10.254,-45.410,-44.434,-27.344,555.664
1688257735.669,4.395,-33.691,-35.645,-28.320,56.641
1688257735.673,-25.879,-35.156,-35.645,-38.086,-262.695
1688257735.677,-57.129,-34.668,-33.691,-30.273,-41.992
1688257735.681,-53.711,-36.621,-35.645,-27.832,-43.457
1688257735.683,-8.301,-33.691,-34.180,-39.551,-191.406
1688257735.687,18.066,-11.230,-17.090,-37.598,-210.938
1688257735.691,-26.367,-19.043,-29.297,-57.129,-208.008
1688257735.695,-83.984,-38.574,-46.875,-61.035,-179.199
1688257735.699,-76.660,-43.457,-48.828,-42.969,-152.344
1688257735.703,-16.602,-32.227,-39.062,-33.203,-97.656
1688257735.707,18.555,-15.137,-18.555,-20.020,293.945
1688257735.710,-1.953,-17.090,-8.301,-8.789,169.434
1688257735.714,-49.805,-28.320,-23.926,-0.977,-261.719
1688257735.718,-63.477,-42.480,-42.480,-12.207,-91.309
1688257735.722,-31.738,-40.527,-37.598,-43.457,-44.434
1688257735.726,-4.883,-34.180,-27.344,-55.664,-270.508
1688257735.743,-14.160,-37.598,-19.531,-51.758,-277.344
1688257735.747,-59.570,-33.203,-27.344,-50.293,-145.020
1688257735.751,-75.195,-31.738,-41.016,-31.738,-81.543
1688257735.755,-24.902,-38.086,-39.551,-37.109,-120.117
1688257735.759,4.883,-41.504,-34.668,-57.617,-177.246
1688257735.763,5.859,-12.695,-10.254,-23.438,-121.094
1688257735.767,-31.738,-13.672,-6.836,-5.859,-20.508
1688257735.770,-84.961,-47.852,-47.852,-31.738,38.086
1688257735.774,-60.547,-49.805,-57.129,-50.293,2.441
1688257735.778,-14.648,-43.945,-34.668,-48.340,98.633
1688257735.782,-11.230,-33.691,-23.438,-32.227,346.680
1688257735.786,-38.574,-20.508,-20.508,-20.020,65.430
1688257735.788,-63.965,-20.996,-22.461,0.000,-134.277
1688257735.792,-37.109,-29.297,-32.715,-2.441,-32.227
1688257735.796,0.000,-28.809,-33.691,-29.785,-104.492
1688257735.800,-12.695,-32.715,-37.109,-45.898,-184.082
1688257735.804,-50.293,-45.410,-35.156,-42.480,-86.914
1688257735.808,-81.543,-54.199,-30.762,-34.668,130.371
1688257735.812,-41.992,-43.945,-16.602,-21.973,176.758
1688257735.815,6.348,-22.461,-10.254,-29.785,-21.484
1688257735.819,-3.418,-22.461,-26.855,-62.500,-83.008
1688257735.823,-23.926,-14.160,-20.508,-40.527,304.199
1688257735.827,-66.895,-18.555,-29.297,-18.066,292.480
1688257735.831,-70.801,-38.086,-54.199,-35.645,-20.508
1688257735.832,-26.855,-35.645,-46.387,-48.828,-32.227
1688257735.836,-14.648,-36.133,-31.250,-44.922,-105.469
1688257735.840,-33.691,-47.852,-18.066,-32.715,-185.059
1688257735.844,-64.453,-48.340,-12.207,-16.113,-130.371
1688257735.848,-46.387,-28.809,-12.695,-7.324,-53.711
1688257735.852,-0.977,-15.137,-18.555,-19.043,10.254
1688257735.856,-0.977,-19.531,-26.855,-29.785,-59.570
1688257735.859,-42.480,-30.762,-35.645,-46.875,-180.176
1688257735.863,-82.520,-42.969,-44.434,-49.316,116.699
1688257735.867,-77.148,-39.551,-40.039,-40.039,397.949
1688257735.871,-39.551,-31.738,-33.203,-49.805,84.473
1688257735.875,-15.625,-32.227,-30.273,-58.594,-149.902
1688257735.877,-23.926,-36.133,-18.066,-45.410,-87.891
1688257735.881,-50.293,-34.668,-10.742,-16.113,-68.848
1688257735.885,-47.852,-25.879,-13.672,2.930,-123.047
1688257735.889,-21.484,-26.855,-21.484,-21.973,-101.074
1688257735.893,-22.461,-34.180,-36.621,-64.453,-145.508
1688257735.897,-48.828,-44.922,-46.875,-72.754,-167.480
1688257735.901,-79.590,-36.621,-34.180,-39.551,-50.781
1688257735.904,-73.730,-29.297,-30.762,-17.578,116.211
1688257735.908,-28.320,-27.832,-33.203,-26.367,247.559
1688257735.912,1.465,-23.438,-22.949,-39.551,-35.645
1688257735.916,-12.207,-24.414,-14.648,-54.688,-277.832
1688257735.920,-48.340,-23.438,-10.254,-38.086,-146.484
1688257735.923,-74.219,-41.016,-30.273,-33.203,-9.766
1688257735.927,-54.199,-54.688,-53.711,-61.035,-26.367
1688257735.931,-17.578,-43.945,-50.781,-70.312,-220.703
1688257735.935,-22.949,-40.039,-38.086,-60.547,-97.656
1688257735.939,-56.641,-31.250,-23.926,-35.156,-8.301
1688257735.943,-58.594,-12.207,-11.719,-11.230,-13.184
1688257735.947,-23.926,-13.184,-23.926,-24.902,3.906
1688257735.950,2.930,-29.297,-28.809,-43.945,131.836
1688257735.954,-0.488,-28.320,-20.996,-44.922,333.984
1688257735.958,-45.410,-29.297,-32.227,-50.293,-27.832
1688257735.962,-78.125,-47.363,-40.039,-29.297,-145.996
1688257735.966,-48.828,-55.176,-31.738,-30.273,-13.672
1688257735.968,-10.742,-35.645,-24.414,-61.523,-126.465
1688257735.972,-8.301,-16.113,-13.672,-53.223,-231.445
1688257735.976,-46.875,-20.020,-14.160,-41.504,-167.969
1688257735.980,-83.984,-26.367,-22.949,-20.996,16.113
1688257735.984,-66.406,-32.715,-32.227,-21.484,95.703
1688257735.988,-42.969,-41.992,-50.781,-65.918,-32.227
1688257735.992,-36.621,-35.156,-54.199,-73.730,-85.449
1688257735.995,-42.969,-22.949,-41.504,-41.992,257.324
1688257735.999,-61.035,-27.344,-29.297,-28.320,254.883
1688257736.003,-36.621,-28.320,-20.020,-24.902,-119.141
1688257736.007,0.000,-22.461,-24.414,-43.457,-142.090
1688257736.011,-0.488,-19.531,-22.461,-55.664,-205.078
1688257736.012,-35.156,-20.996,-20.996,-46.387,-289.551
1688257736.016,-87.891,-43.945,-41.016,-41.016,-143.555
1688257736.020,-81.543,-57.129,-49.805,-40.039,21.973
1688257736.024,-20.508,-41.016,-41.992,-47.363,-56.152
1688257736.028,5.859,-24.902,-28.809,-59.570,-159.180
1688257736.032,-24.414,-23.438,-35.645,-50.293,-123.535
1688257736.036,-56.641,-20.508,-35.645,-10.742,227.051
1688257736.039,-41.504,-14.160,-18.066,12.695,439.941
1688257736.043,-3.906,-33.691,-23.926,-19.043,108.398
1688257736.047,6.836,-45.410,-30.273,-49.805,-147.949
1688257736.051,-19.531,-41.504,-29.785,-45.410,62.012
1688257736.055,-65.430,-43.457,-33.691,-38.574,177.246
1688257736.058,-68.359,-23.926,-29.297,-24.414,-107.422
1688257736.062,-19.531,-10.742,-21.484,-22.461,-165.527
1688257736.066,1.953,-18.555,-30.273,-38.574,-142.090
1688257736.070,-21.973,-35.156,-47.363,-41.016,-188.965
1688257736.074,-70.312,-41.504,-42.969,-35.645,-197.266
1688257736.078,-75.684,-38.086,-37.598,-26.855,54.688
1688257736.082,-25.879,-36.133,-34.180,-17.578,319.336
1688257736.085,17.578,-27.344,-21.484,-19.043,30.273
1688257736.089,15.137,-21.484,-16.113,-14.160,-187.500
1688257736.093,-50.781,-27.832,-19.531,-15.137,42.480
1688257736.097,-83.984,-27.832,-24.414,-25.879,171.875
1688257736.101,-45.410,-29.785,-29.785,-26.855,-2.930
1688257736.118,-11.719,-31.250,-30.762,-51.270,-201.660
1688257736.122,-11.230,-25.391,-19.531,-54.688,-191.406
1688257736.126,-40.527,-25.391,-18.555,-25.879,-96.680
1688257736.130,-68.359,-29.297,-20.508,-10.742,-84.473
1688257736.134,-32.227,-26.367,-20.020,-9.277,-96.680
1688257736.138,9.766,-25.879,-22.461,-19.043,38.574
1688257736.142,-1.953,-35.156,-19.043,-30.762,19.531
1688257736.145,-45.898,-47.852,-25.879,-31.738,-116.211
1688257736.149,-66.895,-30.762,-16.113,-0.488,-114.258
1688257736.153,-31.250,-13.672,-5.371,6.836,90.332
1688257736.157,-12.207,-38.086,-27.344,-27.344,244.141
1688257736.161,-19.531,-57.617,-43.945,-46.387,-110.352
1688257736.162,-49.316,-59.082,-50.781,-41.016,-214.355
1688257736.166,-82.520,-48.340,-45.898,-22.949,-23.438
1688257736.170,-59.570,-41.992,-38.086,-11.719,-47.363
1688257736.174,-6.836,-33.691,-29.297,-22.461,-209.473
1688257736.178,11.719,-21.484,-14.648,-27.344,-251.953
1688257736.182,-18.066,-30.273,-14.648,-24.414,-119.629
1688257736.186,-65.430,-43.457,-27.832,-24.902,-45.898
1688257736.189,-64.941,-43.457,-42.480,-30.273,-60.059
1688257736.193,-20.996,-38.086,-37.109,-33.203,-6.836
1688257736.197,-8.789,-42.480,-25.391,-30.762,180.664
1688257736.201,-37.109,-45.410,-33.203,-32.227,41.504
1688257736.205,-68.848,-33.203,-39.062,-19.531,-123.047
1688257736.207,-61.035,-21.484,-34.668,-2.930,-33.691
1688257736.211,-23.926,-30.273,-26.367,-20.508,-7.812
1688257736.215,-11.230,-34.668,-25.879,-40.039,-135.742
1688257736.219,-25.879,-25.391,-26.855,-28.809,-224.121
1688257736.223,-61.523,-26.855,-32.715,-15.137,-14.160
1688257736.227,-64.941,-32.227,-37.109,-29.297,206.055
1688257736.231,-13.672,-30.273,-27.344,-42.969,5.371
1688257736.234,20.996,-16.602,-15.137,-40.527,-145.020
1688257736.238,-0.488,-19.043,-18.066,-49.805,48.828
1688257736.242,-48.340,-31.250,-34.668,-54.688,90.332
1688257736.246,-50.293,-29.785,-38.574,-42.480,-73.730
1688257736.250,-8.301,-31.738,-31.250,-52.246,-100.586
1688257736.252,20.020,-26.855,-24.902,-67.383,-77.637
1688257736.256,11.719,-16.113,-19.043,-50.781,-149.414
1688257736.260,-36.133,-20.508,-20.508,-22.949,-177.734
1688257736.264,-79.102,-43.945,-41.504,-13.184,-91.309
1688257736.268,-61.523,-48.828,-51.270,-32.715,272.949
1688257736.272,-25.879,-38.574,-41.016,-47.363,327.148
1688257736.276,-26.367,-32.227,-27.344,-31.250,-25.391
1688257736.279,-61.035,-34.668,-23.926,-10.742,-12.207
1688257736.283,-81.543,-33.203,-23.438,11.230,195.801
1688257736.287,-36.133,-19.043,-13.184,6.348,66.406
1688257736.291,-4.883,-25.391,-20.996,-40.527,-202.637
1688257736.295,-24.414,-35.645,-40.039,-61.035,-204.102
1688257736.298,-50.293,-22.949,-36.621,-41.504,-153.320
1688257736.302,-72.754,-22.461,-30.273,-20.020,-169.434
1688257736.306,-44.922,-30.762,-30.762,-12.207,-125.488
1688257736.310,2.930,-20.020,-26.367,-16.602,-83.008
1688257736.314,-0.977,-22.461,-18.555,-31.738,-146.484
1688257736.318,-34.668,-35.645,-20.508,-31.250,-92.285
1688257736.322,-65.430,-35.645,-28.320,-18.555,-12.207
1688257736.325,-40.527,-34.668,-31.250,-23.438,166.992
1688257736.329,17.090,-26.855,-33.691,-21.973,495.117
1688257736.333,13.672,-24.902,-35.645,-31.250,164.551
1688257736.337,-42.969,-28.809,-32.715,-43.945,-240.723
1688257736.341,-84.473,-24.902,-28.320,-34.668,-69.824
1688257736.342,-60.059,-25.879,-23.926,-32.227,-4.395
1688257736.346,-19.043,-31.250,-27.344,-49.316,-134.766
1688257736.350,-13.672,-34.668,-27.344,-53.223,-193.848
1688257736.354,-34.668,-32.715,-13.672,-26.367,-112.793
1688257736.358,-62.012,-29.785,-2.441,-11.230,-83.008
1688257736.362,-64.453,-39.551,-4.395,-10.742,-19.043
1688257736.366,-31.738,-51.270,-12.695,-22.949,103.027
1688257736.369,-17.578,-48.340,-14.648,-32.715,169.922
1688257736.373,-35.156,-36.621,-11.719,-29.297,-41.992
1688257736.377,-54.199,-36.133,-10.254,-16.602,-187.988
1688257736.381,-47.852,-40.039,-6.836,9.277,-9.766
1688257736.385,0.488,-31.738,-2.930,6.836,76.172
1688257736.387,12.695,-41.504,-12.207,-28.809,-169.434
1688257736.391,-34.668,-64.453,-30.762,-56.641,-276.367
1688257736.395,-63.965,-52.246,-23.926,-31.250,-158.691
1688257736.399,-54.688,-42.969,-14.648,-2.441,-57.129
1688257736.403,-24.414,-42.969,-33.203,-28.320,-31.738
1688257736.407,-6.348,-32.227,-38.574,-42.480,-122.559
1688257736.411,-30.762,-40.039,-35.156,-40.527,92.285
1688257736.414,-74.219,-51.270,-42.480,-38.574,297.363
1688257736.418,-75.195,-41.504,-33.203,-19.043,13.184
1688257736.422,-25.391,-38.574,-23.438,-25.391,-177.246
1688257736.426,9.766,-41.016,-29.297,-36.133,-19.043
1688257736.430,1.953,-26.855,-25.879,-28.320,68.848
1688257736.433,-46.875,-37.109,-17.578,-25.879,-98.145
1688257736.437,-68.359,-40.039,-23.926,-10.254,-38.574
1688257736.441,-43.945,-35.645,-43.457,-27.832,57.617
1688257736.445,-32.227,-40.039,-47.852,-60.547,-101.562
1688257736.449,-37.598,-37.109,-45.410,-72.754,-270.020
1688257736.453,-52.246,-33.691,-36.621,-53.223,-104.004
1688257736.457,-61.523,-20.020,-22.461,-13.184,312.500
1688257736.460,-20.996,-2.441,-10.742,3.906,188.965
1688257736.464,12.695,-14.648,-14.648,-17.090,-190.430
1688257736.468,5.859,-24.902,-15.625,-26.367,-159.668
1688257736.472,-31.738,-26.367,-22.949,-14.648,-58.105
1688257736.476,-69.336,-36.133,-45.410,-16.113,-100.098
1688257736.478,-35.645,-34.180,-37.598,-17.090,-120.605
1688257736.482,12.695,-32.227,-21.973,-18.066,-42.480
1688257736.486,0.488,-32.227,-30.762,-47.363,-23.438
1688257736.490,-41.992,-26.367,-40.039,-53.711,-154.297
1688257736.494,-74.219,-18.066,-32.715,-19.043,-139.648
1688257736.498,-54.688,-22.949,-21.484,-14.160,242.188
1688257736.502,2.441,-15.625,-9.277,-25.391,288.574
1688257736.505,8.789,-17.090,-15.625,-46.387,-90.332
1688257736.509,-35.645,-35.645,-31.250,-55.664,-175.293
1688257736.513,-75.195,-41.016,-42.480,-35.645,107.910
1688257736.517,-62.988,-43.457,-48.340,-33.691,316.895
1688257736.521,-15.625,-42.480,-38.574,-44.922,-71.289
1688257736.537,0.977,-26.855,-23.438,-47.363,-235.352
1688257736.541,-26.367,-10.254,-23.438,-43.457,-184.570
1688257736.545,-69.336,-13.184,-24.902,-24.902,-141.113
1688257736.549,-55.664,-27.832,-16.602,-6.836,-105.469
1688257736.553,-10.254,-49.805,-12.695,-21.973,-28.809
1688257736.557,-17.090,-52.246,-24.902,-53.223,92.285
1688257736.561,-52.734,-27.344,-38.086,-59.082,-8.789
1688257736.564,-77.637,-19.531,-34.668,-23.926,-171.387
1688257736.568,-66.895,-22.949,-30.762,-3.906,-50.781
1688257736.572,-16.113,-16.113,-33.203,-13.672,174.805
1688257736.576,15.137,-10.254,-38.086,-25.391,-61.523
1688257736.580,-9.766,-20.996,-38.574,-43.945,-287.598
1688257736.583,-34.668,-19.043,-31.738,-9.277,-148.926
1688257736.587,-20.020,-6.348,-17.090,33.203,-37.598
1688257736.591,17.578,-15.137,-14.160,0.977,-96.680
1688257736.595,38.086,-24.902,-20.996,-29.785,-163.086
1688257736.599,14.648,-24.414,-27.344,-30.762,-182.129
1688257736.603,-33.691,-26.367,-31.250,-18.555,-17.578
1688257736.607,-52.246,-35.156,-28.809,-4.883,117.188
1688257736.610,-11.230,-36.621,-26.367,-8.301,48.828
1688257736.614,16.113,-28.320,-35.156,-29.297,180.176
1688257736.618,4.883,-18.066,-38.086,-19.043,402.344
1688257736.622,-18.066,-7.812,-14.160,20.020,183.594
1688257736.626,-53.223,-21.484,-15.137,19.531,-91.309
1688257736.627,-43.945,-43.945,-49.316,-27.832,-99.121
1688257736.631,-15.625,-47.363,-58.594,-65.430,-185.059
1688257736.635,-15.137,-42.480,-41.016,-55.176,-254.883
1688257736.639,-39.551,-39.062,-30.273,-27.832,-119.629
1688257736.643,-70.312,-31.738,-40.039,-13.672,-10.742
1688257736.647,-37.598,-14.648,-33.691,-7.324,62.988
1688257736.651,4.883,-11.230,-26.855,-28.320,10.742
1688257736.654,1.953,-22.461,-29.785,-51.270,-83.008
1688257736.658,-20.996,-21.973,-23.926,-26.855,53.711
1688257736.662,-63.965,-43.457,-41.016,-17.578,42.969
1688257736.666,-48.340,-54.199,-45.898,-32.715,-123.535
1688257736.670,-10.742,-49.805,-41.016,-45.410,-39.551
1688257736.672,-8.789,-37.598,-33.203,-51.270,112.793
1688257736.676,-22.461,-27.344,-16.113,-22.949,-133.301
1688257736.680,-61.035,-31.738,-20.996,-6.836,-209.473
1688257736.684,-51.270,-25.391,-26.367,-8.789,-82.520
1688257736.688,-6.836,-29.297,-25.391,-20.020,-79.102
1688257736.692,0.000,-34.180,-20.508,-31.738,-117.676
1688257736.696,-18.066,-33.203,-17.090,-31.250,-129.395
1688257736.699,-50.781,-30.762,-29.297,-20.508,246.582
1688257736.703,-64.941,-37.109,-50.781,-28.320,570.312
1688257736.707,-29.785,-43.945,-53.711,-57.129,101.562
1688257736.711,-4.395,-36.621,-34.180,-65.430,-252.441
1688257736.715,-22.461,-24.414,-16.602,-45.410,-152.344
1688257736.717,-59.082,-16.113,-21.484,-16.113,-47.852
1688257736.721,-25.391,-3.906,-15.625,32.227,-113.281
1688257736.725,22.949,-7.812,-5.859,15.137,-167.480
1688257736.729,-11.230,-24.902,-31.250,-57.129,-79.102
1688257736.733,-49.316,-28.320,-41.016,-64.941,-103.516
1688257736.737,-84.961,-30.762,-27.832,-42.969,-73.730
1688257736.741,-88.379,-35.156,-19.043,-20.508,89.355
1688257736.744,-33.203,-31.250,-4.883,-18.555,246.094
1688257736.748,-9.766,-28.320,-1.953,-55.176,37.598
1688257736.752,-32.715,-25.391,-5.859,-76.172,-265.137
1688257736.756,-87.402,-35.156,-13.672,-72.754,-84.473
1688257736.760,-102.051,-41.992,-14.648,-54.199,51.758
1688257736.763,-62.500,-36.133,-14.648,-56.641,-117.676
1688257736.767,-55.664,-43.945,-39.062,-93.262,-226.562
1688257736.771,-84.473,-52.246,-49.805,-112.793,-16.113
1688257736.775,-110.840,-46.875,-36.133,-95.215,79.102
1688257736.779,-125.488,-53.711,-35.645,-85.449,-70.312
1688257736.783,-89.844,-60.547,-42.480,-98.145,-44.434
1688257736.787,-35.156,-40.039,-36.621,-92.285,150.879
1688257736.790,-36.133,-21.484,-26.855,-78.613,204.590
1688257736.794,-70.312,-20.996,-23.926,-57.129,-111.816
1688257736.798,-92.773,-28.320,-33.691,-24.414,-163.086
1688257736.802,-54.688,-22.949,-27.832,-12.207,61.035
1688257736.806,-15.137,-20.996,-20.996,-37.598,-13.184
1688257736.808,-29.785,-41.992,-31.250,-62.500,-229.492
1688257736.812,-70.801,-57.129,-36.621,-64.453,-183.594
1688257736.816,-99.121,-53.711,-38.086,-56.152,-70.801
1688257736.820,-65.430,-41.504,-32.227,-47.852,-90.332
1688257736.824,-21.484,-25.879,-27.344,-41.992,-168.945
1688257736.828,-15.625,-10.742,-27.344,-40.039,-51.270
1688257736.832,-47.363,-16.602,-33.691,-34.180,233.887
1688257736.835,-83.008,-34.180,-41.992,-19.043,240.723
1688257736.839,-69.336,-44.922,-41.016,-38.574,-77.148
1688257736.843,-19.043,-46.387,-32.227,-38.086,-99.121
1688257736.847,7.324,-35.645,-12.207,-18.066,58.105
1688257736.851,-22.461,-33.203,-8.301,-29.297,-114.258
1688257736.852,-66.895,-31.738,-13.672,-18.555,-159.668
1688257736.856,-66.895,-32.715,-23.438,-22.461,-34.180
1688257736.860,-28.320,-40.039,-38.574,-55.176,-112.305
1688257736.864,3.418,-31.250,-25.391,-55.664,-264.160
1688257736.868,-5.859,-18.555,-7.812,-28.320,-264.160
1688257736.872,-53.223,-32.715,-21.484,-5.859,4.395
1688257736.876,-58.594,-44.434,-31.250,-8.301,169.922
1688257736.879,-4.395,-36.133,-29.785,-32.715,46.387
1688257736.883,26.855,-20.996,-21.973,-31.250,-45.410
1688257736.887,-16.113,-37.109,-27.344,-26.367,98.145
1688257736.891,-68.359,-41.992,-35.645,-19.043,427.734
1688257736.895,-51.270,-20.508,-16.113,9.277,171.387
1688257736.912,-3.906,-23.926,-12.207,-3.906,-132.812
1688257736.916,1.953,-32.715,-27.832,-50.781,-127.930
1688257736.920,-41.992,-47.852,-44.434,-82.520,-190.430
1688257736.924,-75.684,-40.527,-40.039,-46.875,-204.102
1688257736.928,-54.199,-23.926,-19.531,13.672,-48.828
1688257736.932,-10.742,-34.668,-14.160,2.930,130.371
1688257736.936,11.719,-23.926,-13.672,-25.391,12.695
1688257736.939,-14.160,-23.438,-21.973,-27.344,-197.754
1688257736.943,-62.012,-44.434,-30.273,-17.578,-128.418
1688257736.947,-70.801,-32.227,-23.438,5.371,250.488
1688257736.951,-22.461,-14.160,-22.949,2.930,146.973
1688257736.955,-2.441,-20.020,-37.598,-49.805,-240.723
1688257736.957,-25.391,-30.762,-49.805,-75.684,-146.484
1688257736.961,-61.523,-35.645,-45.410,-56.641,-9.277
1688257736.965,-76.660,-23.926,-33.203,-33.203,-109.375
1688257736.969,-28.320,-7.324,-22.461,-16.113,-62.012
1688257736.973,8.789,-15.625,-20.996,-22.461,-53.711
1688257736.977,4.395,-24.902,-20.508,-28.320,-75.684
1688257736.981,-17.578,-21.484,-9.766,-2.930,25.879
1688257736.984,-49.805,-29.297,-20.020,7.812,60.059
1688257736.988,-39.551,-28.320,-43.945,-24.414,215.332
1688257736.992,-23.438,-28.320,-50.781,-62.500,353.027
1688257736.996,-30.762,-35.156,-42.480,-69.824,-8.789
1688257737.000,-47.363,-33.203,-33.691,-45.410,-150.391
1688257737.002,-79.102,-32.227,-22.949,-21.484,43.945
1688257737.006,-45.898,-20.996,1.953,-16.602,-18.066
1688257737.010,18.066,-15.137,-1.953,-22.949,-228.027
1688257737.014,17.578,-20.996,-20.508,-44.434,-250.000
1688257737.018,-10.254,-16.113,-16.602,-33.203,-147.461
1688257737.022,-35.645,-15.625,-10.254,-0.488,16.113
1688257737.026,-43.457,-37.109,-32.227,-31.250,46.875
1688257737.029,-13.672,-45.898,-47.852,-69.824,-60.059
1688257737.033,4.395,-38.574,-31.738,-60.059,55.664
1688257737.037,-8.301,-34.668,-23.926,-39.062,-98.145
1688257737.041,-34.180,-32.715,-23.926,-19.043,-228.516
1688257737.045,-24.414,-19.043,-8.789,3.418,-69.824
1688257737.048,20.020,-5.859,-4.883,-2.930,-86.914
1688257737.052,17.578,-14.648,-21.484,-34.668,-226.562
1688257737.056,-28.809,-33.203,-34.180,-49.316,-236.328
1688257737.060,-66.895,-39.551,-31.250,-34.668,28.320
1688257737.064,-60.059,-28.320,-24.414,-11.230,90.820
1688257737.068,-32.715,-27.344,-33.203,-25.879,-59.082
1688257737.072,-27.832,-32.227,-44.434,-46.875,-138.184
1688257737.075,-41.016,-31.250,-35.156,-46.387,134.277
1688257737.079,-72.266,-32.715,-29.785,-28.809,471.680
1688257737.083,-69.824,-26.367,-29.785,-0.977,103.516
1688257737.087,-14.648,-22.949,-20.996,2.930,-223.145
1688257737.091,11.230,-23.926,-24.414,-19.043,-210.449
1688257737.093,-9.766,-25.879,-28.320,-28.320,-226.562
1688257737.097,-59.570,-36.621,-31.250,-21.973,-222.656
1688257737.101,-81.543,-37.598,-31.250,-12.207,-128.418
1688257737.105,-26.855,-23.438,-15.625,0.977,-65.430
1688257737.109,-2.930,-34.180,-29.785,-22.949,-178.711
1688257737.113,-33.203,-44.922,-52.246,-49.316,-154.297
1688257737.117,-64.941,-31.738,-38.086,-34.668,37.598
1688257737.120,-75.195,-25.879,-24.902,-0.488,458.496
1688257737.124,-29.785,-15.137,-22.461,-3.906,320.312
1688257737.128,-6.348,-20.020,-42.480,-41.992,-158.691
1688257737.132,-35.156,-40.039,-64.941,-68.359,-133.301
1688257737.136,-63.965,-39.062,-53.223,-48.828,-86.426
1688257737.137,-76.660,-25.879,-46.875,-19.043,-43.945
1688257737.141,-34.668,-16.602,-37.109,-10.742,11.719
1688257737.145,18.066,-7.324,-18.066,-11.230,3.906
1688257737.149,5.859,-19.531,-20.508,-36.133,-99.609
1688257737.153,-53.711,-48.340,-39.551,-58.594,-100.098
1688257737.157,-89.844,-48.828,-39.062,-39.062,30.762
1688257737.161,-60.547,-38.086,-29.297,-26.367,372.070
1688257737.164,-1.465,-30.273,-21.973,-28.320,444.336
1688257737.168,12.695,-26.367,-17.090,-20.020,11.719
1688257737.172,-19.531,-25.391,-14.160,-6.348,-135.742
1688257737.176,-62.012,-25.879,-16.113,0.977,18.555
1688257737.180,-57.129,-21.484,-23.438,-11.230,50.781
1688257737.182,-10.254,-15.625,-25.391,-17.090,-157.715
1688257737.186,-5.371,-31.250,-33.203,-41.016,-239.746
1688257737.190,-41.992,-38.086,-42.969,-56.641,52.246
1688257737.194,-81.543,-29.785,-50.293,-40.527,105.469
1688257737.198,-58.105,-14.160,-44.434,-20.020,-169.922
1688257737.202,-7.324,-17.090,-31.738,-24.414,-63.965
1688257737.206,-4.883,-36.133,-22.949,-38.086,68.848
1688257737.209,-4.395,-33.691,-1.953,-9.277,-102.051
1688257737.213,-29.785,-20.020,-4.395,10.254,-161.621
1688257737.217,-63.477,-19.043,-34.180,-17.090,61.523
1688257737.221,-35.645,-24.902,-42.480,-45.410,197.266
1688257737.225,-4.883,-29.785,-35.645,-58.105,-106.445
1688257737.243,-23.926,-33.203,-31.250,-41.016,-248.047
1688257737.247,-55.664,-37.598,-32.715,-14.648,-7.324
1688257737.251,-41.504,-29.297,-28.320,-6.348,118.164
1688257737.255,12.695,-10.254,-12.207,0.000,-100.098
1688257737.259,31.250,-12.207,-12.695,-5.859,-218.262
1688257737.263,11.719,-23.926,-20.508,-3.418,5.859
1688257737.267,-42.480,-42.969,-36.621,-15.625,111.816
1688257737.270,-80.566,-62.500,-53.711,-40.527,-19.531
1688257737.274,-43.457,-52.734,-46.875,-53.223,-75.684
1688257737.278,-8.789,-35.645,-33.691,-56.152,73.730
1688257737.282,-28.320,-41.992,-38.086,-60.059,147.949
1688257737.286,-55.664,-36.621,-39.551,-32.715,-153.320
1688257737.288,-43.457,-9.277,-14.648,15.625,-121.582
1688257737.292,-2.930,-7.324,-1.953,12.207,16.602
1688257737.296,21.484,-20.996,-1.465,-18.555,-170.410
1688257737.300,-4.883,-34.668,-16.602,-42.480,-305.664
1688257737.304,-59.570,-37.109,-40.039,-39.062,-154.297
1688257737.308,-71.289,-20.020,-39.062,-16.113,155.762
1688257737.312,-23.438,-2.930,-21.973,-4.883,132.324
1688257737.315,3.906,-11.719,-23.926,-34.180,-137.207
1688257737.319,-16.602,-21.973,-32.715,-55.664,-181.152
1688257737.323,-56.641,-21.973,-32.227,-39.062,231.934
