timestamps,TP9,AF7,AF8,TP10,Right AUX
1690119483.081,177.246,-55.176,-29.785,371.094,450.684
1690119483.085,63.965,-59.570,-19.043,62.012,256.348
1690119483.089,-193.359,-47.363,-17.578,-373.535,-292.969
1690119483.093,-225.098,-36.621,-33.203,-366.211,-405.273
1690119483.097,-7.812,-25.391,-32.715,67.871,-94.238
1690119483.101,177.246,-16.113,-24.902,387.695,415.039
1690119483.105,76.172,-13.672,-21.973,118.164,559.570
1690119483.108,-194.824,-22.949,-14.648,-331.543,217.773
1690119483.112,-237.793,-25.391,-18.555,-372.559,-414.062
1690119483.116,-31.250,-22.461,-26.367,7.812,-296.875
1690119483.120,164.551,-29.785,-32.227,366.211,444.824
1690119483.124,105.469,-32.715,-37.598,175.293,444.824
1690119483.126,-158.691,-30.762,-41.504,-304.688,-297.363
1690119483.130,-240.234,-30.273,-41.016,-411.133,-633.789
1690119483.134,-59.570,-31.250,-27.344,-57.129,-211.426
1690119483.138,156.738,-32.715,-26.367,328.613,348.633
1690119483.142,137.695,-38.574,-23.926,223.633,375.488
1690119483.146,-126.465,-51.758,-18.066,-222.168,-36.621
1690119483.150,-235.352,-41.504,-27.832,-373.047,-161.621
1690119483.153,-83.984,-28.320,-38.574,-87.891,-99.609
1690119483.157,125.977,-22.461,-32.715,309.082,215.332
1690119483.161,151.367,-15.625,-33.203,266.602,462.891
1690119483.165,-97.168,-13.672,-36.621,-209.961,128.906
1690119483.169,-252.930,-13.672,-44.922,-444.824,-487.793
1690119483.171,-86.426,-13.184,-48.340,-123.047,-470.703
1690119483.175,145.508,-9.277,-43.945,300.781,258.301
1690119483.179,176.270,-5.859,-49.316,279.785,632.812
1690119483.183,-64.941,-10.742,-53.223,-178.711,-4.883
1690119483.187,-229.004,-16.602,-53.711,-454.590,-639.160
1690119483.191,-107.422,-16.113,-51.270,-175.781,-432.129
1690119483.195,109.375,-18.066,-42.480,267.090,182.129
1690119483.198,195.312,-15.625,-41.504,339.844,479.980
1690119483.202,-4.395,-11.230,-44.922,-73.730,52.734
1690119483.206,-202.637,-16.602,-41.016,-407.715,-422.363
1690119483.210,-140.137,-21.973,-38.086,-256.348,-376.953
1690119483.214,99.609,-18.066,-34.668,203.125,55.176
1690119483.219,214.844,-24.902,-37.109,366.699,430.664
1690119483.223,8.789,-29.785,-47.852,-41.016,241.699
1690119483.227,-213.379,-26.367,-48.340,-415.527,-405.762
1690119483.231,-180.176,-12.207,-44.922,-315.430,-656.250
1690119483.235,30.762,-5.371,-42.969,139.160,-104.492
1690119483.239,188.477,-8.789,-42.480,385.742,567.383
1690119483.243,38.086,-13.672,-37.109,35.156,312.988
1690119483.246,-202.148,-22.949,-24.902,-364.258,-437.988
1690119483.250,-201.660,-29.785,-16.602,-322.754,-613.770
1690119483.254,21.484,-28.320,-20.020,99.121,73.730
1690119483.258,209.961,-29.785,-23.438,407.715,512.207
1690119483.262,64.941,-33.203,-32.715,99.609,204.102
1690119483.277,-203.125,-31.738,-38.086,-347.656,-307.617
1690119483.281,-229.004,-37.109,-41.016,-343.262,-453.125
1690119483.285,-20.508,-32.227,-44.434,30.273,-73.730
1690119483.289,201.660,-15.625,-38.574,368.652,351.074
1690119483.293,120.605,-16.113,-41.992,155.273,333.984
1690119483.297,-172.363,-29.297,-43.945,-318.848,51.270
1690119483.301,-232.910,-34.668,-42.480,-402.832,-407.715
1690119483.304,-40.527,-29.785,-42.480,-38.086,-344.238
1690119483.308,164.551,-27.832,-38.574,359.375,395.996
1690119483.312,120.117,-25.879,-33.691,207.031,564.453
1690119483.316,-139.648,-20.996,-25.879,-282.227,-227.539
1690119483.320,-231.445,-22.949,-19.043,-408.691,-647.461
1690119483.321,-62.988,-21.973,-6.836,-73.242,-355.469
1690119483.325,160.156,-19.531,-12.207,343.750,188.477
1690119483.329,153.809,-28.809,-30.273,265.625,336.426
1690119483.333,-100.586,-42.480,-27.344,-224.121,-131.836
1690119483.337,-240.723,-43.457,-23.926,-421.387,-393.066
1690119483.341,-99.609,-31.250,-24.902,-142.090,-186.035
1690119483.345,150.879,-17.578,-20.508,300.781,284.668
1690119483.348,181.641,-26.367,-25.879,300.781,475.098
1690119483.352,-79.102,-32.715,-38.574,-177.734,204.102
1690119483.356,-240.234,-25.879,-41.992,-432.129,-407.715
1690119483.360,-122.070,-16.602,-39.551,-201.172,-578.613
1690119483.364,128.418,-14.160,-35.645,264.648,44.434
1690119483.366,190.430,-38.086,-30.762,347.168,464.355
1690119483.370,-50.781,-42.480,-26.367,-93.262,83.008
1690119483.374,-232.422,-21.973,-31.250,-409.180,-560.547
1690119483.378,-169.922,-19.531,-35.156,-244.141,-514.160
1690119483.382,62.988,-25.879,-17.578,240.723,159.668
1690119483.386,192.871,-30.762,-9.277,401.367,551.270
1690119483.390,-12.207,-35.156,-22.461,-37.109,244.141
1690119483.393,-251.465,-34.180,-33.691,-406.250,-198.242
1690119483.397,-208.496,-34.668,-33.691,-287.109,-24.902
1690119483.401,39.062,-33.691,-28.320,159.668,148.926
1690119483.405,196.289,-34.180,-23.926,386.230,288.574
1690119483.409,26.367,-34.668,-26.855,11.719,82.031
1690119483.411,-186.523,-27.832,-26.367,-390.137,-529.297
1690119483.415,-167.480,-15.137,-26.855,-322.266,-747.070
1690119483.419,28.320,-13.184,-33.691,106.445,-296.387
1690119483.423,205.566,-19.531,-41.504,395.020,340.332
1690119483.427,70.312,-24.902,-41.504,98.633,187.988
1690119483.431,-207.520,-29.297,-24.902,-350.586,-360.840
1690119483.435,-229.492,-23.926,-20.020,-367.188,-474.609
1690119483.438,-26.367,-19.531,-30.273,39.551,106.934
1690119483.442,171.387,-17.090,-23.438,370.117,632.812
1690119483.446,83.496,-30.273,-9.766,136.230,292.480
1690119483.450,-187.988,-45.410,-6.836,-320.312,-334.473
1690119483.454,-244.629,-35.156,-19.531,-385.254,-507.324
1690119483.456,-39.551,-20.996,-28.320,-22.949,-228.516
1690119483.460,195.801,-21.484,-23.438,362.793,310.547
1690119483.464,120.117,-32.227,-14.648,197.754,461.426
1690119483.468,-169.434,-34.180,-23.438,-287.598,24.902
1690119483.472,-259.277,-36.133,-42.480,-419.922,-482.422
1690119483.476,-81.543,-35.645,-47.852,-71.289,-304.688
1690119483.480,162.109,-31.250,-41.016,354.980,446.289
1690119483.483,149.902,-29.785,-47.363,235.352,787.598
1690119483.487,-111.328,-31.738,-56.641,-256.836,-42.969
1690119483.491,-243.164,-50.293,-36.133,-421.387,-649.414
1690119483.495,-103.516,-55.176,-30.762,-125.000,-380.371
1690119483.499,153.809,-33.203,-34.180,315.918,236.328
1690119483.502,167.480,-28.320,-18.066,297.363,363.281
1690119483.506,-95.703,-31.738,-17.090,-180.176,-172.852
1690119483.510,-237.793,-22.461,-34.668,-412.109,-459.961
1690119483.514,-106.934,-16.113,-31.738,-161.621,-365.234
1690119483.518,144.043,-22.461,-12.695,306.641,108.887
1690119483.522,187.500,-26.855,-27.344,341.797,528.320
1690119483.526,-75.684,-31.250,-50.293,-148.926,355.469
1690119483.529,-247.559,-35.645,-41.504,-434.570,-285.156
1690119483.533,-143.555,-36.133,-33.691,-233.887,-580.566
1690119483.537,85.938,-27.344,-33.691,217.773,-17.578
1690119483.541,185.059,-22.949,-28.320,345.215,432.129
1690119483.545,-20.996,-27.344,-31.738,-79.102,14.648
1690119483.547,-242.676,-40.039,-32.227,-405.273,-588.867
1690119483.551,-183.105,-39.062,-29.785,-257.812,-402.832
1690119483.555,55.664,-21.484,-30.273,184.082,424.805
1690119483.559,201.660,-21.484,-22.461,387.207,515.137
1690119483.563,21.973,-32.227,-29.297,3.418,-18.066
1690119483.567,-219.727,-23.926,-41.016,-406.738,-322.754
1690119483.571,-185.547,-21.484,-34.180,-320.801,-239.258
1690119483.574,32.715,-32.715,-24.902,122.070,-45.410
1690119483.578,200.195,-20.508,-17.090,388.672,293.457
1690119483.582,62.500,-21.484,-25.391,62.012,256.836
1690119483.586,-194.336,-33.203,-35.645,-375.977,-315.430
1690119483.590,-204.590,-28.320,-41.504,-361.328,-652.344
1690119483.606,6.348,-29.297,-30.762,83.008,-233.398
1690119483.610,199.219,-24.902,-20.996,412.598,397.949
1690119483.614,87.891,-20.508,-43.945,109.863,298.340
1690119483.618,-180.664,-26.855,-43.457,-345.215,-361.816
1690119483.622,-231.445,-32.715,-29.297,-366.211,-604.492
1690119483.626,-40.527,-33.203,-27.344,22.461,132.324
1690119483.630,187.500,-22.461,-19.531,394.043,766.113
1690119483.633,125.000,-14.160,-22.461,182.617,402.344
1690119483.637,-147.461,-24.414,-37.109,-303.223,-261.230
1690119483.641,-209.473,-30.762,-42.480,-380.859,-467.285
1690119483.645,-49.316,-18.555,-34.180,-28.809,-250.000
1690119483.649,145.020,-19.043,-17.578,354.980,210.938
1690119483.651,111.816,-29.785,-14.648,222.656,331.543
1690119483.655,-151.855,-35.156,-21.484,-259.277,-124.512
1690119483.659,-264.160,-38.574,-31.738,-430.176,-565.430
1690119483.663,-94.727,-41.504,-30.762,-115.234,-391.113
1690119483.667,144.531,-53.711,-19.531,350.098,305.176
1690119483.671,136.230,-47.363,-27.832,285.156,588.867
1690119483.675,-113.770,-33.203,-34.668,-221.680,-35.156
1690119483.678,-229.492,-32.227,-26.367,-416.992,-625.488
1690119483.682,-90.332,-27.832,-22.949,-145.996,-391.113
1690119483.686,142.090,-31.738,-21.484,314.941,514.648
1690119483.690,180.176,-35.156,-26.855,350.586,566.406
1690119483.694,-69.336,-35.645,-25.879,-128.418,-139.160
1690119483.697,-227.051,-24.902,-22.461,-393.066,-569.824
1690119483.701,-110.352,-10.254,-32.715,-170.410,-479.492
1690119483.705,120.605,-14.648,-27.344,271.973,117.188
1690119483.709,193.359,-30.273,-22.949,362.793,502.930
1690119483.713,-34.180,-33.203,-30.762,-76.172,164.062
1690119483.717,-236.816,-39.551,-33.691,-417.969,-373.535
1690119483.721,-159.668,-49.316,-33.203,-250.488,-432.617
1690119483.724,63.477,-38.574,-26.367,199.707,96.191
1690119483.728,187.012,-27.344,-21.484,376.465,749.512
1690119483.732,14.648,-25.879,-25.879,-17.090,373.535
1690119483.736,-222.656,-24.902,-31.250,-418.945,-486.816
1690119483.740,-175.781,-24.414,-29.785,-295.898,-522.461
1690119483.741,52.246,-22.461,-33.203,164.551,52.734
1690119483.745,183.105,-24.414,-37.109,388.672,499.512
1690119483.749,25.879,-39.062,-28.809,50.781,189.453
1690119483.753,-229.980,-49.316,-31.738,-377.441,-438.965
1690119483.757,-207.031,-37.109,-38.086,-343.750,-568.359
1690119483.761,11.230,-30.273,-42.480,89.844,-87.402
1690119483.765,179.199,-29.297,-31.250,384.766,379.395
1690119483.768,67.871,-30.273,-14.160,108.887,295.410
1690119483.772,-207.520,-28.809,-25.879,-355.957,16.602
1690119483.776,-227.539,-18.066,-34.668,-381.836,-458.984
1690119483.780,-4.883,-18.555,-37.598,43.457,-326.172
1690119483.784,185.059,-32.715,-33.691,382.812,433.105
1690119483.786,110.352,-46.875,-21.973,161.621,407.227
1690119483.790,-149.902,-50.781,-28.320,-319.824,-332.520
1690119483.794,-241.699,-30.762,-36.621,-413.574,-638.184
1690119483.798,-60.547,-13.184,-36.133,-39.062,-247.559
1690119483.802,171.875,-6.348,-27.344,362.305,291.016
1690119483.806,111.328,-17.578,-28.809,219.238,400.879
1690119483.810,-169.434,-31.250,-39.551,-275.879,-33.203
1690119483.813,-249.023,-27.832,-34.180,-416.016,-312.500
1690119483.817,-73.242,-21.484,-34.180,-90.332,-185.059
1690119483.821,154.785,-20.020,-24.902,326.660,187.500
1690119483.825,162.598,-31.250,-3.906,275.391,366.211
1690119483.829,-100.586,-37.598,-9.277,-215.332,-121.582
1690119483.832,-248.047,-31.250,-29.297,-405.273,-585.938
1690119483.836,-96.191,-27.344,-33.691,-101.074,-377.441
1690119483.840,130.859,-31.250,-26.367,310.547,339.844
1690119483.844,169.434,-44.922,-20.508,314.453,813.477
1690119483.848,-61.035,-49.316,-21.973,-128.906,140.625
1690119483.852,-257.812,-47.852,-30.762,-417.480,-503.418
1690119483.856,-169.434,-44.434,-37.598,-219.238,-245.605
1690119483.859,69.336,-28.809,-43.945,229.980,445.312
1690119483.863,164.062,-20.996,-38.086,315.430,480.957
1690119483.867,-54.688,-20.508,-39.062,-132.812,-63.965
1690119483.871,-263.184,-22.949,-47.852,-460.938,-517.578
1690119483.875,-166.504,-22.461,-35.645,-274.414,-576.660
1690119483.876,62.988,-17.090,-29.297,176.758,-103.516
1690119483.880,163.574,-14.160,-33.203,331.543,386.719
1690119483.884,-20.508,-16.602,-37.109,-62.500,170.410
1690119483.888,-227.051,-18.555,-29.297,-415.039,-476.562
1690119483.892,-174.316,-22.461,-18.555,-285.645,-519.043
1690119483.896,49.805,-21.973,-25.391,158.203,92.285
1690119483.900,179.688,-22.461,-25.391,383.301,865.723
1690119483.903,11.719,-22.949,-30.273,19.043,644.531
1690119483.907,-219.727,-16.113,-35.156,-407.715,-443.848
1690119483.911,-214.355,-22.949,-36.621,-340.820,-727.539
1690119483.915,-1.953,-33.203,-31.738,103.027,-205.566
1690119483.919,192.871,-23.926,-25.879,393.555,330.566
1690119483.936,68.848,-23.926,-35.645,93.750,178.223
1690119483.940,-219.238,-36.133,-35.156,-369.141,-303.223
1690119483.944,-233.398,-33.691,-22.461,-374.512,-409.668
1690119483.948,-7.324,-27.344,-28.320,40.039,-164.062
1690119483.952,190.918,-16.602,-29.785,382.324,291.992
1690119483.956,114.746,-6.348,-21.484,147.949,403.320
1690119483.960,-151.855,-10.742,-18.555,-327.637,-55.176
1690119483.963,-223.633,-26.855,-14.160,-393.066,-516.113
1690119483.967,-16.113,-30.273,-21.484,-8.789,-297.363
1690119483.971,185.547,-27.344,-29.297,371.582,406.738
1690119483.975,126.953,-37.598,-31.738,211.914,629.883
1690119483.979,-141.602,-34.180,-36.133,-288.574,-196.289
1690119483.981,-239.746,-23.438,-32.715,-419.922,-674.316
1690119483.985,-58.594,-31.250,-26.367,-65.430,-279.785
1690119483.989,181.152,-27.344,-27.832,356.934,277.344
1690119483.993,171.875,-14.160,-27.832,271.973,332.031
1690119483.997,-124.023,-20.508,-31.738,-237.305,-138.184
1690119484.001,-264.160,-30.762,-27.832,-435.547,-372.070
1690119484.005,-106.445,-32.715,-16.113,-118.652,-275.879
1690119484.008,129.883,-42.969,-6.348,326.660,163.086
1690119484.012,151.367,-52.246,-3.418,300.293,423.828
1690119484.016,-101.562,-47.363,-12.207,-169.434,356.445
1690119484.020,-258.301,-46.875,-12.207,-408.203,-124.512
1690119484.024,-116.699,-31.738,-18.555,-166.504,-466.309
1690119484.026,138.672,-19.043,-23.438,287.109,68.848
1690119484.030,199.707,-33.203,-17.578,357.422,508.789
1690119484.034,-40.527,-42.969,-21.484,-98.145,1.953
1690119484.038,-236.328,-41.992,-23.438,-405.762,-661.133
1690119484.042,-144.043,-37.598,-24.902,-222.168,-565.918
1690119484.046,95.215,-31.738,-22.461,227.539,174.316
1690119484.050,201.172,-34.180,-20.020,363.281,573.730
1690119484.053,-0.488,-44.434,-24.902,-48.828,71.289
1690119484.057,-227.051,-39.551,-27.344,-390.625,-466.309
1690119484.061,-177.734,-32.715,-29.785,-269.531,-300.781
1690119484.065,69.824,-23.926,-28.809,178.223,8.789
1690119484.069,201.172,-20.996,-26.367,399.902,370.605
1690119484.071,27.344,-25.391,-20.508,25.879,279.785
1690119484.075,-204.590,-19.531,-20.020,-377.441,-399.414
1690119484.079,-177.734,-9.766,-16.602,-303.711,-693.359
1690119484.083,32.715,-20.996,-14.648,122.559,-200.684
1690119484.087,198.730,-25.879,-21.484,392.090,394.531
1690119484.091,68.848,-23.438,-36.133,79.590,270.996
1690119484.095,-197.266,-29.297,-44.922,-359.863,-312.500
1690119484.098,-207.520,-34.668,-44.922,-343.262,-546.875
1690119484.102,0.488,-41.016,-36.621,78.613,81.055
1690119484.106,186.523,-35.645,-28.809,397.949,572.754
1690119484.110,95.215,-24.414,-26.367,146.973,248.535
1690119484.114,-177.734,-18.555,-29.785,-325.684,-311.523
1690119484.117,-211.426,-17.090,-30.762,-367.188,-583.984
1690119484.121,-9.766,-20.996,-21.484,32.715,-167.480
1690119484.125,166.992,-25.879,-25.879,365.723,449.707
1690119484.129,113.281,-26.367,-37.109,176.758,434.082
1690119484.133,-158.203,-30.273,-36.621,-289.062,63.477
1690119484.137,-246.582,-27.832,-25.391,-404.785,-385.254
1690119484.141,-62.988,-28.809,-19.531,-49.805,-376.465
1690119484.144,153.320,-23.438,-28.320,344.238,325.684
1690119484.148,136.230,-24.902,-36.133,231.445,718.750
1690119484.152,-130.371,-37.109,-28.809,-244.141,-83.008
1690119484.156,-241.211,-39.062,-24.902,-427.734,-668.457
1690119484.160,-63.965,-24.414,-31.738,-126.465,-297.363
1690119484.161,182.129,-8.789,-25.391,314.453,249.512
1690119484.165,190.430,-19.043,-27.832,290.039,356.934
1690119484.169,-83.984,-32.227,-41.016,-190.430,-113.770
1690119484.173,-247.070,-33.691,-41.504,-432.129,-499.512
1690119484.177,-112.305,-33.203,-38.574,-143.066,-359.375
1690119484.181,118.164,-29.297,-33.691,296.387,186.523
1690119484.185,158.203,-25.879,-34.668,302.734,512.207
1690119484.188,-77.637,-34.668,-29.785,-127.930,372.559
1690119484.192,-248.047,-40.527,-26.855,-412.598,-254.883
1690119484.196,-143.555,-32.227,-27.344,-221.191,-665.039
1690119484.200,75.684,-22.461,-32.227,232.422,-46.875
1690119484.204,154.297,-17.090,-43.457,338.867,451.172
1690119484.206,-53.711,-19.043,-41.504,-96.191,49.805
1690119484.210,-265.137,-34.180,-37.598,-438.965,-484.375
1690119484.214,-186.523,-38.086,-33.203,-274.414,-491.211
1690119484.218,61.035,-21.484,-35.645,182.617,125.000
1690119484.222,195.801,-11.719,-31.738,372.559,497.070
1690119484.226,24.414,-19.531,-19.531,3.418,163.086
1690119484.230,-212.891,-30.762,-28.320,-386.230,-284.668
1690119484.233,-182.129,-33.691,-36.621,-296.875,-63.477
1690119484.237,38.086,-35.156,-32.715,136.719,154.297
1690119484.241,190.430,-28.809,-41.992,385.254,358.887
1690119484.245,54.688,-20.020,-42.969,61.035,298.340
1690119484.249,-184.570,-27.344,-36.133,-369.629,-341.797
1690119484.251,-198.242,-42.969,-30.762,-342.773,-662.109
1690119484.255,-0.977,-47.363,-30.273,82.031,-211.426
1690119484.259,182.617,-39.551,-35.156,391.113,451.172
1690119484.263,82.031,-22.461,-41.504,125.977,296.875
1690119484.267,-171.387,-17.090,-33.691,-337.402,-342.285
1690119484.271,-217.285,-28.809,-21.484,-379.883,-532.715
1690119484.275,-31.250,-28.809,-28.320,19.043,38.574
1690119484.278,180.664,-22.461,-23.438,381.348,585.938
1690119484.282,116.699,-25.391,-20.508,167.480,258.301
1690119484.286,-145.996,-24.902,-35.645,-309.570,-299.805
1690119484.290,-227.539,-28.320,-29.785,-403.320,-472.656
1690119484.294,-45.898,-23.926,-18.066,-39.551,-303.223
1690119484.297,180.664,-18.066,-19.531,378.906,256.348
1690119484.301,124.512,-28.809,-20.996,237.793,566.406
1690119484.305,-129.395,-37.598,-26.855,-246.094,140.137
1690119484.309,-223.145,-30.273,-38.086,-401.855,-555.176
1690119484.313,-79.590,-22.461,-31.738,-105.469,-510.742
1690119484.317,159.668,-22.461,-13.672,343.750,321.289
1690119484.321,156.250,-26.367,-21.484,293.457,669.434
1690119484.324,-101.074,-24.414,-28.320,-205.566,-111.328
1690119484.328,-240.723,-33.203,-22.461,-425.293,-736.328
1690119484.332,-104.004,-40.039,-20.508,-152.832,-442.383
1690119484.336,138.184,-27.832,-19.531,293.457,183.594
1690119484.340,180.664,-22.949,-26.367,314.941,338.867
1690119484.344,-64.453,-27.344,-27.344,-145.996,-23.926
1690119484.348,-237.793,-27.344,-28.809,-424.316,-439.453
1690119484.352,-114.258,-25.391,-31.738,-198.242,-441.406
1690119484.356,130.371,-29.785,-29.297,260.742,8.301
1690119484.360,194.336,-36.621,-30.273,351.562,371.582
1690119484.364,-33.203,-40.527,-35.645,-87.891,190.430
1690119484.368,-244.141,-37.109,-37.109,-422.852,-303.223
1690119484.371,-155.273,-35.645,-37.598,-252.441,-485.840
1690119484.375,87.891,-34.180,-38.086,208.008,-7.812
1690119484.379,192.383,-29.297,-40.039,379.395,660.645
1690119484.383,6.348,-30.762,-40.527,-12.695,252.441
1690119484.387,-232.910,-41.016,-28.809,-395.508,-565.918
1690119484.402,-191.895,-49.805,-19.043,-284.180,-574.219
1690119484.406,35.645,-40.527,-24.414,153.320,43.945
1690119484.410,180.664,-23.438,-32.227,376.953,500.977
1690119484.414,23.926,-24.902,-34.180,30.273,223.633
1690119484.418,-223.633,-39.551,-45.410,-391.602,-380.859
1690119484.422,-207.031,-37.109,-50.781,-333.984,-159.668
1690119484.426,10.742,-20.020,-40.039,105.957,132.324
1690119484.429,188.477,-15.137,-27.832,409.668,271.973
1690119484.433,70.312,-22.461,-26.855,117.676,242.188
1690119484.437,-187.012,-23.926,-30.273,-344.238,-267.090
1690119484.441,-208.984,-26.855,-28.320,-358.398,-690.918
1690119484.445,-9.766,-26.855,-28.809,41.504,-292.480
1690119484.446,195.801,-32.227,-27.832,396.973,390.137
1690119484.450,128.906,-26.855,-35.156,191.895,291.504
1690119484.454,-185.547,-22.461,-48.828,-323.242,-389.648
1690119484.458,-277.832,-31.738,-47.852,-427.246,-671.387
1690119484.462,-79.102,-28.809,-35.156,-53.223,-244.141
1690119484.466,148.926,-25.879,-30.762,339.355,451.660
1690119484.470,103.027,-22.461,-41.016,177.246,538.574
1690119484.473,-177.246,-17.090,-35.645,-323.242,-114.258
1690119484.477,-269.531,-23.926,-34.180,-446.777,-277.832
1690119484.481,-114.258,-25.391,-50.293,-126.953,45.410
1690119484.485,110.352,-19.531,-46.387,271.484,264.648
1690119484.489,113.281,-17.090,-37.109,202.148,324.707
1690119484.491,-159.180,-21.973,-45.898,-266.113,-116.699
1690119484.495,-275.391,-31.250,-48.340,-461.914,-493.164
1690119484.499,-121.094,-42.480,-39.062,-171.387,-434.570
1690119484.503,113.770,-33.691,-29.785,286.621,165.527
1690119484.507,160.156,-19.043,-31.250,305.176,562.988
1690119484.511,-84.473,-19.043,-37.598,-168.457,-27.344
1690119484.515,-259.766,-33.691,-41.992,-449.219,-573.242
1690119484.518,-134.766,-29.785,-35.645,-215.820,-366.211
1690119484.522,111.816,-19.531,-29.297,254.883,524.902
1690119484.526,192.383,-17.090,-38.086,342.285,611.816
1690119484.530,-36.621,-23.438,-27.344,-103.027,-129.395
1690119484.534,-256.348,-41.016,-19.531,-440.918,-593.262
1690119484.536,-169.434,-36.621,-27.344,-263.184,-579.102
1690119484.540,84.961,-29.785,-21.973,220.215,-87.891
1690119484.544,200.684,-35.156,-32.227,384.766,363.770
1690119484.548,-11.719,-39.551,-37.598,-40.039,92.773
1690119484.552,-260.254,-40.527,-33.203,-442.383,-514.160
1690119484.556,-208.984,-31.250,-36.133,-315.918,-524.414
1690119484.560,53.223,-30.762,-35.156,175.293,115.234
1690119484.563,209.961,-27.832,-36.133,408.203,820.801
1690119484.567,27.344,-10.742,-40.527,19.531,480.957
1690119484.571,-235.352,-18.066,-38.086,-405.273,-423.340
1690119484.575,-230.469,-31.250,-29.785,-354.004,-463.867
1690119484.579,13.672,-25.879,-28.320,96.680,158.203
1690119484.582,222.168,-24.902,-27.344,417.480,552.734
1690119484.586,67.871,-30.273,-27.344,90.332,307.617
1690119484.590,-195.801,-32.715,-30.762,-358.887,-309.570
1690119484.594,-211.914,-32.227,-31.250,-356.445,-444.824
1690119484.598,-1.465,-25.879,-28.320,52.246,-153.320
1690119484.602,210.449,-27.344,-21.973,415.039,347.168
1690119484.606,99.609,-29.785,-22.949,168.945,475.098
1690119484.609,-175.781,-24.902,-28.320,-312.500,44.922
1690119484.613,-227.051,-22.461,-24.902,-377.930,-557.129
1690119484.617,-31.250,-31.250,-21.484,-2.930,-377.441
1690119484.621,195.312,-32.227,-20.020,393.066,361.816
1690119484.625,145.508,-30.273,-27.344,228.027,364.746
1690119484.642,-141.602,-28.320,-34.180,-280.273,-270.996
1690119484.646,-235.352,-23.926,-24.902,-411.621,-572.266
1690119484.650,-57.617,-32.715,-19.043,-56.152,-174.805
1690119484.654,178.223,-31.738,-17.090,371.582,399.414
1690119484.658,169.434,-30.762,-9.766,277.832,430.176
1690119484.662,-105.957,-37.598,-16.602,-219.727,-49.316
1690119484.666,-247.559,-34.668,-36.621,-419.434,-300.293
1690119484.669,-96.680,-27.344,-48.340,-118.652,-179.688
1690119484.673,142.090,-24.902,-33.691,325.195,153.809
1690119484.677,156.738,-25.879,-21.973,308.594,408.203
1690119484.681,-98.633,-32.227,-22.949,-164.551,6.348
1690119484.685,-247.559,-27.832,-34.668,-434.082,-572.266
1690119484.672,-112.793,-15.137,-38.086,-192.383,-485.352
1690119484.676,106.445,-24.414,-30.762,279.785,270.996
1690119484.680,162.109,-39.551,-28.320,341.797,745.605
1690119484.684,-53.711,-45.410,-30.273,-100.098,225.098
1690119484.688,-254.883,-32.715,-39.551,-422.363,-487.793
1690119484.692,-169.434,-26.855,-35.156,-258.301,-341.797
1690119484.696,79.590,-29.297,-31.738,230.469,320.801
1690119484.699,190.918,-26.367,-34.180,375.977,472.168
1690119484.703,-11.230,-32.715,-29.297,-43.457,6.836
1690119484.707,-219.238,-29.785,-22.461,-380.371,-395.508
1690119484.711,-171.387,-22.949,-30.762,-276.855,-206.055
1690119484.715,45.898,-20.996,-43.945,165.039,24.414
1690119484.732,198.730,-16.602,-30.273,389.648,292.480
1690119484.736,40.039,-24.414,-25.879,23.438,137.695
1690119484.740,-210.938,-29.297,-35.156,-382.324,-454.102
1690119484.744,-210.938,-40.039,-32.715,-331.055,-639.160
1690119484.748,15.137,-46.875,-22.461,113.281,-145.020
1690119484.752,186.523,-38.086,-31.250,372.070,477.539
1690119484.756,50.293,-35.645,-37.598,65.430,339.844
1690119484.759,-212.402,-31.250,-33.691,-354.004,-281.738
1690119484.763,-236.328,-41.992,-33.691,-359.375,-627.930
1690119484.767,-32.715,-42.480,-26.855,52.734,10.742
1690119484.771,172.363,-22.461,-24.414,385.742,612.793
1690119484.775,97.656,-19.043,-22.949,138.672,242.676
1690119484.777,-166.992,-28.809,-26.367,-317.383,-275.879
1690119484.781,-230.469,-30.273,-32.715,-382.812,-448.730
1690119484.785,-35.645,-20.020,-27.832,0.977,-215.820
1690119484.789,188.477,-17.090,-28.320,389.160,291.016
1690119484.793,124.512,-18.066,-27.832,195.312,390.137
1690119484.797,-154.785,-23.926,-29.785,-296.875,-10.254
1690119484.801,-256.348,-35.645,-22.949,-397.949,-396.973
1690119484.804,-80.566,-27.344,-21.973,-65.918,-264.648
1690119484.808,169.434,-17.578,-29.297,349.121,415.527
1690119484.812,141.113,-24.902,-32.715,233.398,798.340
1690119484.816,-139.648,-42.480,-35.156,-266.113,-50.293
1690119484.820,-248.535,-51.270,-33.203,-436.523,-715.820
1690119484.823,-119.629,-34.668,-27.832,-145.996,-433.105
1690119484.827,128.418,-20.020,-25.879,309.082,167.969
1690119484.831,155.273,-14.160,-27.832,267.578,310.059
1690119484.835,-91.797,-11.230,-29.785,-212.402,-198.242
1690119484.839,-238.770,-17.090,-24.414,-418.945,-567.871
1690119484.843,-140.625,-31.250,-18.555,-187.012,-453.613
1690119484.847,118.164,-36.621,-22.949,270.508,173.828
1690119484.850,174.805,-21.484,-25.879,324.707,476.074
1690119484.854,-69.824,-20.020,-33.203,-140.625,239.746
1690119484.858,-252.930,-29.297,-39.551,-424.805,-312.012
1690119484.862,-172.363,-26.367,-33.691,-246.094,-565.430
1690119484.866,97.168,-12.207,-20.996,238.770,103.516
1690119484.881,203.613,-2.441,-22.949,375.488,589.844
1690119484.885,-15.625,-20.508,-22.461,-83.496,127.441
1690119484.889,-225.586,-29.297,-21.973,-428.711,-477.539
1690119484.893,-198.242,-22.461,-24.414,-304.688,-532.715
1690119484.897,25.391,-6.348,-18.066,145.020,13.184
1690119484.901,160.645,-8.789,-20.996,351.562,542.480
1690119484.905,-29.297,-22.949,-28.809,-42.480,212.891
1690119484.908,-273.926,-22.949,-29.297,-437.500,-388.672
1690119484.912,-280.273,-16.113,-19.043,-384.277,-226.074
1690119484.916,-59.082,7.324,-7.812,42.480,56.152
1690119484.920,114.258,7.324,-13.184,306.152,320.801
1690119484.924,-41.992,-13.184,-21.484,-40.527,176.270
1690119484.913,-305.176,-15.137,-15.137,-469.238,-408.203
1690119484.917,-325.195,-7.812,-7.812,-454.590,-587.891
1690119484.921,-82.031,-3.418,-14.648,-22.461,-205.566
1690119484.925,134.766,1.953,-27.832,327.148,474.121
1690119484.929,2.441,-11.230,-28.320,34.668,389.648
1690119484.933,-251.465,-32.227,-52.246,-419.922,-327.148
1690119484.937,-284.668,-37.598,-35.645,-441.406,-530.762
1690119484.940,-100.586,-28.320,9.766,-44.434,-76.172
1690119484.944,131.348,-24.902,6.836,337.402,377.930
1690119484.948,71.777,-39.551,0.000,136.719,274.414
1690119484.952,-196.777,-56.152,4.395,-319.336,-275.391
1690119484.956,-272.461,-82.031,2.441,-398.926,-294.434
1690119484.956,-60.547,-83.984,-0.977,-19.531,-63.477
1690119484.960,208.008,-65.430,6.836,408.203,298.828
1690119484.964,167.480,-65.918,5.371,263.184,450.684
1690119484.968,-115.723,-61.035,-19.531,-230.469,82.520
1690119484.972,-213.867,-53.223,-30.762,-371.582,-435.059
1690119484.976,-49.805,-56.641,-24.902,-52.734,-389.160
1690119484.980,187.988,-56.641,-23.926,380.859,387.695
1690119484.983,188.965,-51.270,-41.504,308.594,871.582
1690119484.987,-59.082,-46.387,-48.828,-182.129,45.410
1690119484.991,-180.664,-47.363,-37.598,-374.512,-704.102
1690119484.995,-62.012,-47.852,-36.621,-102.539,-494.629
1690119484.999,192.383,-37.598,-43.945,356.445,171.387
1690119485.001,232.910,-30.762,-43.457,366.699,432.129
1690119485.005,-26.367,-39.062,-41.992,-102.051,-72.754
1690119485.009,-198.730,-44.922,-47.852,-346.680,-530.273
1690119485.013,-109.863,-51.270,-38.086,-140.625,-507.324
1690119485.017,149.414,-53.223,-29.785,329.590,48.828
1690119485.021,242.676,-46.387,-34.668,417.969,475.586
1690119485.025,3.906,-46.387,-42.969,-37.109,412.109
1690119485.028,-180.176,-44.922,-37.109,-347.168,-109.375
1690119485.032,-106.934,-34.180,-28.320,-203.613,-545.898
1690119485.036,118.652,-36.133,-35.645,247.070,-27.832
1690119485.040,226.562,-34.180,-39.062,414.062,579.590
1690119485.044,20.508,-24.902,-38.086,0.488,106.934
1690119485.047,-185.059,-26.855,-32.715,-349.609,-547.852
1690119485.051,-158.203,-36.133,-33.203,-248.047,-474.609
1690119485.055,65.918,-37.109,-36.621,203.125,177.246
1690119485.059,222.656,-38.086,-38.086,426.758,474.609
1690119485.063,48.340,-42.969,-32.227,41.992,70.801
1690119485.067,-188.477,-42.480,-34.668,-345.215,-296.875
1690119485.071,-186.035,-34.668,-35.645,-299.316,-284.668
1690119485.074,34.668,-24.414,-25.391,126.465,-58.594
1690119485.078,206.055,-29.785,-25.879,416.504,332.520
1690119485.082,66.406,-39.062,-32.227,98.145,320.801
1690119485.086,-157.715,-38.574,-36.133,-319.824,-122.559
1690119485.090,-182.617,-39.062,-38.086,-328.613,-587.402
1690119485.106,-7.324,-36.621,-38.086,64.941,-309.082
1690119485.110,215.332,-19.043,-33.203,420.410,428.223
1690119485.114,119.629,-20.996,-32.227,167.969,352.539
1690119485.118,-152.832,-33.691,-36.621,-305.664,-319.824
1690119485.122,-214.355,-38.574,-36.621,-374.023,-589.844
1690119485.126,-38.086,-44.434,-29.785,6.836,-116.211
1690119485.130,197.266,-29.785,-23.926,393.555,414.062
1690119485.133,133.301,-16.113,-27.832,208.008,315.430
1690119485.137,-135.742,-25.879,-27.344,-260.254,-249.512
1690119485.141,-223.633,-38.086,-29.785,-368.164,-368.164
1690119485.145,-67.871,-31.250,-36.621,-60.547,-165.039
1690119485.149,180.176,-14.160,-31.738,358.887,222.656
1690119485.152,167.969,-17.090,-21.484,265.137,445.312
1690119485.156,-120.117,-38.086,-23.926,-222.656,150.391
1690119485.160,-242.188,-42.969,-21.973,-398.438,-520.020
1690119485.164,-100.098,-34.180,-25.391,-119.629,-536.621
1690119485.168,130.371,-39.551,-28.809,341.797,250.977
1690119485.172,156.738,-42.480,-25.879,318.848,634.277
1690119485.176,-98.633,-30.762,-24.414,-180.664,61.523
1690119485.179,-245.117,-20.020,-21.484,-416.016,-625.000
1690119485.183,-115.234,-26.367,-15.625,-171.387,-421.875
1690119485.187,144.043,-25.879,-15.625,302.734,447.266
1690119485.191,204.102,-20.508,-28.320,352.539,515.625
1690119485.195,-45.898,-27.832,-33.691,-130.859,-119.141
1690119485.196,-229.004,-32.227,-31.738,-427.734,-481.934
1690119485.200,-160.645,-34.180,-30.273,-237.793,-436.035
1690119485.204,93.262,-34.668,-20.020,246.582,44.434
1690119485.208,203.613,-29.297,-18.066,382.324,422.363
1690119485.212,-23.926,-28.809,-31.738,-65.430,186.523
1690119485.216,-214.355,-37.598,-41.992,-400.391,-305.664
1690119485.220,-175.293,-35.156,-36.133,-279.297,-437.988
1690119485.223,56.152,-23.926,-35.645,177.246,65.430
1690119485.227,207.031,-30.273,-33.691,400.879,713.867
1690119485.231,0.977,-40.039,-30.762,-3.418,319.824
1690119485.235,-229.980,-30.273,-26.367,-387.207,-512.207
1690119485.239,-198.242,-14.648,-17.578,-307.617,-637.695
1690119485.241,33.203,-20.508,-16.602,130.859,-127.441
1690119485.245,199.707,-29.785,-13.184,402.832,495.117
1690119485.249,42.480,-32.227,-21.973,55.664,237.305
1690119485.253,-195.312,-44.434,-32.715,-374.023,-370.605
1690119485.257,-203.125,-35.645,-28.320,-358.398,-271.484
1690119485.261,-13.184,-31.738,-31.250,46.875,1.953
1690119485.265,180.176,-41.992,-27.344,395.020,353.027
1690119485.268,69.824,-37.109,-26.855,129.883,345.703
1690119485.272,-193.359,-31.250,-39.062,-333.984,-22.949
1690119485.276,-226.562,-26.367,-37.109,-381.348,-540.039
1690119485.280,-26.367,-24.902,-37.109,-3.906,-367.676
1690119485.284,180.176,-22.949,-42.969,386.719,383.789
1690119485.286,104.492,-19.531,-21.484,190.430,373.535
1690119485.290,-160.156,-31.250,-9.766,-287.598,-306.641
1690119485.294,-246.094,-34.180,-20.996,-396.484,-679.688
1690119485.298,-72.754,-25.391,-29.297,-56.641,-327.148
1690119485.302,176.270,-28.320,-32.227,362.305,290.527
1690119485.306,132.324,-33.203,-35.156,222.168,358.398
1690119485.310,-143.555,-34.668,-40.527,-272.949,-102.539
1690119485.313,-254.395,-40.039,-37.109,-415.527,-222.168
1690119485.317,-100.586,-32.227,-28.809,-99.121,12.695
1690119485.321,160.645,-20.508,-26.855,347.168,274.902
1690119485.325,154.297,-34.668,-27.344,288.086,412.598
1690119485.329,-119.629,-45.410,-37.109,-216.309,-108.887
1690119485.331,-255.371,-33.691,-51.270,-433.594,-609.375
1690119485.335,-129.395,-27.832,-29.297,-166.504,-439.941
1690119485.339,132.812,-26.367,-10.742,304.199,227.539
1690119485.343,165.039,-26.367,-24.414,327.637,666.504
1690119485.347,-88.379,-33.691,-34.668,-152.832,66.406
1690119485.351,-234.863,-41.992,-36.133,-412.109,-515.625
1690119485.355,-137.695,-28.809,-31.250,-205.078,-298.828
1690119485.358,106.445,-18.066,-23.926,270.508,450.195
1690119485.362,196.289,-31.738,-24.902,368.164,546.387
1690119485.366,-28.809,-38.574,-31.250,-87.402,28.809
1690119485.370,-218.750,-32.715,-34.668,-409.668,-424.316
1690119485.374,-154.297,-25.391,-34.668,-260.254,-502.930
1690119485.376,77.148,-25.879,-41.504,208.496,-75.195
1690119485.380,190.918,-32.715,-34.180,392.090,365.723
1690119485.384,-0.488,-33.203,-26.855,-15.137,151.855
1690119485.388,-213.867,-28.809,-34.668,-395.508,-497.559
1690119485.392,-169.922,-25.879,-39.551,-316.406,-654.297
1690119485.396,64.453,-28.320,-35.645,144.043,52.246
1690119485.400,211.426,-27.344,-25.391,408.691,794.922
1690119485.403,37.109,-25.879,-21.484,43.945,457.520
1690119485.407,-216.797,-31.738,-26.367,-377.441,-418.945
1690119485.411,-219.238,-40.039,-28.320,-334.473,-582.520
1690119485.415,47.363,-29.297,-31.250,147.949,87.402
1690119485.419,226.562,-10.742,-36.621,430.664,603.516
1690119485.423,63.477,-19.043,-37.109,97.656,309.082
1690119485.427,-193.848,-38.086,-26.855,-341.797,-224.121
1690119485.431,-218.262,-40.039,-18.066,-364.746,-234.375
1690119485.435,-2.930,-25.879,-23.926,35.156,-47.363
1690119485.439,204.590,-23.926,-27.832,401.367,262.207
1690119485.443,92.773,-40.527,-33.203,163.086,391.602
1690119485.447,-178.711,-40.039,-35.156,-317.383,-49.805
1690119485.450,-235.352,-27.832,-31.250,-399.414,-606.445
1690119485.454,-51.270,-19.043,-23.926,-36.621,-424.316
1690119485.458,179.688,-18.066,-20.996,384.277,291.504
1690119485.462,127.930,-30.762,-21.484,217.285,391.602
1690119485.466,-139.648,-37.598,-23.926,-266.113,-276.367
1690119485.469,-243.652,-41.016,-36.621,-405.762,-707.031
1690119485.473,-75.195,-44.434,-31.250,-84.961,-371.094
1690119485.477,185.059,-27.832,-19.531,376.465,392.090
1690119485.481,144.043,-24.414,-19.531,274.414,451.660
1690119485.485,-145.020,-38.574,-24.902,-244.141,-191.895
1690119485.489,-281.250,-37.598,-32.715,-449.707,-320.312
1690119485.493,-149.902,-32.227,-22.949,-174.805,-116.211
1690119485.496,106.445,-38.574,-22.461,300.293,160.645
1690119485.500,145.020,-42.480,-29.297,307.129,441.895
1690119485.504,-112.793,-49.316,-27.344,-189.453,154.785
1690119485.508,-256.836,-41.504,-30.273,-450.195,-482.422
1690119485.512,-145.996,-27.832,-26.367,-222.168,-593.262
1690119485.527,99.609,-27.832,-26.855,263.184,113.281
1690119485.531,156.250,-32.227,-30.273,333.008,602.539
1690119485.535,-87.402,-39.062,-27.832,-144.531,116.699
1690119485.539,-241.699,-33.203,-22.461,-406.738,-576.172
1690119485.543,-162.109,-27.832,-15.137,-223.633,-500.488
1690119485.547,71.289,-33.691,-23.438,237.793,454.102
1690119485.551,188.477,-33.691,-28.320,388.672,744.141
1690119485.554,-22.461,-34.180,-34.668,-69.336,70.312
1690119485.558,-232.910,-33.203,-38.574,-433.105,-459.473
1690119485.562,-192.383,-36.133,-32.715,-308.105,-382.324
1690119485.566,48.340,-37.598,-29.297,159.180,-41.016
1690119485.570,189.941,-34.668,-36.133,391.113,394.043
1690119485.572,4.395,-43.457,-40.527,7.324,228.516
1690119485.576,-229.492,-41.016,-32.715,-397.461,-373.047
1690119485.580,-209.961,-26.367,-31.738,-332.031,-598.145
1690119485.584,20.996,-24.902,-34.668,115.234,-138.184
1690119485.588,198.242,-27.344,-22.949,415.039,519.531
1690119485.592,63.477,-31.738,-22.949,93.750,415.039
1690119485.596,-187.988,-37.109,-37.109,-363.770,-212.891
1690119485.599,-209.961,-36.133,-40.039,-366.699,-505.859
1690119485.603,-11.230,-40.527,-32.715,58.594,76.172
1690119485.607,176.270,-37.598,-31.250,402.344,717.285
1690119485.611,62.500,-26.367,-40.039,123.535,321.777
1690119485.615,-195.312,-27.344,-39.062,-352.539,-359.863
1690119485.618,-226.074,-30.762,-32.227,-387.695,-624.512
1690119485.622,-42.969,-32.227,-38.086,-20.508,-307.129
1690119485.626,177.246,-26.367,-30.273,377.441,300.781
1690119485.630,113.281,-37.109,-25.391,192.383,395.020
1690119485.634,-162.598,-56.152,-42.969,-305.176,-81.055
1690119485.638,-243.652,-42.480,-43.457,-402.832,-617.188
1690119485.642,-66.406,-27.344,-32.715,-62.988,-423.828
1690119485.645,170.410,-21.484,-29.297,369.141,372.559
1690119485.649,119.141,-14.160,-21.484,232.910,479.004
1690119485.653,-144.531,-20.020,-27.344,-260.742,-179.688
1690119485.657,-240.723,-16.602,-35.156,-422.852,-677.734
1690119485.661,-90.332,-21.484,-33.203,-132.324,-353.027
1690119485.662,147.949,-31.250,-33.691,336.426,609.375
1690119485.666,154.297,-33.203,-25.879,305.176,547.852
1690119485.670,-99.121,-38.086,-24.414,-189.941,-201.660
1690119485.674,-241.699,-47.363,-44.922,-423.828,-594.727
1690119485.678,-128.906,-43.945,-47.363,-191.895,-519.531
1690119485.682,128.906,-25.879,-33.203,280.762,99.609
1690119485.686,193.359,-25.391,-23.926,339.355,503.906
1690119485.689,-58.594,-37.598,-15.137,-128.906,280.273
1690119485.693,-239.258,-36.621,-25.391,-423.828,-276.367
1690119485.697,-150.391,-35.156,-39.062,-238.770,-535.645
1690119485.701,95.703,-36.133,-40.039,242.676,-1.465
1690119485.705,191.406,-27.832,-36.133,372.559,488.770
1690119485.707,-34.180,-30.762,-33.691,-79.102,152.832
1690119485.711,-235.352,-34.180,-37.109,-422.852,-466.797
1690119485.715,-173.828,-30.762,-41.504,-291.016,-559.082
1690119485.719,57.617,-34.180,-36.621,183.105,198.242
1690119485.723,204.590,-27.832,-23.926,404.785,562.988
1690119485.727,19.531,-17.090,-22.461,-26.367,101.074
1690119485.731,-219.238,-25.391,-26.855,-407.227,-291.992
1690119485.734,-197.754,-33.691,-27.344,-309.082,-193.359
1690119485.738,33.203,-29.785,-25.391,130.859,-21.484
1690119485.742,207.520,-25.391,-23.438,423.828,356.934
1690119485.746,44.922,-32.715,-26.367,74.707,229.492
1690119485.750,-204.590,-32.715,-29.785,-370.605,-429.688
1690119485.753,-213.379,-24.414,-30.762,-357.422,-683.105
1690119485.757,-0.488,-14.160,-32.227,55.176,-219.238
1690119485.761,200.195,-13.672,-28.320,395.508,582.520
1690119485.765,83.496,-30.762,-27.832,109.863,445.312
1690119485.769,-165.039,-30.273,-28.320,-354.492,-293.457
1690119485.773,-218.262,-29.785,-27.344,-388.184,-467.285
1690119485.777,-25.879,-29.297,-26.367,13.672,166.992
1690119485.780,192.871,-24.414,-20.020,416.016,721.191
1690119485.784,89.355,-22.949,-27.344,187.500,353.516
1690119485.788,-184.082,-33.203,-35.645,-313.965,-330.078
1690119485.792,-261.230,-31.250,-32.715,-419.922,-645.020
1690119485.796,-97.168,-17.090,-32.715,-84.961,-403.320
1690119485.797,140.625,-22.949,-40.039,337.402,200.195
1690119485.801,106.445,-39.062,-30.762,227.539,474.609
1690119485.805,-157.227,-33.691,-13.672,-255.859,78.613
1690119485.809,-258.789,-21.484,-30.762,-436.523,-553.223
1690119485.813,-118.652,-23.438,-42.480,-140.625,-487.793
1690119485.817,121.094,-22.949,-27.832,323.242,379.395
1690119485.821,137.695,-26.855,-28.809,284.668,812.012
1690119485.824,-108.887,-28.809,-42.969,-210.449,19.531
1690119485.828,-243.652,-31.738,-34.668,-427.734,-674.805
1690119485.832,-130.371,-41.992,-33.203,-173.340,-435.547
1690119485.836,120.605,-36.621,-34.668,282.715,241.699
1690119485.840,174.805,-31.250,-31.738,309.570,400.391
1690119485.857,-73.242,-38.574,-34.668,-158.203,-91.309
1690119485.861,-250.488,-47.363,-35.156,-425.293,-546.875
1690119485.865,-157.227,-35.156,-35.645,-212.891,-561.523
1690119485.869,95.215,-25.879,-25.879,246.094,-34.668
1690119485.873,166.504,-28.320,-26.855,319.824,410.645
1690119485.877,-60.059,-34.668,-43.457,-105.957,214.355
1690119485.881,-242.188,-28.320,-37.109,-416.992,-389.648
1690119485.884,-174.316,-26.367,-30.273,-279.297,-543.457
1690119485.888,60.059,-30.273,-35.645,186.523,55.664
1690119485.892,192.871,-28.320,-41.016,382.324,599.121
1690119485.896,4.395,-31.250,-43.945,-25.391,134.766
1690119485.900,-220.215,-30.762,-31.250,-400.391,-559.082
1690119485.901,-193.359,-26.367,-21.484,-309.570,-562.500
1690119485.905,21.484,-30.273,-33.203,132.812,395.020
1690119485.909,190.918,-36.133,-36.133,405.273,940.918
1690119485.913,59.570,-22.461,-20.020,67.383,210.449
1690119485.917,-198.730,-30.273,-17.578,-377.441,-516.113
1690119485.921,-239.258,-41.016,-25.879,-383.789,-601.074
1690119485.925,-30.762,-35.156,-31.250,29.297,-131.836
1690119485.928,185.547,-29.785,-32.715,374.512,314.453
1690119485.932,104.980,-31.250,-40.039,135.254,299.805
1690119485.936,-141.602,-41.016,-46.875,-306.641,37.109
1690119485.940,-221.191,-34.180,-41.992,-375.977,-433.105
1690119485.944,-75.195,-18.066,-33.691,-52.246,-395.020
1690119485.947,156.738,-16.602,-27.344,340.332,302.246
1690119485.951,148.438,-20.020,-35.645,229.980,455.566
1690119485.955,-80.566,-26.367,-37.598,-192.383,-201.660
1690119485.959,-197.754,-28.320,-27.832,-347.168,-561.523
1690119485.963,-104.004,-31.738,-24.902,-106.445,-291.504
1690119485.967,125.000,-36.621,-27.344,295.898,320.312
1690119485.971,175.781,-31.250,-28.809,267.090,495.117
1690119485.974,-39.062,-29.785,-29.785,-134.766,-8.789
1690119485.978,-194.824,-36.621,-34.180,-334.473,-152.344
1690119485.982,-151.855,-38.086,-32.715,-170.410,-92.773
1690119485.986,47.852,-31.250,-23.438,203.125,99.609
1690119485.990,137.207,-28.809,-20.020,257.812,337.402
1690119485.991,-38.086,-34.180,-25.879,-107.910,91.797
1690119485.995,-188.477,-33.691,-32.227,-335.449,-327.148
1690119485.999,-145.996,-41.016,-33.691,-191.406,-499.512
1690119486.003,64.453,-42.480,-35.645,202.637,-9.277
1690119486.007,177.246,-25.391,-27.832,309.082,643.066
1690119486.011,11.230,-17.090,-25.391,-49.805,291.992
1690119486.015,-167.969,-16.602,-24.414,-322.754,-302.246
1690119486.018,-156.738,-22.461,-23.926,-227.539,-363.281
1690119486.022,36.621,-22.949,-23.926,180.664,301.270
1690119486.026,162.109,-21.973,-17.090,335.938,487.793
1690119486.030,-8.301,-45.410,-15.137,-43.457,-74.219
1690119486.034,-205.566,-42.480,-18.555,-364.258,-487.793
1690119486.036,-186.523,-20.508,-27.832,-278.809,-513.672
1690119486.040,26.367,-24.414,-23.438,141.602,-124.512
1690119486.044,176.270,-32.227,-17.090,364.258,301.758
1690119486.048,9.766,-28.320,-28.809,14.648,273.926
1690119486.052,-210.449,-21.973,-39.062,-360.840,-301.758
1690119486.056,-200.195,-21.973,-39.551,-310.547,-572.754
1690119486.060,10.254,-26.367,-40.039,105.957,5.859
1690119486.063,172.852,-27.344,-35.645,372.559,769.043
1690119486.067,38.086,-32.227,-27.832,44.922,418.457
1690119486.071,-203.613,-41.992,-30.273,-368.652,-466.309
1690119486.075,-212.891,-34.668,-37.598,-334.961,-649.902
1690119486.079,-3.906,-29.297,-35.645,73.242,-230.469
1690119486.082,187.988,-35.156,-31.738,384.766,304.688
1690119486.086,92.285,-28.320,-32.715,114.258,219.727
1690119486.090,-160.156,-19.043,-32.227,-342.285,-333.496
1690119486.094,-210.449,-21.484,-26.855,-368.652,-448.242
1690119486.098,-28.809,-32.227,-26.367,20.996,-190.918
1690119486.102,171.875,-31.250,-28.320,370.605,291.992
1690119486.106,91.309,-34.668,-23.926,166.504,458.496
1690119486.109,-174.316,-51.758,-29.297,-305.664,195.801
1690119486.113,-241.699,-40.527,-38.574,-399.902,-413.086
1690119486.117,-55.176,-26.367,-37.598,-35.156,-381.836
1690119486.121,163.086,-26.367,-34.180,361.816,301.270
1690119486.125,131.836,-22.461,-27.344,215.820,313.477
1690119486.126,-145.508,-23.926,-25.391,-275.391,-302.734
1690119486.130,-259.766,-27.344,-32.715,-416.504,-662.598
1690119486.134,-89.844,-26.367,-28.320,-86.426,-327.148
1690119486.138,137.695,-34.180,-28.809,328.125,250.977
1690119486.142,144.531,-47.363,-28.320,256.836,354.492
1690119486.146,-109.863,-55.176,-25.879,-224.609,-121.094
1690119486.150,-254.395,-43.945,-35.156,-423.340,-330.078
1690119486.153,-116.699,-23.438,-42.969,-144.043,-117.676
1690119486.157,118.164,-20.996,-38.086,292.969,223.633
1690119486.161,165.527,-27.832,-29.297,298.828,437.500
1690119486.165,-71.777,-23.438,-32.715,-163.574,104.980
1690119486.169,-239.746,-17.090,-28.809,-416.992,-505.371
1690119486.172,-140.625,-23.438,-30.273,-196.777,-543.945
1690119486.176,90.332,-28.320,-32.227,245.605,155.273
1690119486.180,167.969,-39.551,-37.109,325.684,660.645
1690119486.184,-44.434,-43.945,-36.133,-111.328,86.426
1690119486.188,-229.980,-27.344,-22.949,-420.898,-607.910
1690119486.192,-154.785,-18.066,-17.090,-238.770,-425.293
1690119486.196,71.777,-30.273,-18.555,215.332,321.289
1690119486.199,191.406,-30.273,-32.227,376.465,571.777
1690119486.203,5.859,-16.602,-42.969,-32.227,20.996
1690119486.207,-233.398,-22.461,-40.039,-418.457,-435.059
1690119486.211,-202.148,-26.855,-37.598,-318.359,-339.355
1690119486.215,30.273,-20.508,-33.691,130.371,-47.363
1690119486.219,180.176,-20.508,-37.598,354.004,331.055
1690119486.223,17.578,-30.762,-46.875,-1.465,259.766
1690119486.227,-217.285,-31.738,-48.828,-395.020,-347.656
1690119486.231,-215.332,-20.508,-41.504,-351.562,-688.477
1690119486.235,19.531,-11.230,-31.250,104.004,-113.281
1690119486.239,209.473,-12.207,-29.297,398.926,623.535
1690119486.243,75.195,-10.742,-28.809,80.078,354.492
1690119486.246,-160.645,-0.488,-27.832,-340.820,-343.750
1690119486.250,-195.801,-8.789,-37.598,-361.816,-587.891
1690119486.254,-15.137,-24.902,-30.273,24.902,17.578
1690119486.258,192.871,-27.344,-20.508,379.395,520.996
1690119486.262,107.422,-25.391,-23.438,146.973,217.285
1690119486.276,-146.973,-23.438,-31.250,-306.641,-264.160
1690119486.280,-212.402,-35.645,-37.109,-375.488,-416.992
1690119486.284,-44.922,-28.809,-31.738,-26.367,-166.504
1690119486.288,177.246,-0.977,-22.949,362.305,296.387
1690119486.292,86.426,-11.719,-24.902,135.254,414.551
1690119486.296,-160.645,-32.715,-28.320,-289.551,261.719
1690119486.300,-236.328,-37.598,-37.109,-375.488,-246.094
1690119486.303,-82.031,-43.457,-36.133,-91.797,-333.984
1690119486.307,162.109,-33.203,-24.414,337.891,284.668
1690119486.311,134.766,-21.973,-33.691,252.441,481.934
1690119486.315,-115.723,-25.879,-38.086,-234.863,-187.500
1690119486.319,-224.121,-29.785,-20.508,-406.738,-631.836
1690119486.322,-89.355,-27.832,-20.020,-117.676,-348.145
1690119486.326,131.836,-28.320,-30.762,310.059,215.820
1690119486.330,163.086,-35.645,-29.785,296.875,363.281
1690119486.334,-75.195,-31.250,-32.227,-178.223,-86.914
1690119486.338,-241.699,-28.320,-25.391,-418.945,-464.844
1690119486.342,-123.535,-36.621,-20.020,-169.922,-266.602
1690119486.346,112.305,-30.762,-25.391,275.391,234.375
1690119486.349,172.363,-29.297,-31.250,321.777,441.895
1690119486.353,-60.059,-31.250,-40.527,-123.535,254.395
1690119486.357,-245.117,-24.414,-44.922,-422.363,-331.055
1690119486.361,-143.555,-19.531,-35.156,-236.328,-589.844
1690119486.365,87.891,-23.926,-29.785,219.238,-38.086
1690119486.367,182.617,-31.250,-29.785,344.238,409.180
1690119486.371,-5.371,-29.297,-22.461,-67.871,142.578
1690119486.375,-224.121,-30.273,-24.414,-411.133,-531.250
1690119486.379,-186.035,-39.551,-23.438,-281.250,-570.312
1690119486.383,44.922,-35.156,-19.531,177.734,158.203
1690119486.387,194.336,-30.273,-24.414,385.742,542.480
1690119486.391,30.762,-41.992,-25.391,15.625,210.449
1690119486.394,-208.984,-41.992,-30.762,-376.953,-235.840
1690119486.398,-198.242,-23.926,-35.156,-315.430,-126.953
1690119486.402,25.391,-9.277,-26.367,122.070,42.480
1690119486.406,197.754,-7.812,-32.227,399.902,291.016
1690119486.410,58.594,-20.508,-29.297,78.125,209.961
1690119486.412,-189.453,-31.738,-24.414,-358.398,-396.484
1690119486.416,-214.355,-39.062,-36.133,-347.656,-680.176
1690119486.420,-9.766,-47.363,-37.598,71.289,-256.836
1690119486.424,195.312,-50.293,-28.809,398.438,375.977
1690119486.428,98.633,-31.738,-23.438,141.113,295.898
1690119486.432,-177.246,-13.184,-41.992,-329.590,-265.625
1690119486.436,-224.121,-11.230,-46.875,-377.930,-557.617
1690119486.439,-19.531,-22.949,-36.133,44.434,117.676
1690119486.443,175.293,-30.273,-28.320,395.508,753.906
1690119486.447,117.676,-33.691,-19.043,195.312,329.590
1690119486.451,-148.438,-37.109,-24.902,-270.996,-262.695
1690119486.455,-244.629,-40.527,-30.762,-386.719,-451.660
1690119486.457,-65.430,-33.203,-18.555,-47.363,-257.324
1690119486.461,152.344,-22.461,-26.855,347.656,285.156
1690119486.465,132.324,-23.438,-36.621,240.234,493.164
1690119486.469,-121.582,-28.320,-32.227,-232.910,46.387
1690119486.473,-242.188,-32.715,-31.250,-408.203,-545.410
1690119486.477,-96.191,-37.598,-23.926,-111.816,-459.473
1690119486.481,126.953,-39.551,-19.531,326.172,412.109
1690119486.484,144.043,-36.133,-18.066,293.945,860.840
1690119486.488,-87.891,-28.320,-16.113,-188.477,-7.812
1690119486.492,-233.398,-27.344,-33.203,-415.527,-669.434
1690119486.496,-123.535,-29.297,-41.992,-178.711,-357.422
1690119486.500,108.398,-26.367,-30.273,261.719,241.699
1690119486.502,179.688,-21.973,-14.648,323.730,389.648
1690119486.506,-52.246,-35.645,-13.184,-125.488,-55.664
1690119486.510,-243.652,-45.410,-28.809,-425.293,-471.191
1690119486.514,-150.879,-31.250,-34.668,-229.492,-444.824
1690119486.518,92.285,-25.879,-28.320,237.793,47.852
1690119486.522,192.383,-28.809,-29.297,361.816,460.938
1690119486.526,-24.902,-31.250,-32.227,-70.312,374.023
1690119486.529,-235.352,-33.203,-35.156,-420.410,-201.172
1690119486.533,-171.387,-30.273,-33.203,-286.133,-558.594
1690119486.537,60.059,-30.273,-25.391,173.828,-53.223
1690119486.541,203.613,-21.484,-25.391,372.559,476.074
1690119486.545,31.738,-22.461,-38.086,-23.438,118.652
1690119486.548,-199.707,-28.320,-44.922,-414.551,-474.121
1690119486.552,-172.852,-23.438,-39.062,-326.660,-431.641
1690119486.556,48.828,-24.414,-25.879,121.582,275.391
1690119486.560,202.637,-31.250,-20.020,388.672,557.617
1690119486.564,39.062,-32.715,-23.926,61.035,77.148
1690119486.568,-214.355,-37.109,-31.738,-356.445,-377.930
1690119486.572,-229.004,-52.734,-42.969,-341.309,-416.992
1690119486.575,-21.484,-34.180,-38.574,65.918,-88.379
1690119486.579,172.852,-12.207,-25.391,380.859,344.238
1690119486.583,77.637,-24.902,-22.949,116.211,318.848
1690119486.587,-183.594,-34.668,-29.785,-334.473,-229.980
1690119486.591,-222.656,-26.367,-26.367,-359.375,-604.980
1690119486.593,-25.879,-33.691,-22.461,29.785,-292.480
1690119486.597,174.316,-40.527,-29.297,372.559,419.922
1690119486.601,110.352,-33.203,-28.809,175.293,383.301
1690119486.605,-152.344,-29.297,-22.949,-286.133,-260.254
1690119486.609,-225.586,-29.785,-27.344,-377.441,-525.391
1690119486.613,-55.176,-22.461,-41.016,-12.695,-43.945
1690119486.617,158.691,-19.531,-37.109,373.047,611.816
1690119486.620,156.738,-24.902,-21.973,241.211,395.508
1690119486.624,-101.074,-24.414,-23.438,-232.422,-186.035
1690119486.628,-240.723,-35.645,-24.902,-404.297,-429.688
1690119486.632,-88.379,-39.551,-16.602,-93.262,-335.449
1690119486.636,141.113,-30.273,-13.672,335.938,186.035
1690119486.652,144.043,-26.855,-18.555,277.344,383.789
1690119486.656,-115.723,-35.156,-28.809,-201.660,-70.801
1690119486.660,-260.254,-39.062,-40.039,-425.781,-513.184
1690119486.664,-121.094,-31.250,-41.504,-170.898,-495.117
1690119486.668,133.301,-26.855,-36.133,291.016,141.602
1690119486.672,153.809,-33.203,-35.156,286.133,609.375
1690119486.676,-86.914,-36.133,-36.621,-175.781,115.723
1690119486.679,-248.535,-32.715,-40.039,-430.664,-505.859
1690119486.683,-154.297,-22.461,-30.273,-217.773,-441.895
1690119486.687,89.844,-18.555,-24.414,266.113,416.016
1690119486.691,183.594,-17.578,-34.668,357.910,602.539
1690119486.695,-25.391,-23.926,-36.621,-95.703,7.324
1690119486.697,-240.234,-35.156,-41.504,-422.852,-483.398
1690119486.701,-180.664,-35.156,-39.062,-267.090,-552.246
1690119486.705,68.848,-27.832,-26.367,201.172,-22.949
1690119486.709,192.383,-32.715,-26.855,376.465,434.570
1690119486.713,3.906,-48.340,-17.090,-21.484,154.785
1690119486.717,-220.215,-43.457,-21.973,-391.113,-418.945
1690119486.721,-171.387,-27.344,-31.738,-279.297,-494.629
1690119486.724,52.734,-28.320,-20.020,169.922,-48.340
1690119486.728,192.871,-31.250,-17.090,410.156,741.211
1690119486.732,55.664,-32.227,-26.855,59.082,616.211
1690119486.736,-187.500,-35.156,-33.691,-361.816,-373.535
1690119486.740,-187.012,-28.320,-31.250,-312.500,-634.277
1690119486.742,26.367,-25.391,-27.832,114.746,-163.574
1690119486.746,183.594,-28.809,-32.227,384.277,387.695
1690119486.750,64.453,-36.133,-32.227,89.355,226.074
1690119486.754,-195.312,-41.504,-24.414,-355.957,-345.703
1690119486.758,-226.074,-40.039,-19.043,-366.699,-428.223
1690119486.762,-18.066,-29.297,-23.438,50.781,-84.473
1690119486.766,170.410,-23.438,-25.879,379.395,378.906
1690119486.769,99.121,-32.227,-25.879,159.668,413.574
1690119486.773,-158.203,-42.480,-33.691,-300.293,33.691
1690119486.777,-221.191,-30.762,-34.180,-389.160,-507.324
1690119486.781,-32.227,-14.648,-31.738,-15.625,-349.121
1690119486.785,162.598,-13.184,-32.227,347.656,375.977
1690119486.787,112.305,-23.438,-24.902,181.641,429.199
1690119486.791,-147.461,-29.785,-27.832,-289.551,-306.152
1690119486.795,-242.676,-19.531,-33.691,-416.016,-733.398
1690119486.799,-88.867,-20.996,-23.926,-79.590,-353.027
1690119486.803,126.465,-25.391,-24.414,331.055,266.602
1690119486.807,136.719,-19.043,-28.320,259.766,378.906
1690119486.811,-105.469,-24.414,-31.250,-215.820,-54.199
1690119486.814,-229.004,-34.180,-32.715,-416.016,-288.574
1690119486.818,-88.867,-31.738,-27.832,-130.859,-147.461
1690119486.822,141.113,-24.414,-25.391,302.734,145.508
1690119486.826,177.246,-37.109,-29.785,288.574,343.262
1690119486.830,-72.266,-52.734,-38.574,-166.016,-0.488
1690119486.833,-229.980,-37.109,-40.527,-372.070,-525.879
1690119486.837,-116.211,-26.855,-25.879,-162.598,-416.504
1690119486.841,104.980,-35.156,-28.320,266.113,292.480
1690119486.845,172.852,-32.715,-39.551,349.121,808.594
1690119486.849,-34.180,-18.555,-26.855,-93.262,207.031
1690119486.853,-220.215,-20.508,-22.949,-401.855,-550.293
1690119486.857,-141.602,-35.645,-27.344,-221.680,-405.273
1690119486.860,91.309,-25.879,-25.879,239.746,379.395
1690119486.864,195.312,-21.973,-34.180,367.676,538.086
1690119486.868,5.371,-30.762,-35.645,-40.527,-21.484
1690119486.872,-222.656,-31.250,-34.180,-395.020,-508.301
1690119486.876,-168.457,-26.367,-32.715,-264.160,-560.059
1690119486.877,65.918,-25.391,-21.484,187.500,-132.812
1690119486.881,192.383,-26.367,-24.414,395.996,361.328
1690119486.885,28.320,-23.438,-34.180,37.598,235.352
1690119486.889,-220.703,-28.809,-24.902,-377.930,-367.676
1690119486.893,-208.496,-29.785,-16.113,-316.406,-483.887
1690119486.897,21.484,-26.367,-18.066,126.953,33.203
1690119486.901,185.547,-26.855,-27.344,393.066,805.176
1690119486.904,56.641,-23.926,-32.227,76.660,755.371
1690119486.908,-205.078,-29.297,-31.250,-371.094,-324.219
1690119486.912,-228.027,-38.574,-26.855,-359.375,-661.621
1690119486.916,-2.441,-41.016,-20.020,68.359,-126.465
1690119486.920,183.105,-43.945,-19.531,389.648,351.074
1690119486.922,72.754,-45.898,-21.484,137.207,211.426
1690119486.926,-185.547,-31.250,-33.691,-332.031,-212.402
1690119486.930,-230.469,-18.066,-46.875,-389.648,-323.242
1690119486.934,-45.898,-13.184,-53.223,-12.207,-201.660
1690119486.938,159.180,-15.625,-40.527,355.957,168.945
1690119486.942,113.770,-23.438,-21.484,190.918,349.609
1690119486.946,-155.273,-32.715,-16.602,-282.227,1.953
1690119486.949,-247.559,-44.922,-26.855,-415.527,-489.746
1690119486.953,-55.176,-35.156,-28.320,-64.941,-421.875
1690119486.957,172.852,-23.438,-22.949,356.445,288.574
1690119486.961,145.508,-25.879,-33.691,252.441,611.816
1690119486.965,-113.770,-33.203,-34.668,-243.164,-139.160
1690119486.982,-240.234,-35.156,-27.344,-426.758,-665.527
1690119486.986,-92.773,-27.344,-24.902,-120.605,-365.234
1690119486.990,141.113,-30.273,-29.297,311.523,159.668
1690119486.994,181.641,-32.715,-39.062,285.645,288.574
1690119486.998,-62.988,-27.832,-39.551,-186.035,-133.789
1690119487.002,-243.164,-32.715,-30.762,-430.176,-410.645
1690119487.006,-130.371,-33.203,-21.973,-176.270,-298.340
1690119487.009,112.305,-26.855,-17.578,269.043,82.031
1690119487.013,178.223,-25.879,-35.156,307.129,388.184
1690119487.017,-44.434,-30.762,-41.992,-115.234,334.961
1690119487.021,-232.910,-34.180,-29.785,-401.855,-201.660
1690119487.025,-152.344,-39.062,-28.320,-226.074,-549.805
1690119487.042,79.590,-32.227,-24.414,214.844,50.781
1690119487.046,185.547,-26.855,-20.996,354.492,603.027
1690119487.050,-11.719,-40.527,-35.156,-46.875,139.648
1690119487.054,-225.098,-43.945,-35.156,-399.414,-552.246
1690119487.058,-162.598,-30.762,-22.461,-266.113,-526.367
1690119487.062,56.641,-32.227,-24.902,169.922,161.133
1690119487.066,193.848,-31.738,-27.832,367.188,510.254
1690119487.069,48.828,-28.809,-28.320,11.719,101.562
1690119487.073,-195.801,-40.527,-31.738,-390.625,-426.270
1690119487.077,-175.293,-40.527,-34.180,-312.012,-323.242
1690119487.081,44.434,-28.809,-29.785,139.160,-5.859
1690119487.085,175.781,-25.391,-22.949,382.812,389.160
1690119487.072,36.621,-34.180,-19.531,61.035,310.547
1690119487.076,-219.238,-45.898,-24.902,-364.746,-326.660
1690119487.080,-258.789,-49.805,-19.043,-362.793,-616.211
1690119487.084,-62.012,-51.270,-7.812,34.668,-199.707
1690119487.088,146.484,-52.734,-7.812,363.281,414.551
1690119487.092,74.219,-52.246,-9.277,127.930,416.016
1690119487.096,-186.523,-51.758,-13.672,-328.125,-177.246
1690119487.099,-239.258,-53.711,-5.859,-372.559,-556.641
1690119487.103,-64.453,-62.012,-4.395,-5.859,-182.129
1690119487.107,136.719,-69.336,-16.113,356.445,374.512
1690119487.111,86.914,-67.383,-26.367,189.453,311.523
1690119487.115,-188.477,-58.594,-27.344,-296.387,-187.012
1690119487.118,-274.902,-50.293,-27.344,-409.180,-272.949
1690119487.122,-61.523,-47.363,-37.598,-4.883,63.477
1690119487.126,149.414,-44.922,-41.016,366.211,332.520
1690119487.130,138.672,-37.598,-40.527,240.723,377.441
1690119487.134,-113.281,-42.969,-31.250,-228.516,87.891
1690119487.138,-266.602,-51.758,-24.414,-437.012,-525.879
1690119487.142,-126.465,-42.480,-24.414,-145.508,-568.848
1690119487.145,124.512,-38.086,-29.297,296.387,177.246
1690119487.149,166.016,-54.199,-28.320,303.223,673.828
1690119487.153,-85.449,-63.477,-26.367,-150.879,-8.789
1690119487.157,-252.930,-51.270,-42.480,-420.410,-729.004
1690119487.161,-141.602,-37.109,-43.945,-202.637,-504.883
1690119487.162,101.074,-27.344,-31.738,252.441,93.750
1690119487.166,188.965,-20.996,-29.785,328.613,357.422
1690119487.170,-20.020,-30.273,-28.809,-94.727,2.441
1690119487.174,-212.402,-32.715,-23.438,-380.371,-467.285
1690119487.178,-146.484,-30.273,-27.832,-217.285,-453.613
1690119487.182,65.918,-41.992,-24.414,221.680,98.633
1690119487.186,184.570,-41.992,-21.973,365.723,462.891
1690119487.189,15.625,-42.480,-21.973,-15.625,394.531
1690119487.193,-194.336,-40.527,-23.926,-349.609,47.363
1690119487.197,-163.086,-34.180,-28.809,-272.949,-371.094
1690119487.201,31.738,-40.527,-33.691,123.047,-24.902
1690119487.205,170.410,-39.062,-32.227,336.914,477.051
1690119487.207,44.434,-39.551,-31.250,19.043,257.324
1690119487.211,-180.176,-41.992,-33.203,-354.492,-343.750
1690119487.215,-187.012,-29.785,-41.992,-308.105,-535.645
1690119487.219,4.883,-20.996,-44.434,87.891,56.641
1690119487.223,169.922,-21.484,-31.250,352.539,446.289
1690119487.227,72.266,-28.320,-23.438,94.727,191.895
1690119487.231,-163.086,-31.250,-17.090,-310.547,-223.633
1690119487.234,-183.594,-35.645,-10.742,-314.941,-66.895
1690119487.238,-16.602,-32.227,-23.438,48.340,46.387
1690119487.242,156.738,-23.438,-29.785,345.703,193.848
1690119487.246,104.004,-20.508,-16.113,142.090,234.375
1690119487.250,-135.254,-28.320,-20.996,-284.668,-315.918
1690119487.252,-215.820,-28.809,-36.133,-364.258,-645.020
1690119487.256,-67.871,-24.414,-35.156,-25.879,-336.426
1690119487.260,138.184,-36.133,-41.016,333.008,295.410
1690119487.264,121.094,-38.574,-45.898,185.547,318.359
1690119487.268,-115.234,-34.180,-44.434,-259.277,-262.695
1690119487.272,-226.074,-47.363,-46.875,-393.066,-450.195
1690119487.276,-88.867,-46.875,-30.273,-69.824,105.957
1690119487.279,129.883,-23.926,-17.578,328.125,614.746
1690119487.283,133.301,-14.160,-18.066,216.309,358.887
1690119487.287,-100.098,-21.484,-25.391,-212.891,-71.777
1690119487.291,-232.422,-25.879,-29.297,-386.230,-326.660
1690119487.295,-117.188,-22.461,-22.949,-124.023,-356.934
1690119487.297,104.980,-25.879,-20.508,297.363,79.590
1690119487.301,141.602,-30.273,-18.555,270.508,494.629
1690119487.305,-88.867,-36.621,-28.320,-179.199,264.160
1690119487.309,-232.422,-36.621,-28.809,-397.949,-416.992
1690119487.313,-113.281,-29.785,-19.531,-159.180,-549.805
1690119487.317,100.586,-24.902,-26.367,243.164,166.016
1690119487.321,170.898,-23.438,-23.926,278.320,602.051
1690119487.324,-27.832,-21.973,-21.973,-133.789,11.230
1690119487.328,-203.613,-24.414,-29.297,-405.273,-575.684
1690119487.332,-123.047,-22.461,-30.273,-216.309,-412.598
1690119487.336,76.172,-27.832,-33.691,212.891,139.648
1690119487.340,164.062,-30.762,-35.156,305.664,343.262
1690119487.357,6.348,-25.879,-31.250,-52.734,36.621
1690119487.361,-195.312,-28.809,-31.250,-350.586,-390.625
1690119487.365,-176.758,-32.715,-32.227,-246.582,-458.008
1690119487.369,33.203,-41.504,-25.879,175.781,-80.078
1690119487.373,176.270,-43.457,-18.066,371.094,339.355
1690119487.377,20.996,-32.227,-19.043,17.090,191.895
1690119487.381,-210.938,-31.738,-26.367,-366.211,-306.152
1690119487.384,-188.965,-26.367,-31.250,-299.805,-519.531
1690119487.388,24.902,-16.113,-31.738,127.441,-91.309
1690119487.392,186.035,-16.113,-26.367,379.883,624.512
1690119487.396,62.988,-16.602,-30.762,56.152,350.098
1690119487.400,-177.734,-20.020,-47.363,-367.676,-457.031
1690119487.403,-199.219,-29.297,-51.270,-341.309,-585.449
1690119487.407,-8.789,-32.715,-29.785,78.125,-79.102
1690119487.411,176.758,-31.738,-16.602,378.418,465.332
1690119487.415,80.566,-31.738,-18.555,94.727,231.934
1690119487.419,-176.270,-25.879,-20.996,-357.910,-327.148
1690119487.423,-218.262,-28.320,-32.227,-369.629,-141.602
1690119487.427,-24.414,-28.320,-32.227,33.203,95.215
1690119487.430,176.270,-20.020,-30.762,375.977,301.758
1690119487.434,101.074,-22.461,-30.273,158.203,346.191
1690119487.438,-172.363,-39.062,-31.738,-301.758,45.410
1690119487.442,-241.699,-41.016,-45.410,-381.348,-480.469
1690119487.446,-59.082,-23.926,-41.504,-10.742,-372.559
1690119487.447,158.203,-22.461,-30.273,376.465,296.387
1690119487.451,123.047,-24.414,-33.203,205.078,318.359
1690119487.455,-133.301,-27.344,-30.762,-278.809,-326.660
1690119487.459,-225.098,-26.855,-24.414,-398.926,-693.848
1690119487.463,-73.730,-30.762,-25.879,-68.848,-284.668
1690119487.467,150.391,-35.645,-21.484,347.656,366.211
1690119487.471,162.109,-30.762,-18.555,265.625,514.648
1690119487.474,-106.934,-28.809,-31.250,-227.539,-50.293
1690119487.478,-251.465,-21.973,-43.945,-418.945,-333.984
1690119487.482,-111.328,-14.648,-45.410,-137.695,-77.148
1690119487.486,127.930,-19.531,-31.738,297.363,186.035
1690119487.490,170.410,-30.762,-16.113,302.246,328.125
1690119487.492,-77.637,-40.039,-14.160,-174.805,-86.914
1690119487.496,-237.793,-36.621,-26.855,-432.129,-530.762
1690119487.500,-129.395,-33.203,-37.598,-197.754,-508.301
1690119487.504,104.980,-34.180,-34.668,254.395,112.793
1690119487.508,188.477,-26.855,-28.320,337.402,623.047
1690119487.512,-41.992,-29.297,-27.832,-103.027,173.828
1690119487.516,-243.652,-31.738,-36.621,-423.340,-431.641
1690119487.519,-158.203,-30.762,-43.457,-244.141,-384.766
1690119487.523,84.961,-34.668,-33.203,234.863,406.250
1690119487.527,194.824,-34.668,-22.949,378.906,609.863
1690119487.531,1.465,-34.180,-20.996,-47.363,14.160
1690119487.535,-213.379,-35.156,-20.020,-410.645,-474.121
1690119487.537,-159.668,-34.668,-24.414,-284.180,-551.758
1690119487.541,53.711,-30.273,-23.438,168.945,-116.699
1690119487.545,181.152,-30.273,-26.367,381.836,354.004
1690119487.549,19.531,-33.203,-34.668,17.578,158.203
1690119487.553,-216.309,-29.785,-36.133,-375.000,-459.473
1690119487.557,-181.641,-30.273,-29.297,-288.574,-562.988
1690119487.561,32.227,-33.203,-22.461,143.066,-60.059
1690119487.564,191.895,-28.320,-18.555,412.109,670.898
1690119487.568,66.406,-27.344,-16.602,78.613,512.695
1690119487.572,-199.219,-32.227,-18.066,-365.723,-365.723
1690119487.576,-231.934,-33.691,-22.949,-359.375,-516.602
1690119487.580,-11.719,-28.320,-18.555,50.781,-3.418
1690119487.582,183.594,-26.855,-16.113,365.723,420.410
1690119487.586,87.891,-35.156,-28.809,134.766,312.988
1690119487.590,-164.062,-48.340,-31.250,-307.617,-233.887
1690119487.594,-217.773,-49.805,-35.645,-376.465,-454.590
1690119487.598,-30.273,-33.203,-40.527,-8.789,-191.406
1690119487.602,182.617,-27.344,-43.457,371.094,321.777
1690119487.606,125.488,-31.250,-41.504,206.543,484.863
1690119487.609,-145.996,-34.180,-35.156,-274.902,153.809
1690119487.613,-234.863,-24.414,-26.855,-397.949,-503.418
1690119487.617,-77.637,-10.254,-25.879,-55.176,-475.586
1690119487.621,151.855,-15.137,-36.621,350.586,240.234
1690119487.625,148.926,-25.879,-35.645,245.605,446.777
1690119487.628,-123.535,-28.320,-33.203,-232.422,-124.512
1690119487.632,-238.770,-26.367,-35.645,-416.992,-637.207
1690119487.636,-84.961,-38.574,-27.344,-113.770,-312.988
1690119487.640,141.113,-42.480,-23.438,319.824,310.547
1690119487.644,159.180,-30.762,-29.297,285.645,392.578
1690119487.648,-92.285,-26.367,-36.621,-179.199,-9.766
1690119487.652,-256.836,-29.297,-38.574,-411.621,-203.613
1690119487.655,-146.484,-31.250,-33.203,-162.109,-195.801
1690119487.659,95.215,-24.902,-26.855,274.902,50.781
1690119487.663,172.363,-30.273,-28.320,325.195,412.598
1690119487.667,-47.363,-41.992,-24.414,-108.398,28.320
1690119487.671,-243.652,-48.828,-28.320,-413.086,-579.590
1690119487.672,-151.855,-42.969,-31.738,-218.750,-556.152
1690119487.676,82.031,-42.480,-27.832,243.652,120.117
1690119487.680,184.082,-29.785,-21.973,361.816,669.434
1690119487.684,-9.766,-14.648,-22.949,-58.105,150.391
1690119487.688,-236.816,-20.508,-33.203,-423.340,-609.863
1690119487.692,-184.570,-22.461,-35.156,-285.645,-513.184
1690119487.696,49.316,-14.160,-30.762,189.941,402.344
1690119487.699,184.570,-19.043,-28.320,388.672,590.820
1690119487.703,17.578,-36.133,-30.762,-2.441,-20.020
1690119487.707,-219.238,-46.387,-37.598,-402.344,-490.723
1690119487.711,-193.848,-38.086,-34.668,-318.848,-552.734
1690119487.715,35.156,-19.531,-26.855,126.465,-126.465
1690119487.719,187.988,-18.555,-21.973,376.465,319.824
1690119487.723,35.645,-27.344,-21.484,51.270,226.074
1690119487.727,-217.285,-27.832,-21.484,-375.977,-370.117
1690119487.731,-223.633,-28.809,-29.297,-355.957,-645.508
1690119487.735,-5.371,-28.320,-28.320,76.172,-115.234
1690119487.739,185.059,-31.250,-19.043,391.602,615.723
1690119487.743,81.055,-34.180,-19.531,121.094,398.438
1690119487.746,-181.641,-37.598,-33.203,-337.891,-307.129
1690119487.750,-212.891,-49.805,-39.062,-360.840,-570.312
1690119487.754,-9.766,-48.340,-27.344,42.480,-20.020
1690119487.758,198.242,-29.297,-16.602,395.020,622.559
1690119487.762,128.418,-28.809,-23.926,180.176,283.203
1690119487.777,-166.504,-31.250,-35.645,-313.477,-356.934
1690119487.781,-251.953,-32.227,-36.621,-402.344,-527.832
1690119487.785,-53.711,-32.715,-39.551,-35.645,-275.391
1690119487.789,175.781,-29.785,-29.297,365.723,219.727
1690119487.793,144.043,-26.367,-16.602,236.816,395.020
1690119487.797,-131.348,-27.832,-17.578,-251.465,277.344
1690119487.801,-235.352,-24.414,-25.879,-416.992,-301.270
1690119487.804,-68.359,-15.625,-24.414,-91.309,-452.148
1690119487.808,160.645,-18.066,-26.855,341.309,291.016
1690119487.812,184.570,-23.438,-35.156,278.320,686.523
1690119487.816,-86.426,-30.273,-31.738,-220.703,-97.168
1690119487.820,-252.441,-37.598,-34.668,-442.871,-725.098
1690119487.822,-112.305,-27.344,-30.273,-153.809,-456.543
1690119487.826,133.301,-24.902,-23.926,305.664,144.531
1690119487.830,181.641,-31.250,-28.809,319.824,389.160
1690119487.834,-77.637,-26.367,-25.879,-149.414,-65.430
1690119487.838,-255.371,-36.621,-26.367,-425.293,-508.301
1690119487.842,-145.020,-53.223,-28.809,-192.871,-322.754
1690119487.846,96.680,-45.410,-32.227,274.902,313.965
1690119487.849,188.477,-30.273,-40.527,363.281,577.637
1690119487.853,-23.438,-28.809,-37.598,-90.332,232.910
1690119487.857,-252.441,-37.598,-27.832,-437.500,-327.637
1690119487.861,-186.523,-35.156,-32.715,-265.137,-526.367
1690119487.865,74.219,-24.902,-36.621,210.938,17.578
1690119487.867,184.570,-28.320,-32.715,377.441,579.590
1690119487.871,0.488,-36.133,-39.551,-38.086,226.562
1690119487.875,-229.004,-50.293,-40.039,-434.082,-515.137
1690119487.879,-200.195,-53.223,-23.926,-309.570,-600.098
1690119487.883,44.434,-39.551,-13.184,156.250,83.984
1690119487.887,203.613,-19.043,-14.648,386.230,554.688
1690119487.891,32.227,-20.020,-29.785,21.484,205.566
1690119487.894,-215.820,-27.344,-33.691,-398.926,-402.832
1690119487.898,-204.590,-36.621,-28.809,-341.797,-340.332
1690119487.902,5.371,-32.715,-31.738,95.215,-88.867
1690119487.906,185.547,-19.531,-36.621,401.367,291.992
1690119487.910,64.453,-19.531,-29.785,120.117,255.371
1690119487.912,-208.984,-24.902,-32.715,-342.285,-324.707
1690119487.916,-243.652,-30.273,-41.992,-364.258,-614.746
1690119487.920,-9.277,-25.879,-34.668,64.453,-260.742
1690119487.924,206.055,-25.879,-24.902,413.574,460.938
1690119487.928,93.750,-40.527,-21.973,145.508,389.648
1690119487.932,-201.660,-41.504,-23.926,-362.305,-318.359
1690119487.936,-255.859,-36.621,-23.926,-432.617,-625.000
1690119487.939,-52.246,-37.109,-23.438,-22.461,-46.387
1690119487.943,162.598,-33.691,-25.391,379.883,543.457
1690119487.947,120.605,-33.203,-35.156,203.613,316.406
1690119487.951,-162.109,-46.875,-38.574,-298.340,-252.930
1690119487.955,-276.855,-47.363,-33.203,-441.406,-590.332
1690119487.972,-94.727,-39.062,-29.785,-87.402,-348.145
1690119487.976,148.438,-31.738,-22.461,352.539,301.758
1690119487.980,145.996,-24.902,-21.973,249.023,467.285
1690119487.984,-104.492,-35.156,-38.086,-214.355,235.840
1690119487.988,-242.676,-45.410,-37.109,-422.363,-373.535
1690119487.992,-92.773,-42.480,-26.855,-143.066,-458.008
1690119487.996,140.137,-28.809,-33.691,313.965,362.793
1690119487.999,167.969,-21.484,-27.344,311.523,827.637
1690119488.003,-79.590,-27.344,-22.949,-165.527,85.938
1690119488.007,-258.789,-36.133,-27.344,-448.242,-637.695
1690119488.011,-142.090,-35.645,-26.367,-193.848,-489.746
1690119488.015,111.816,-29.785,-34.180,280.762,124.023
1690119488.002,194.824,-28.320,-41.504,353.027,408.203
1690119488.006,-26.855,-28.320,-34.180,-84.473,-34.668
1690119488.010,-248.047,-41.504,-38.086,-419.922,-530.273
1690119488.014,-174.805,-60.059,-37.598,-253.418,-568.359
1690119488.018,69.336,-46.875,-16.113,223.633,0.000
1690119488.022,184.570,-29.297,-15.625,375.488,535.156
1690119488.026,-2.930,-30.762,-23.926,-33.691,399.902
1690119488.029,-228.027,-29.297,-32.715,-412.598,-320.312
1690119488.033,-180.176,-25.879,-34.668,-294.434,-628.418
1690119488.037,54.688,-25.879,-31.738,170.898,-103.027
1690119488.041,187.988,-25.391,-37.109,392.578,689.453
1690119488.045,26.855,-27.832,-31.738,38.086,542.480
1690119488.047,-201.660,-25.391,-26.855,-379.395,-445.312
1690119488.051,-184.570,-21.973,-30.273,-321.777,-586.914
1690119488.055,31.250,-32.715,-30.762,117.188,118.652
1690119488.059,202.148,-37.109,-24.414,384.766,505.859
1690119488.063,81.055,-20.996,-26.855,82.031,176.270
1690119488.067,-180.664,-14.648,-36.621,-354.492,-245.117
1690119488.071,-216.309,-20.508,-35.156,-354.004,-260.742
1690119488.074,-20.020,-33.691,-22.949,59.570,-90.820
1690119488.078,175.293,-39.062,-17.578,388.672,326.660
1690119488.082,95.215,-42.480,-29.297,152.344,348.633
1690119488.086,-180.176,-38.574,-34.180,-322.266,-112.793
1690119488.090,-232.910,-28.320,-36.133,-396.484,-601.562
1690119488.107,-22.949,-25.879,-38.574,1.465,-307.617
1690119488.111,183.594,-24.414,-25.879,385.742,439.453
1690119488.115,127.441,-30.762,-21.484,207.520,408.691
1690119488.119,-153.809,-26.367,-27.832,-279.297,-277.344
1690119488.123,-253.906,-38.574,-32.227,-419.434,-619.629
1690119488.127,-68.848,-46.875,-29.297,-71.777,-193.359
1690119488.131,160.645,-32.227,-27.344,349.609,447.266
1690119488.134,146.484,-21.484,-35.645,231.934,414.551
1690119488.138,-105.957,-22.949,-38.574,-260.254,-172.363
1690119488.142,-234.375,-31.250,-39.551,-422.852,-345.703
1690119488.146,-90.820,-26.367,-37.598,-111.328,-139.160
1690119488.150,149.902,-17.090,-29.785,331.543,226.074
1690119488.152,165.527,-25.391,-26.855,302.246,458.008
1690119488.156,-105.957,-34.668,-35.156,-182.617,297.363
1690119488.160,-261.230,-28.809,-31.250,-426.270,-362.305
1690119488.164,-135.254,-26.367,-24.902,-166.016,-556.641
1690119488.168,100.586,-31.250,-28.320,297.363,126.953
1690119488.172,170.898,-25.391,-25.879,351.074,594.727
1690119488.176,-58.594,-26.367,-23.438,-110.840,154.297
1690119488.179,-242.676,-25.391,-25.879,-423.340,-535.156
1690119488.183,-149.414,-20.508,-26.855,-229.492,-542.969
1690119488.187,73.730,-30.273,-30.762,225.098,291.016
1690119488.191,175.293,-30.762,-36.621,335.449,491.699
1690119488.195,-15.625,-35.645,-43.457,-75.195,-23.926
1690119488.197,-230.957,-48.340,-41.016,-418.457,-491.211
1690119488.201,-163.086,-39.062,-34.180,-283.203,-497.559
1690119488.205,68.359,-18.555,-25.391,179.688,-48.828
1690119488.209,193.359,-7.812,-22.461,381.836,354.980
1690119488.213,20.020,-14.160,-24.414,11.230,254.883
1690119488.217,-202.148,-24.902,-20.508,-362.793,-288.086
1690119488.221,-188.477,-34.180,-18.066,-302.246,-479.004
1690119488.224,8.789,-49.316,-20.020,122.070,-72.266
1690119488.228,173.340,-44.434,-24.902,400.879,612.305
1690119488.232,52.246,-31.738,-34.180,90.820,451.172
1690119488.236,-186.035,-20.996,-38.086,-345.215,-447.754
1690119488.240,-220.215,-13.184,-31.738,-345.215,-671.387
1690119488.242,-3.418,-10.254,-27.344,82.031,-132.812
1690119488.246,196.777,-14.160,-21.973,402.832,444.824
1690119488.250,63.477,-21.484,-27.832,88.867,249.512
1690119488.254,-189.941,-26.855,-34.668,-354.492,-251.465
1690119488.258,-218.262,-30.762,-29.785,-380.859,-268.555
1690119488.262,-23.926,-23.926,-15.137,5.371,-7.324
1690119488.266,186.035,-18.555,-22.461,375.488,383.301
1690119488.269,132.324,-30.273,-28.809,190.918,376.465
1690119488.273,-131.348,-41.992,-20.020,-272.461,30.762
1690119488.277,-217.285,-27.832,-22.949,-391.113,-458.008
1690119488.281,-62.012,-16.602,-29.785,-57.129,-395.508
1690119488.285,135.254,-27.344,-29.785,327.148,252.441
1690119488.287,125.488,-28.320,-31.738,222.656,358.398
1690119488.291,-110.840,-24.414,-35.156,-228.027,-236.816
1690119488.295,-221.191,-29.297,-29.297,-395.020,-663.574
1690119488.299,-95.703,-26.855,-26.855,-110.840,-371.094
1690119488.303,120.605,-30.273,-23.926,309.570,232.422
1690119488.307,146.973,-45.410,-24.414,269.531,482.422
1690119488.311,-82.031,-31.738,-18.555,-194.336,30.273
1690119488.314,-232.910,-28.809,-24.902,-404.297,-175.781
1690119488.318,-135.254,-44.922,-34.668,-166.016,30.762
1690119488.322,107.422,-33.691,-29.297,271.484,171.875
1690119488.326,167.969,-19.043,-32.715,311.523,384.277
1690119488.330,-57.129,-19.531,-34.668,-139.648,26.855
1690119488.332,-224.121,-22.461,-24.902,-396.484,-554.199
1690119488.336,-138.672,-24.414,-22.949,-198.730,-536.621
1690119488.340,85.938,-26.855,-22.949,242.188,41.504
1690119488.344,163.086,-42.480,-25.879,346.191,553.711
1690119488.348,-31.250,-48.828,-39.551,-74.707,59.570
1690119488.352,-204.102,-32.715,-35.156,-381.836,-578.125
1690119488.356,-164.551,-32.715,-23.926,-245.117,-452.637
1690119488.359,52.246,-29.785,-21.484,197.754,321.777
1690119488.363,188.477,-20.020,-20.020,370.605,592.773
1690119488.367,7.812,-24.414,-27.344,-19.043,52.246
1690119488.371,-207.520,-39.551,-35.645,-381.836,-376.465
1690119488.375,-187.012,-48.340,-38.086,-289.551,-318.848
1690119488.377,33.203,-29.297,-29.297,142.090,-77.148
1690119488.381,194.824,-15.137,-22.461,383.789,321.289
1690119488.385,49.316,-27.344,-31.250,56.641,223.145
1690119488.389,-202.637,-37.109,-36.621,-358.887,-369.629
1690119488.393,-226.074,-28.320,-32.715,-338.867,-605.957
1690119488.397,-14.160,-20.996,-26.855,83.496,-105.957
1690119488.401,174.805,-24.902,-19.531,383.789,740.234
1690119488.404,65.430,-27.344,-10.254,101.074,593.750
1690119488.408,-180.176,-29.785,-16.602,-331.055,-355.957
1690119488.412,-206.055,-36.621,-27.832,-355.957,-680.176
1690119488.416,-16.113,-37.598,-21.973,41.504,-190.918
1690119488.420,163.574,-35.156,-22.949,370.605,429.199
1690119488.422,100.098,-38.574,-28.809,150.879,300.293
1690119488.426,-142.578,-40.039,-38.086,-288.574,-141.602
1690119488.430,-240.723,-40.039,-37.598,-379.883,-196.289
1690119488.434,-66.406,-43.945,-36.133,-29.785,-125.000
1690119488.438,158.691,-44.922,-35.645,352.539,183.594
1690119488.442,118.652,-28.809,-37.598,188.477,467.773
1690119488.446,-142.090,-25.391,-38.574,-291.992,86.914
1690119488.449,-237.793,-26.855,-41.016,-421.875,-587.891
1690119488.453,-92.773,-32.715,-40.527,-97.656,-484.863
1690119488.457,139.160,-43.457,-20.020,331.543,237.305
1690119488.461,133.789,-49.316,-16.113,255.371,430.664
1690119488.465,-135.254,-40.527,-28.809,-226.562,-236.328
1690119488.469,-230.469,-21.973,-29.785,-391.602,-716.797
1690119488.473,-95.703,-21.484,-22.949,-122.070,-366.699
1690119488.477,128.906,-26.855,-28.320,299.316,297.363
1690119488.481,155.273,-34.180,-40.527,288.086,411.621
1690119488.485,-93.262,-33.691,-31.250,-177.734,-122.070
1690119488.489,-254.883,-40.039,-26.367,-409.180,-351.562
1690119488.493,-141.602,-33.203,-25.391,-190.918,-192.383
1690119488.496,112.305,-11.230,-25.391,256.836,74.219
1690119488.500,186.035,-7.812,-40.527,339.844,356.445
1690119488.504,-39.551,-24.414,-45.898,-108.887,185.059
1690119488.508,-224.121,-36.133,-34.668,-414.551,-397.461
1690119488.512,-148.926,-29.297,-35.156,-238.281,-637.207
1690119488.527,83.496,-25.879,-20.996,226.562,-39.551
1690119488.531,195.801,-14.160,-13.184,374.023,614.258
1690119488.535,-11.719,-19.531,-31.250,-48.340,178.711
1690119488.539,-229.492,-29.297,-20.020,-391.602,-575.195
1690119488.543,-183.594,-25.391,-7.812,-281.738,-514.160
1690119488.547,24.902,-29.297,-16.113,137.695,363.770
1690119488.551,156.738,-32.715,-20.020,347.656,759.277
1690119488.554,0.977,-22.949,-15.137,-14.160,115.723
1690119488.558,-244.629,-30.273,-15.137,-428.223,-469.238
1690119488.562,-264.648,-28.809,-19.043,-396.973,-523.926
1690119488.566,-62.012,-12.695,-33.691,19.043,-185.547
1690119488.570,106.445,-8.301,-59.570,306.152,318.848
1690119488.572,-47.852,-12.207,-30.273,-25.391,204.590
1690119488.576,-301.270,-10.742,-13.184,-477.051,-395.996
1690119488.580,-300.781,2.441,-23.926,-455.078,-629.395
1690119488.584,-76.660,7.812,5.859,-20.020,-237.305
1690119488.588,125.000,-1.465,13.184,319.336,439.941
1690119488.592,35.156,10.742,-29.297,65.430,404.785
1690119488.596,-240.234,9.277,-69.336,-391.113,-255.859
1690119488.599,-289.551,-11.719,-20.508,-442.383,-500.000
1690119488.603,-78.125,-21.484,21.973,-42.480,86.426
1690119488.607,131.836,-22.949,5.859,352.051,744.629
1690119488.611,84.961,-21.484,-36.621,165.527,411.133
1690119488.615,-165.039,-20.508,-56.641,-318.359,-348.145
1690119488.617,-235.840,-19.043,-40.527,-416.016,-624.512
1690119488.621,-52.246,-23.438,-15.137,-51.758,-238.281
1690119488.625,172.852,-35.645,-4.395,361.816,305.664
1690119488.629,156.250,-48.828,-18.066,253.906,466.309
1690119488.633,-115.723,-35.156,-40.039,-229.980,136.719
1690119488.637,-241.211,-30.273,-68.359,-407.227,-493.652
1690119488.641,-56.152,-46.875,-67.871,-68.359,-466.797
1690119488.644,189.941,-45.898,-39.551,382.812,254.883
1690119488.648,182.617,-36.621,-28.809,320.801,778.809
1690119488.652,-81.055,-34.180,-33.691,-168.945,117.188
1690119488.656,-226.562,-44.922,-29.785,-403.809,-674.805
1690119488.660,-83.008,-56.641,-32.715,-141.113,-466.309
1690119488.662,147.949,-42.969,-33.691,328.613,208.984
1690119488.666,185.059,-39.551,-31.250,364.258,364.258
1690119488.670,-47.363,-46.875,-44.922,-111.816,-129.395
1690119488.674,-217.285,-41.992,-46.387,-395.996,-561.523
1690119488.678,-107.422,-41.016,-31.738,-179.688,-494.141
1690119488.682,139.160,-42.480,-26.367,295.898,174.316
1690119488.686,215.820,-41.016,-32.227,391.602,516.113
1690119488.689,-20.020,-51.758,-37.109,-63.477,285.645
1690119488.693,-226.562,-55.176,-39.062,-406.250,-307.617
1690119488.697,-132.812,-40.039,-36.621,-242.188,-624.512
1690119488.701,110.352,-25.879,-24.414,247.559,-0.977
1690119488.705,220.215,-28.809,-22.949,421.387,556.641
1690119488.707,6.836,-35.645,-35.645,-21.484,134.277
1690119488.711,-226.562,-34.668,-39.551,-398.926,-498.047
1690119488.715,-175.293,-37.598,-47.852,-291.016,-486.328
1690119488.719,73.242,-47.363,-34.180,176.270,252.441
1690119488.723,217.285,-43.945,-12.695,429.199,649.902
1690119488.727,48.828,-28.809,-20.020,66.895,293.945
1690119488.731,-191.895,-34.180,-31.738,-363.281,-218.750
1690119488.734,-178.223,-47.363,-34.180,-323.242,-284.668
1690119488.738,39.062,-37.598,-28.320,109.863,-76.660
1690119488.742,195.312,-21.484,-21.973,403.320,249.023
1690119488.746,79.102,-19.531,-30.762,112.305,182.617
1690119488.750,-180.176,-32.715,-40.039,-354.004,-421.387
1690119488.753,-217.773,-34.668,-37.109,-379.395,-700.684
1690119488.757,-8.301,-20.996,-26.855,45.410,-255.859
1690119488.761,195.801,-24.902,-20.996,414.062,541.016
1690119488.765,120.117,-27.344,-19.043,193.848,438.477
1690119488.769,-142.578,-17.578,-20.996,-291.504,-355.957
1690119488.773,-210.449,-35.156,-40.527,-388.184,-602.539
1690119488.777,-24.902,-57.129,-40.527,-9.277,26.367
1690119488.780,185.547,-43.457,-21.484,395.508,662.598
1690119488.784,133.789,-22.461,-29.785,234.863,355.957
1690119488.788,-121.582,-20.508,-43.945,-261.719,-311.035
1690119488.792,-197.754,-22.461,-40.527,-397.949,-610.352
1690119488.796,-51.270,-23.438,-38.086,-64.941,-360.352
1690119488.812,149.902,-24.902,-29.297,352.051,233.398
1690119488.816,145.996,-27.832,-21.973,282.227,486.328
1690119488.820,-115.234,-36.133,-20.508,-201.660,91.309
1690119488.824,-260.742,-49.316,-21.973,-415.039,-521.484
1690119488.828,-103.027,-43.945,-20.020,-130.371,-411.133
1690119488.832,143.066,-35.156,-18.555,325.195,311.523
1690119488.836,165.527,-40.527,-24.414,328.125,858.398
1690119488.839,-80.566,-54.199,-25.391,-158.691,187.988
1690119488.843,-238.281,-45.410,-26.855,-432.129,-668.457
1690119488.847,-115.723,-27.344,-28.809,-187.988,-521.973
1690119488.851,116.211,-19.043,-25.391,282.715,76.172
1690119488.855,177.734,-26.855,-28.320,357.910,363.281
1690119488.843,-41.504,-34.668,-32.227,-101.562,-60.547
1690119488.847,-236.328,-38.574,-24.902,-429.688,-558.105
1690119488.851,-144.531,-41.992,-26.367,-249.023,-488.281
1690119488.855,100.586,-32.227,-27.832,223.145,35.645
1690119488.859,188.477,-36.621,-18.066,387.207,476.074
1690119488.863,-14.160,-42.969,-28.320,-31.250,334.961
1690119488.867,-217.773,-23.926,-37.598,-404.297,-325.684
1690119488.870,-154.297,-12.695,-31.250,-272.461,-478.516
1690119488.874,62.988,-11.230,-23.438,183.105,32.715
1690119488.878,190.918,-21.484,-20.508,394.531,709.473
1690119488.882,20.020,-31.250,-35.156,21.973,572.266
1690119488.886,-215.332,-30.762,-29.785,-394.043,-375.977
1690119488.902,-182.617,-30.273,-23.926,-328.613,-619.629
1690119488.906,46.387,-26.855,-28.320,121.094,-39.062
1690119488.910,231.445,-21.484,-16.113,414.062,426.758
1690119488.914,102.051,-29.785,-15.137,98.145,119.141
1690119488.918,-167.480,-41.992,-29.297,-366.699,-397.949
1690119488.922,-200.195,-34.180,-33.691,-365.234,-327.148
1690119488.926,-15.625,-36.621,-29.297,62.012,14.160
1690119488.929,155.273,-27.344,-20.996,403.809,355.957
1690119488.933,59.082,-27.832,-19.531,159.668,341.309
1690119488.937,-211.914,-38.086,-29.785,-328.613,22.949
1690119488.941,-246.094,-25.879,-31.738,-394.531,-520.508
1690119488.945,-26.367,-8.301,-30.273,19.043,-397.949
1690119488.947,170.410,-14.648,-26.855,404.785,327.148
1690119488.951,95.215,-38.086,-11.719,206.543,379.883
1690119488.955,-178.711,-50.781,-16.602,-312.988,-290.039
1690119488.959,-241.211,-56.641,-30.762,-417.480,-698.242
1690119488.963,-35.156,-32.227,-33.203,-28.320,-344.238
1690119488.967,185.059,0.000,-37.598,376.465,369.629
1690119488.971,137.207,-2.930,-40.527,227.539,492.188
1690119488.974,-153.320,-16.602,-40.527,-289.551,-144.531
1690119488.978,-266.602,-16.602,-38.574,-463.867,-408.203
1690119488.982,-95.703,-7.812,-40.039,-140.625,-146.484
1690119488.986,144.043,-2.441,-40.039,318.848,221.680
1690119488.990,157.227,-4.395,-41.504,287.598,415.039
1690119488.992,-107.422,-8.789,-54.688,-227.539,234.375
1690119488.996,-258.301,-0.488,-63.477,-486.328,-301.270
1690119489.000,-120.605,5.371,-65.430,-201.660,-566.895
1690119489.004,120.605,-6.348,-69.824,272.461,66.406
1690119489.008,169.922,-13.184,-68.359,317.871,607.422
1690119489.012,-54.688,3.906,-60.547,-154.785,160.645
1690119489.016,-220.215,15.137,-54.688,-469.727,-501.465
1690119489.019,-111.816,9.277,-52.246,-260.254,-421.387
1690119489.023,108.398,2.441,-56.152,228.027,375.488
1690119489.027,187.988,-12.695,-60.059,359.375,562.500
1690119489.031,-9.277,-18.555,-50.781,-73.730,-55.664
1690119489.035,-215.820,-13.184,-53.711,-435.547,-531.250
1690119489.038,-145.996,-14.648,-55.664,-287.109,-513.184
1690119489.042,87.402,-21.973,-44.922,190.918,-6.836
1690119489.046,212.402,-24.414,-43.945,397.461,563.965
1690119489.050,31.738,-18.555,-47.852,-1.465,400.391
1690119489.054,-217.285,-13.672,-39.062,-420.410,-272.461
1690119489.058,-179.688,-20.508,-31.738,-330.566,-507.812
1690119489.062,51.270,-17.578,-43.945,126.953,28.809
1690119489.065,190.430,-13.672,-46.875,402.832,738.770
1690119489.069,40.039,-26.367,-42.969,75.195,545.898
1690119489.073,-200.195,-28.320,-40.039,-394.531,-377.441
1690119489.077,-192.871,-26.367,-33.691,-375.000,-647.461
1690119489.081,1.953,-22.461,-33.691,57.129,-155.762
1690119489.083,155.762,-11.719,-43.945,349.121,397.461
1690119489.087,70.312,-17.578,-41.016,115.234,388.672
1690119489.091,-159.668,-33.203,-24.902,-323.242,-182.129
1690119489.095,-187.012,-25.391,-19.043,-375.488,-334.473
1690119489.099,-1.953,-10.254,-24.902,-1.953,-134.277
1690119489.103,165.039,-18.066,-29.785,359.863,298.828
1690119489.107,111.816,-17.578,-22.461,207.031,458.496
1690119489.110,-132.324,-22.949,-23.438,-265.137,156.738
1690119489.114,-220.215,-31.250,-34.180,-411.621,-457.520
1690119489.118,-56.641,-35.156,-41.016,-73.242,-525.391
1690119489.122,126.953,-29.297,-41.016,341.797,147.949
1690119489.126,127.441,-23.438,-25.879,265.137,353.027
1690119489.128,-79.590,-24.902,-12.207,-189.453,-191.895
1690119489.132,-212.402,-29.297,-21.973,-396.973,-686.035
1690119489.136,-102.539,-32.715,-29.785,-134.766,-437.988
1690119489.140,116.699,-27.344,-35.645,299.316,200.195
1690119489.144,187.988,-34.180,-35.645,326.660,417.969
1690119489.148,-15.625,-39.062,-22.461,-105.469,61.035
1690119489.152,-215.820,-36.621,-21.484,-391.602,-125.488
1690119489.155,-139.160,-37.598,-24.414,-209.961,-44.434
1690119489.159,53.223,-40.039,-10.254,219.727,81.055
1690119489.163,130.859,-42.480,-11.230,317.383,308.594
1690119489.167,-27.344,-39.551,-18.555,-68.848,150.879
1690119489.171,-214.844,-43.945,-14.648,-401.367,-451.172
1690119489.172,-180.664,-58.105,-10.254,-267.090,-556.152
1690119489.176,-3.418,-69.824,0.977,176.270,119.141
1690119489.180,122.070,-69.336,-1.953,348.145,548.340
1690119489.184,13.184,-68.848,0.000,23.926,131.836
1690119489.188,-186.035,-84.473,0.000,-323.730,-440.918
1690119489.192,-197.266,-81.543,-10.742,-286.621,-470.215
1690119489.196,-50.293,-63.965,-9.277,83.984,304.688
1690119489.199,107.422,-53.711,-14.160,324.219,624.023
1690119489.203,50.781,-53.711,-21.484,75.195,109.375
1690119489.207,-145.996,-66.406,-14.648,-271.484,-297.363
1690119489.211,-195.801,-64.941,-14.160,-288.086,-429.688
1690119489.215,-84.961,-48.828,-20.508,22.461,-247.070
1690119489.232,78.613,-42.480,-24.414,291.016,179.199
1690119489.236,115.234,-32.227,-25.879,164.062,285.645
1690119489.240,-11.719,-29.297,-27.344,-110.840,-49.805
1690119489.244,-112.793,-39.062,-32.227,-202.148,-348.633
1690119489.248,-127.441,-32.715,-28.809,-93.750,-265.625
1690119489.252,-107.910,-40.527,-12.695,4.883,18.555
1690119489.256,-18.066,-50.293,-14.160,-19.531,10.254
1690119489.259,41.992,-38.574,-23.438,-61.035,-193.359
1690119489.263,10.742,-44.434,-22.461,-42.480,-188.965
1690119489.267,-68.359,-43.457,-25.391,-17.578,89.355
1690119489.271,-106.934,-21.484,-27.832,-13.672,74.219
1690119489.275,-25.879,-18.555,-30.273,-35.156,-177.734
1690119489.277,57.129,-20.508,-35.645,-51.758,-80.566
1690119489.281,32.715,-24.902,-33.691,-39.062,211.914
1690119489.285,-63.965,-30.762,-22.949,-7.324,95.703
1690119489.289,-115.723,-27.344,-29.785,8.301,-96.191
1690119489.293,-27.344,-23.438,-34.180,-3.906,-64.941
1690119489.297,47.363,-27.832,-24.902,-21.973,-47.852
1690119489.301,34.668,-36.621,-21.973,-22.949,-48.828
1690119489.304,-35.645,-31.250,-20.020,-10.254,-132.324
1690119489.308,-113.770,-27.832,-23.926,7.812,-3.418
1690119489.312,-55.664,-37.598,-31.250,-1.953,255.371
1690119489.316,25.391,-35.156,-36.133,-34.180,-25.879
1690119489.320,25.391,-34.180,-37.109,-41.504,-219.727
1690119489.323,-45.898,-49.805,-36.133,-23.926,-27.344
1690119489.327,-127.930,-40.527,-27.832,-11.230,87.402
1690119489.331,-68.848,-26.855,-24.902,-20.020,17.578
1690119489.335,33.203,-29.785,-27.344,-42.969,-77.637
1690119489.339,39.551,-21.973,-34.668,-49.316,-10.742
1690119489.343,-20.508,-18.066,-34.180,-41.016,58.105
1690119489.347,-105.469,-18.066,-26.367,-12.207,-23.438
1690119489.350,-62.988,-7.324,-27.344,-2.441,-60.547
1690119489.354,42.969,-9.277,-17.578,-16.113,145.020
1690119489.358,42.480,-33.203,-14.160,-27.832,122.559
1690119489.362,-6.836,-39.062,-20.996,-23.926,-145.020
1690119489.366,-97.656,-30.762,-14.160,8.789,-95.215
1690119489.368,-107.910,-33.203,-21.484,-16.602,23.926
1690119489.372,14.648,-24.414,-29.297,-62.012,3.418
1690119489.376,63.965,-22.461,-24.902,-54.199,-197.754
1690119489.380,14.160,-28.809,-21.484,-14.648,-164.062
1690119489.384,-90.332,-38.574,-29.297,2.441,137.695
1690119489.388,-104.980,-44.434,-22.949,7.324,129.883
1690119489.392,-4.883,-39.062,-15.137,-17.578,-3.906
1690119489.395,41.992,-29.297,-28.320,-54.688,5.859
1690119489.399,17.578,-25.879,-23.926,-24.414,255.371
1690119489.403,-74.219,-33.203,-16.113,1.465,88.867
1690119489.407,-98.145,-23.926,-17.578,2.930,-146.484
1690119489.411,19.043,-22.461,-21.973,-3.418,-87.402
1690119489.412,71.289,-31.250,-30.273,-26.367,-155.762
1690119489.416,33.203,-32.715,-22.461,-20.508,-211.426
1690119489.420,-64.453,-26.855,-18.555,2.930,-162.109
1690119489.424,-111.816,-28.809,-30.273,5.859,-34.180
1690119489.428,-29.785,-39.062,-31.250,-21.973,-19.043
1690119489.432,29.297,-38.086,-27.832,-32.715,-15.137
1690119489.436,11.230,-31.250,-33.691,-31.250,-41.016
1690119489.439,-46.875,-25.391,-43.945,-28.809,199.219
1690119489.443,-101.074,-20.996,-40.039,-18.066,420.410
1690119489.447,-53.711,-21.973,-26.367,-30.273,1.953
1690119489.451,31.250,-20.508,-26.367,-47.363,-222.168
1690119489.455,36.133,-12.207,-27.832,-38.086,-181.152
1690119489.457,-50.781,-31.738,-14.648,-13.672,-163.574
1690119489.461,-115.234,-51.758,-8.301,5.859,-122.559
1690119489.465,-38.574,-30.762,-29.297,-25.391,-60.547
1690119489.469,49.316,-12.207,-35.156,-47.852,85.449
1690119489.473,50.781,-28.809,-21.973,-18.066,-99.609
1690119489.477,-22.949,-28.320,-25.879,-5.859,-179.688
1690119489.481,-104.492,-3.906,-34.668,-18.066,147.461
1690119489.484,-65.918,-11.719,-28.320,-22.461,390.625
1690119489.488,22.461,-34.668,-8.789,-22.461,47.852
1690119489.492,46.875,-41.016,-20.996,-26.367,-190.918
1690119489.496,-19.531,-31.738,-48.828,-43.945,-9.766
1690119489.500,-111.816,-31.250,-33.203,-27.344,37.598
1690119489.502,-89.844,-41.992,-20.508,-20.996,-61.035
1690119489.506,9.766,-50.781,-21.484,-38.574,-151.367
1690119489.510,34.180,-36.133,-22.461,-50.781,-127.441
1690119489.514,-16.602,-33.203,-20.996,-41.016,-91.309
1690119489.518,-99.121,-37.109,-27.344,-16.113,-97.656
1690119489.522,-82.520,-25.879,-33.203,-20.996,9.766
1690119489.526,8.301,-29.785,-38.086,-38.086,253.906
1690119489.529,24.414,-41.016,-37.598,-39.551,209.961
1690119489.533,-13.184,-34.180,-40.527,-42.969,-136.230
1690119489.537,-87.891,-24.414,-42.480,-36.133,-109.375
1690119489.541,-105.957,-30.762,-31.738,-30.273,62.988
1690119489.545,-20.020,-31.250,-15.625,-44.922,-110.352
1690119489.548,36.621,-18.066,-10.254,-51.270,-228.027
1690119489.552,0.000,-19.531,-14.160,-36.621,10.254
1690119489.556,-90.820,-43.457,-22.949,-8.301,361.816
1690119489.560,-105.957,-51.758,-30.273,-9.277,140.137
1690119489.564,8.301,-32.715,-35.645,-42.969,-198.730
1690119489.568,61.035,-25.879,-34.668,-47.852,-97.168
1690119489.572,10.742,-40.039,-28.809,-23.438,119.629
1690119489.575,-92.773,-43.945,-37.109,-5.371,-31.738
1690119489.579,-116.699,-33.203,-38.086,-8.301,-166.992
1690119489.583,-4.883,-27.344,-33.691,-36.133,-84.961
1690119489.587,62.500,-25.879,-35.156,-52.734,-69.824
1690119489.591,28.320,-27.344,-30.273,-40.039,-155.762
1690119489.593,-77.148,-29.785,-18.066,-6.348,-112.793
1690119489.597,-124.512,-34.180,-19.043,4.395,-99.121
1690119489.601,-30.273,-33.691,-37.109,-30.273,-104.492
1690119489.605,43.457,-22.461,-31.738,-45.410,-36.621
1690119489.609,23.438,-31.250,-29.785,-38.086,-138.672
1690119489.613,-64.453,-49.805,-26.855,-6.836,78.613
1690119489.617,-133.789,-36.133,-23.926,-1.465,270.508
1690119489.620,-58.594,-20.996,-40.527,-43.457,-66.406
1690119489.624,23.926,-27.344,-33.691,-54.199,-188.965
1690119489.628,8.789,-32.715,-13.672,-30.273,53.711
1690119489.632,-45.410,-34.180,-20.020,-19.531,-21.973
1690119489.636,-113.770,-25.391,-22.949,-4.883,-174.805
1690119489.652,-56.152,-14.160,-28.809,-11.719,-104.980
1690119489.656,34.668,-19.043,-37.598,-39.551,13.184
1690119489.660,39.551,-35.156,-23.438,-30.273,-64.453
1690119489.664,-20.996,-43.457,-29.297,-13.672,-195.312
1690119489.668,-108.887,-27.832,-39.551,1.465,-22.461
1690119489.672,-78.125,-21.484,-40.039,-23.926,271.484
1690119489.676,12.695,-19.043,-35.645,-67.383,102.051
1690119489.679,37.598,-9.766,-28.809,-54.688,-134.277
1690119489.683,-16.602,-18.066,-40.039,-43.457,-81.543
1690119489.687,-101.074,-28.320,-37.109,-29.297,277.344
1690119489.691,-82.520,-31.738,-36.621,-20.508,138.672
1690119489.695,23.926,-41.016,-42.969,-49.316,-225.586
1690119489.697,47.363,-38.086,-29.785,-60.547,-184.570
1690119489.701,-29.785,-31.738,-25.391,-43.945,-109.375
1690119489.705,-127.930,-27.832,-27.344,-20.996,-142.578
1690119489.709,-117.676,-18.555,-25.391,-9.766,-78.613
1690119489.713,-5.371,-26.367,-30.273,-29.785,-9.766
1690119489.717,41.016,-18.555,-25.391,-43.945,-45.898
1690119489.721,-5.371,-13.184,-13.672,-51.270,-62.012
1690119489.724,-91.309,-25.879,-20.996,-42.480,-39.551
1690119489.728,-113.770,-38.574,-26.367,-22.949,283.691
1690119489.732,-8.301,-40.527,-19.531,-34.668,351.074
1690119489.736,56.641,-29.785,-18.066,-55.176,-69.336
1690119489.740,1.953,-36.621,-33.691,-47.852,-177.734
1690119489.742,-98.633,-51.758,-44.922,-19.043,-23.438
1690119489.746,-130.859,-38.574,-42.969,-14.648,79.590
1690119489.750,-16.113,-27.344,-38.574,-32.715,-92.285
1690119489.754,52.734,-34.180,-33.203,-45.410,-153.809
1690119489.758,13.184,-40.527,-28.809,-34.180,35.156
1690119489.762,-72.754,-35.156,-27.832,-12.207,-14.648
1690119489.766,-124.023,-18.555,-29.297,-17.578,-88.867
1690119489.769,-35.645,-21.484,-21.973,-31.250,-80.566
1690119489.773,42.480,-26.367,-20.508,-33.203,138.184
1690119489.777,22.949,-30.273,-27.344,-48.340,8.789
1690119489.781,-52.734,-34.668,-36.133,-46.387,-108.887
1690119489.785,-117.676,-30.273,-48.828,-25.391,53.711
1690119489.787,-52.734,-33.203,-33.691,-29.785,58.594
1690119489.791,41.992,-27.344,-37.109,-52.734,-138.672
1690119489.795,38.574,-28.320,-43.457,-55.176,-194.336
1690119489.799,-43.457,-41.504,-27.344,-32.227,-101.074
1690119489.803,-113.281,-33.203,-32.227,-16.113,-65.430
1690119489.807,-46.875,-26.855,-30.762,-23.926,-4.883
1690119489.811,38.086,-25.879,-26.367,-43.945,-50.293
1690119489.814,20.508,-27.832,-36.133,-47.852,43.945
1690119489.818,-41.992,-32.227,-37.598,-21.484,105.957
1690119489.822,-111.816,-31.250,-21.484,8.301,-73.730
1690119489.826,-74.219,-24.414,-18.066,-7.812,-85.449
1690119489.830,29.297,-16.602,-29.785,-37.598,-103.027
1690119489.833,39.551,-22.949,-36.133,-43.945,-165.527
1690119489.837,-23.438,-32.227,-41.504,-42.969,-142.578
1690119489.841,-110.352,-37.109,-38.574,-16.602,34.668
1690119489.845,-95.215,-38.086,-31.738,-7.812,327.148
1690119489.849,12.207,-23.438,-22.461,-45.410,130.859
1690119489.853,52.246,-6.836,-20.996,-54.199,-160.645
1690119489.857,-3.418,-15.137,-24.414,-30.762,-20.996
1690119489.860,-113.281,-36.621,-28.320,-14.648,361.328
1690119489.864,-99.609,-32.227,-33.691,-31.250,74.219
1690119489.868,32.227,-10.742,-26.367,-39.551,-210.938
1690119489.872,62.988,-14.648,-20.020,-41.016,-125.488
1690119489.876,-19.531,-24.902,-30.762,-43.945,-109.863
1690119489.878,-111.816,-29.785,-28.320,-27.832,-73.242
1690119489.882,-103.516,-41.016,-15.625,-19.043,-83.984
1690119489.886,10.254,-32.715,-28.809,-39.551,-119.141
1690119489.890,58.594,-14.160,-40.039,-52.734,-170.898
1690119489.894,22.461,-17.090,-23.926,-28.320,-171.387
1690119489.898,-77.637,-30.273,-23.926,-12.207,-38.086
1690119489.902,-120.605,-21.484,-34.668,-24.414,299.316
1690119489.905,-17.090,-12.695,-23.926,-41.016,400.879
1690119489.909,48.340,-17.578,-21.973,-56.641,-88.379
1690119489.913,19.043,-22.949,-37.109,-52.734,-240.234
1690119489.917,-51.270,-30.273,-37.598,-4.883,-55.176
1690119489.921,-85.938,-26.855,-22.949,19.043,-64.941
1690119489.922,-29.785,-29.785,-16.113,-15.625,-114.258
1690119489.926,34.180,-22.461,-16.113,-50.293,-23.438
1690119489.930,36.133,-15.137,-28.320,-46.387,109.375
1690119489.934,-47.363,-25.879,-33.203,-10.742,-27.344
1690119489.938,-110.352,-36.133,-29.785,-3.418,-113.281
1690119489.942,-22.461,-44.922,-23.926,-26.855,91.797
1690119489.946,47.363,-43.457,-22.949,-40.039,215.332
1690119489.949,26.367,-34.668,-23.926,-44.434,-47.852
1690119489.953,-41.504,-38.574,-15.137,-26.367,-227.051
1690119489.957,-104.492,-44.434,-17.090,-0.488,-80.566
1690119489.961,-51.758,-40.527,-23.438,-16.602,193.359
1690119489.965,18.555,-34.668,-27.344,-55.664,-60.059
1690119489.969,23.438,-30.762,-31.738,-57.129,-270.508
1690119489.973,-29.785,-24.902,-44.434,-36.621,-146.973
1690119489.977,-124.023,-45.410,-42.969,-18.555,-140.137
1690119489.981,-86.914,-57.129,-33.691,-18.066,-188.477
1690119489.985,25.879,-24.902,-33.691,-52.246,-157.227
1690119489.989,46.387,-7.324,-35.156,-62.988,-6.348
1690119489.993,-11.719,-11.719,-25.879,-24.414,32.227
1690119489.996,-101.074,-12.207,-10.742,6.348,-25.879
1690119490.000,-86.426,-20.996,-19.043,-19.531,-61.523
1690119490.004,-3.906,-30.762,-35.156,-53.223,143.555
1690119490.008,12.207,-45.410,-33.203,-49.805,94.238
1690119490.012,-15.625,-49.316,-28.809,-41.504,-259.766
1690119490.027,-103.027,-31.250,-30.273,-15.137,-160.645
1690119490.031,-115.234,-30.273,-31.738,-19.531,111.816
1690119490.035,-9.277,-36.133,-29.785,-53.711,-47.852
1690119490.039,31.738,-23.438,-25.391,-59.570,-316.895
1690119490.043,-5.371,-15.137,-34.668,-41.504,-233.887
1690119490.047,-88.867,-24.902,-40.039,-0.977,158.203
1690119490.051,-108.398,-35.156,-25.879,4.883,151.367
1690119490.054,-11.230,-34.668,-24.414,-28.320,-153.320
1690119490.058,24.414,-40.039,-40.527,-51.270,-182.129
1690119490.062,-19.043,-36.133,-47.852,-51.270,26.855
1690119490.066,-96.191,-27.344,-41.504,-25.391,-54.199
1690119490.070,-119.141,-27.832,-32.227,-27.832,-60.547
1690119490.072,-14.648,-19.043,-23.926,-55.176,-37.109
1690119490.076,44.922,-31.250,-21.973,-60.547,-95.215
1690119490.080,20.996,-37.109,-19.043,-44.922,-189.941
1690119490.084,-70.312,-35.645,-26.855,-23.438,-198.242
1690119490.088,-105.957,-43.457,-38.086,-12.207,-41.992
1690119490.092,-15.625,-46.875,-38.086,-38.574,40.527
1690119490.096,37.109,-34.668,-32.715,-58.105,-12.695
1690119490.099,12.695,-33.203,-33.203,-44.434,-136.719
1690119490.103,-56.152,-33.203,-28.320,-10.742,68.359
1690119490.107,-101.562,-28.320,-10.254,23.438,193.848
1690119490.111,-40.527,-24.414,-13.184,-12.207,-99.609
1690119490.115,25.879,-18.066,-34.180,-54.199,-190.430
1690119490.118,19.531,-20.508,-37.598,-55.664,-95.215
1690119490.122,-50.293,-27.344,-26.367,-31.250,18.066
1690119490.126,-111.816,-41.016,-12.207,-9.766,67.871
1690119490.130,-49.316,-63.965,-12.207,-17.090,-20.508
1690119490.134,29.297,-56.152,-23.438,-26.855,146.973
1690119490.138,31.250,-6.836,-31.738,-42.480,127.441
1690119490.142,-41.504,6.348,-33.691,-41.504,-84.473
1690119490.145,-111.328,-11.719,-34.180,1.953,-6.348
1690119490.149,-32.227,-26.367,-36.621,15.625,236.816
1690119490.153,55.664,-35.645,-42.480,-39.551,-35.156
1690119490.157,20.508,-27.344,-39.062,-77.148,-301.758
1690119490.161,-64.453,-25.879,-25.391,-62.012,-192.871
1690119490.162,-144.531,-34.180,-31.738,-35.156,-96.680
1690119490.166,-102.539,-19.043,-42.969,-33.203,-104.492
1690119490.170,-1.953,1.465,-48.340,-72.754,-162.598
1690119490.174,24.414,13.672,-50.293,-94.727,-106.445
1690119490.178,-20.508,23.926,-60.547,-79.102,-44.434
1690119490.182,-107.422,20.508,-75.684,-66.406,36.621
1690119490.186,-102.539,18.555,-73.730,-70.801,70.801
1690119490.189,-1.953,12.695,-64.453,-89.844,171.387
1690119490.193,32.227,2.930,-69.824,-96.680,317.871
1690119490.197,-6.836,-2.441,-80.078,-85.938,-19.043
1690119490.201,-89.844,-1.953,-68.848,-52.734,-100.098
1690119490.205,-90.332,3.906,-60.547,-43.457,18.555
1690119490.207,19.043,7.812,-60.547,-69.824,-21.973
1690119490.211,49.316,8.789,-56.641,-75.684,1.465
1690119490.215,11.719,4.395,-59.570,-59.082,-34.180
1690119490.219,-51.758,-5.859,-55.664,-25.879,117.676
1690119490.223,-82.520,-9.766,-50.781,-18.555,51.270
1690119490.227,8.301,-11.230,-51.270,-38.574,-84.961
1690119490.231,61.523,-19.043,-43.945,-58.594,-62.988
1690119490.234,17.578,-33.691,-44.922,-48.828,284.668
1690119490.238,-55.176,-30.273,-46.875,-21.973,222.656
1690119490.242,-77.637,-14.648,-38.086,-8.301,-128.418
1690119490.246,7.324,0.000,-27.344,-19.531,-158.203
1690119490.250,52.734,-4.883,-29.785,-37.109,-184.570
1690119490.252,32.227,-12.207,-32.227,-24.414,-243.164
1690119490.256,-42.969,-10.742,-36.133,-1.953,-200.195
1690119490.260,-98.145,-19.531,-39.062,9.277,-68.848
1690119490.264,-22.949,-29.785,-32.227,-15.137,-15.137
1690119490.268,45.898,-18.555,-25.879,-48.828,-56.152
1690119490.272,20.996,-11.230,-29.297,-51.270,-63.965
1690119490.276,-61.523,-17.578,-31.250,-18.066,214.844
1690119490.279,-119.629,-24.414,-30.273,-2.930,362.793
1690119490.283,-32.715,-29.297,-34.668,-35.645,-5.859
1690119490.287,52.734,-20.508,-33.691,-53.711,-119.629
1690119490.291,33.203,-17.578,-28.809,-41.016,35.156
1690119490.295,-27.344,-33.691,-36.621,-28.320,-47.363
1690119490.297,-94.238,-36.621,-48.828,-14.648,-93.262
1690119490.301,-59.570,-25.879,-42.480,-25.391,72.754
1690119490.305,19.043,-29.785,-34.180,-43.457,208.984
1690119490.309,17.090,-30.273,-32.715,-35.645,34.180
1690119490.313,-25.391,-20.020,-31.738,-25.879,-123.047
1690119490.317,-90.332,-29.785,-29.785,-9.766,88.867
1690119490.321,-64.941,-34.668,-27.832,-19.043,310.547
1690119490.324,24.902,-24.902,-30.762,-51.270,38.086
1690119490.328,26.855,-37.109,-35.645,-54.688,-199.707
1690119490.332,-29.297,-38.086,-34.180,-31.738,-135.254
1690119490.336,-99.121,-18.555,-36.133,-15.137,-41.016
1690119490.340,-79.590,-25.879,-30.762,-14.648,-78.125
1690119490.345,10.742,-40.039,-19.531,-32.715,-181.152
1690119490.349,27.344,-24.902,-16.602,-51.270,-182.129
1690119490.353,-19.531,-31.250,-22.949,-49.316,-119.141
1690119490.357,-79.102,-31.738,-25.391,-19.043,-123.047
1690119490.361,-75.684,-15.625,-24.902,-7.324,-72.266
1690119490.365,1.465,-30.762,-29.297,-28.320,95.215
1690119490.369,17.578,-44.922,-26.367,-50.293,124.512
1690119490.372,-33.203,-39.551,-25.391,-75.684,-92.773
1690119490.376,-74.707,-31.738,-22.461,1.953,-68.848
1690119490.380,19.043,-31.738,-17.578,190.430,421.387
1690119490.384,106.445,-30.273,-32.715,166.504,411.133
1690119490.388,19.531,-45.898,-33.691,-27.832,-126.465
1690119490.403,-100.098,-51.758,-20.508,-147.461,-307.129
1690119490.407,-123.535,-39.551,-26.367,-45.898,-115.723
1690119490.411,-1.465,-41.504,-30.762,192.383,206.055
1690119490.415,52.246,-53.711,-24.414,113.281,220.215
1690119490.419,-45.410,-57.129,-17.090,-179.199,-105.469
1690119490.423,-116.211,-53.711,-7.324,-261.230,73.730
1690119490.427,-122.070,-58.105,-4.883,-127.930,103.516
1690119490.430,-18.066,-63.477,-0.977,109.863,0.000
1690119490.434,64.941,-64.941,-1.465,146.484,159.668
1690119490.438,-6.836,-73.242,-0.488,-29.785,116.211
1690119490.442,-112.793,-71.777,-0.488,-186.523,-268.555
1690119490.446,-136.719,-62.012,-7.324,-125.977,-331.543
1690119490.447,-132.324,-71.289,-4.883,-11.230,-116.699
1690119490.451,-63.477,-71.289,-6.836,-27.344,-97.656
1690119490.455,11.230,-61.035,-0.977,-33.691,-173.340
1690119490.459,-2.441,-64.453,-2.441,-23.438,-164.062
1690119490.463,-60.547,-70.312,-11.230,-16.602,1.953
1690119490.467,-112.793,-74.219,-16.113,-4.883,88.867
1690119490.471,-68.359,-68.359,-22.461,-15.625,24.902
1690119490.474,22.949,-65.430,-12.695,-35.156,-155.273
1690119490.478,37.598,-53.223,-10.254,-33.203,41.504
1690119490.482,-20.508,-29.785,-22.461,-31.738,205.078
1690119490.486,-96.680,-31.250,-22.461,-25.879,-48.828
1690119490.490,-55.176,-46.387,-23.926,-24.414,-109.863
1690119490.493,41.504,-44.434,-24.414,-34.180,-53.223
1690119490.497,43.945,-35.645,-17.090,-29.297,-63.965
1690119490.501,-22.461,-34.180,-23.926,-18.066,-149.414
1690119490.505,-114.746,-49.805,-33.203,-4.883,-90.332
1690119490.509,-108.887,-57.617,-28.320,-17.090,125.977
1690119490.513,-8.301,-45.898,-28.320,-39.062,47.852
1690119490.517,25.879,-32.715,-26.855,-57.617,-76.660
1690119490.520,-20.508,-30.273,-17.090,-48.828,-45.898
1690119490.524,-109.375,-45.410,-23.438,-22.949,263.184
1690119490.528,-114.746,-42.969,-36.621,-27.832,158.691
1690119490.532,-5.859,-25.879,-33.203,-50.781,-157.227
1690119490.536,32.227,-33.203,-34.668,-61.035,-192.383
1690119490.552,-14.160,-44.434,-34.180,-48.340,-173.828
1690119490.556,-101.562,-41.016,-33.203,-29.297,-112.793
1690119490.560,-103.027,-30.273,-32.227,-30.273,-52.734
1690119490.564,4.395,-24.414,-30.273,-43.945,-80.078
1690119490.568,49.805,-29.785,-29.297,-46.875,-140.625
1690119490.572,-4.395,-32.227,-36.133,-43.945,-38.574
1690119490.576,-91.797,-28.320,-37.598,-31.250,-31.738
1690119490.579,-115.234,-33.203,-33.203,-23.926,141.602
1690119490.583,-21.484,-38.574,-34.180,-36.621,223.633
1690119490.587,45.898,-39.062,-35.156,-44.922,-66.406
1690119490.591,21.973,-38.574,-32.227,-32.715,-123.047
1690119490.595,-63.965,-36.621,-28.809,-3.906,57.617
1690119490.582,-118.164,-29.785,-34.668,-4.883,26.855
1690119490.586,-28.809,-23.926,-43.945,-29.785,-70.801
1690119490.590,59.082,-18.066,-43.945,-32.715,-119.629
1690119490.594,20.996,-16.602,-30.273,-26.855,47.363
1690119490.598,-76.172,-13.672,-29.785,-19.043,-16.602
1690119490.602,-132.812,-20.508,-41.504,-29.297,-34.668
1690119490.606,-50.293,-35.156,-38.086,-43.945,139.160
1690119490.609,35.156,-39.551,-23.926,-47.852,22.461
1690119490.613,15.137,-34.668,-21.484,-51.270,-142.090
1690119490.617,-53.711,-40.039,-24.414,-20.996,-123.535
1690119490.621,-116.699,-46.875,-23.926,8.789,54.688
1690119490.625,-51.270,-44.434,-27.832,3.418,351.562
1690119490.627,52.734,-30.762,-34.668,-30.762,84.961
1690119490.631,47.363,-19.043,-38.574,-48.340,-204.590
1690119490.635,-42.480,-30.273,-29.785,-30.762,-90.332
1690119490.639,-121.582,-29.785,-29.785,-11.230,-28.809
1690119490.643,-74.707,-32.227,-39.551,-29.785,-132.324
1690119490.647,20.508,-38.574,-30.762,-55.176,-102.539
1690119490.651,32.227,-38.574,-21.973,-44.434,104.980
1690119490.654,-32.715,-33.691,-27.832,-19.531,120.117
1690119490.658,-116.699,-34.668,-33.203,0.977,-121.094
1690119490.662,-72.754,-26.855,-34.668,-7.812,-151.855
1690119490.666,35.156,-17.578,-24.902,-41.016,-149.902
1690119490.670,42.969,-29.297,-23.438,-59.570,-253.418
1690119490.674,-29.297,-37.109,-36.133,-46.387,-245.605
1690119490.678,-125.488,-31.738,-39.551,-13.184,-92.285
1690119490.682,-106.445,-32.715,-29.297,-4.883,246.094
1690119490.686,19.043,-26.367,-23.438,-40.039,113.281
1690119490.690,58.594,-23.926,-27.344,-66.895,-252.441
1690119490.694,-3.906,-40.039,-39.062,-48.828,-119.629
1690119490.698,-104.492,-37.109,-41.016,-15.625,290.527
1690119490.701,-100.098,-16.602,-27.832,-21.484,146.484
1690119490.705,5.371,-20.020,-25.391,-44.434,-185.547
1690119490.709,37.598,-30.273,-24.902,-48.340,-179.199
1690119490.713,-5.859,-27.344,-29.297,-41.504,-132.812
1690119490.717,-99.609,-36.621,-33.691,-18.066,-82.520
1690119490.719,-116.211,-31.250,-35.156,-14.160,-56.641
1690119490.723,-0.488,-21.484,-39.551,-47.363,-69.824
1690119490.727,58.594,-20.020,-39.062,-63.965,-100.098
1690119490.731,20.996,-16.113,-30.273,-38.574,-185.547
1690119490.735,-66.406,-9.766,-29.297,-10.254,-82.031
1690119490.739,-112.793,-16.602,-25.391,-2.441,266.602
1690119490.743,-25.391,-31.250,-23.926,-24.414,268.555
1690119490.746,49.805,-32.715,-25.391,-51.270,-17.090
1690119490.750,22.461,-41.016,-24.902,-50.781,-153.809
1690119490.754,-73.730,-56.152,-29.297,-19.531,98.633
1690119490.758,-130.859,-39.062,-36.133,-10.254,149.414
1690119490.762,-47.363,-23.926,-28.809,-47.363,-168.457
1690119490.777,48.340,-14.160,-23.926,-62.012,-211.914
1690119490.781,34.180,-8.301,-29.785,-45.410,-15.625
1690119490.785,-58.594,-17.090,-33.203,-22.461,-24.902
1690119490.789,-129.883,-22.949,-32.227,-4.883,-142.090
1690119490.793,-72.266,-27.832,-39.062,-17.578,-80.566
1690119490.797,31.738,-20.020,-45.898,-49.316,228.516
1690119490.801,37.598,-24.414,-35.645,-52.246,126.953
1690119490.804,-45.410,-44.434,-30.273,-17.578,-100.586
1690119490.808,-121.582,-36.133,-29.785,12.207,-5.371
1690119490.812,-74.707,-23.438,-35.156,-12.207,325.684
1690119490.816,24.414,-23.926,-36.133,-50.781,67.871
1690119490.820,49.316,-26.855,-30.762,-54.199,-259.277
1690119490.822,-20.996,-32.715,-31.738,-32.227,-150.391
1690119490.826,-111.816,-31.738,-31.250,-8.301,-76.172
1690119490.830,-75.684,-27.832,-30.762,-12.695,-131.836
1690119490.834,38.086,-22.461,-38.086,-45.898,-170.410
1690119490.838,63.965,-26.367,-39.551,-51.758,-115.234
1690119490.842,-17.090,-31.250,-22.461,-32.227,-12.695
1690119490.846,-126.465,-34.180,-20.996,-13.184,51.270
1690119490.849,-102.539,-31.250,-27.832,-20.020,-90.820
1690119490.853,18.555,-27.344,-24.414,-41.504,8.789
1690119490.857,54.688,-20.996,-35.156,-55.664,107.910
1690119490.861,-9.277,-19.531,-41.016,-52.734,-186.035
1690119490.865,-111.816,-20.020,-33.203,-12.695,-214.355
1690119490.867,-92.773,-15.625,-26.855,-6.348,77.148
1690119490.871,20.020,-21.484,-28.320,-39.551,-8.789
1690119490.875,55.664,-39.062,-30.762,-50.293,-274.414
1690119490.879,15.625,-42.480,-29.785,-26.367,-173.340
1690119490.883,-85.938,-20.020,-36.621,8.301,113.281
1690119490.887,-116.211,-22.461,-34.668,6.348,66.406
1690119490.891,-0.977,-30.273,-26.367,-33.203,-29.785
1690119490.894,69.824,-20.996,-29.297,-66.895,-72.266
1690119490.898,20.508,-22.949,-34.180,-46.387,126.465
1690119490.902,-68.359,-17.090,-34.180,-9.277,33.203
1690119490.906,-84.473,-14.160,-27.832,0.977,-111.816
1690119490.910,-2.930,-20.996,-20.996,-23.926,-45.898
1690119490.912,58.594,-20.996,-16.602,-41.992,-45.410
1690119490.916,36.621,-16.602,-22.461,-39.551,-171.875
1690119490.920,-76.172,-22.461,-25.391,-12.207,-203.613
1690119490.924,-134.277,-35.156,-20.996,14.648,39.551
1690119490.928,-37.109,-39.062,-35.645,-19.531,89.844
1690119490.932,59.570,-22.949,-38.086,-50.293,-19.531
1690119490.936,38.086,-16.602,-28.320,-49.316,-86.426
1690119490.939,-64.941,-28.809,-30.273,-27.832,103.027
1690119490.943,-123.535,-23.438,-31.738,13.184,230.957
1690119490.947,-38.574,-14.648,-22.949,0.000,-59.570
1690119490.951,44.922,-20.996,-23.438,-55.176,-130.371
1690119490.955,-0.977,-30.762,-40.527,-98.633,-119.629
1690119490.958,-94.238,-44.434,-48.340,-67.383,-165.527
1690119490.962,-87.891,-42.480,-39.062,53.711,5.371
1690119490.966,26.855,-37.598,-37.598,102.539,241.699
1690119490.970,51.758,-28.320,-45.898,-22.461,306.152
1690119490.974,-10.254,-19.531,-28.809,-121.582,-23.438
1690119490.978,-77.637,-35.645,-21.973,-89.355,-192.383
1690119490.982,-66.895,-33.691,-36.621,57.129,133.301
1690119490.985,41.992,-18.066,-29.297,157.227,486.328
1690119490.989,49.316,-24.902,-25.391,6.348,104.980
1690119490.993,-47.852,-30.273,-28.809,-168.457,-400.879
1690119490.997,-102.051,-31.250,-40.039,-146.484,-349.121
1690119491.001,-74.219,-46.875,-41.992,35.156,-82.031
1690119491.002,36.621,-35.645,-29.785,161.133,120.605
1690119491.006,53.223,-17.090,-34.668,-0.977,0.488
1690119491.010,-66.895,-16.602,-32.227,-214.355,-241.699
1690119491.014,-135.742,-20.996,-28.320,-191.895,-351.074
1690119491.018,-95.703,-30.273,-32.715,26.367,-100.098
1690119491.022,46.387,-29.297,-18.066,202.637,276.367
1690119491.026,62.988,-38.086,-18.066,52.734,412.598
1690119491.029,-77.637,-51.758,-34.180,-196.777,254.883
1690119491.033,-151.855,-41.992,-37.109,-234.863,-285.645
1690119491.037,-102.051,-26.367,-40.527,-23.926,-250.488
1690119491.041,37.109,-15.137,-40.039,205.078,223.145
1690119491.045,60.059,-14.160,-34.180,61.523,96.191
1690119491.047,-93.750,-23.438,-31.738,-229.004,-390.625
1690119491.051,-160.645,-33.691,-23.438,-258.301,-454.102
1690119491.055,-42.480,-36.621,-17.578,29.785,29.785
1690119491.059,150.879,-29.297,-24.902,322.754,411.621
1690119491.063,102.051,-22.949,-30.273,121.582,218.262
1690119491.067,-114.746,-18.555,-33.691,-257.812,-152.832
1690119491.071,-196.289,-21.484,-40.039,-317.383,-57.129
1690119491.074,-75.195,-19.043,-32.715,-29.785,15.137
1690119491.078,137.695,-26.855,-17.090,314.941,216.797
1690119491.082,99.609,-37.109,-26.855,155.762,315.918
1690119491.086,-126.465,-27.832,-41.016,-255.859,-67.383
1690119491.090,-201.660,-27.344,-38.086,-335.449,-531.250
1690119491.107,-81.055,-33.203,-32.227,-61.523,-386.230
1690119491.111,124.023,-24.414,-24.414,298.340,219.727
1690119491.115,122.559,-15.625,-18.555,211.914,317.871
1690119491.119,-92.285,-15.625,-29.297,-208.984,-251.953
1690119491.123,-184.082,-20.508,-50.293,-361.816,-543.457
1690119491.127,-93.262,-22.949,-44.434,-110.840,-139.648
1690119491.131,83.984,-32.227,-34.180,270.508,386.719
1690119491.134,130.859,-37.598,-30.762,238.770,497.070
1690119491.138,-68.359,-40.527,-24.902,-166.504,-104.492
1690119491.142,-208.008,-44.922,-22.949,-363.281,-382.324
1690119491.146,-123.047,-36.621,-23.926,-170.410,-142.090
1690119491.150,87.891,-18.066,-22.949,232.910,85.938
1690119491.152,144.531,-17.090,-20.996,281.250,354.492
1690119491.156,-39.062,-21.973,-26.855,-104.492,379.883
1690119491.160,-176.270,-19.043,-44.434,-337.402,-219.238
1690119491.164,-135.254,-18.066,-40.527,-192.383,-573.730
1690119491.168,55.176,-26.367,-23.438,204.590,-74.707
1690119491.172,144.531,-37.598,-20.996,317.871,472.656
1690119491.176,-17.578,-37.598,-32.227,-66.406,186.523
1690119491.179,-185.059,-36.621,-38.574,-352.539,-515.625
1690119491.183,-171.387,-29.785,-33.203,-254.395,-523.926
1690119491.187,28.809,-21.973,-25.879,154.785,267.578
1690119491.191,165.039,-23.926,-31.738,340.332,517.578
1690119491.195,0.488,-23.438,-38.086,-32.227,19.531
1690119491.197,-202.637,-31.250,-47.363,-374.023,-387.695
1690119491.201,-201.172,-35.645,-55.176,-306.641,-485.352
1690119491.205,-4.395,-34.180,-45.898,82.520,-208.496
1690119491.209,177.246,-24.414,-29.785,335.938,285.156
1690119491.213,52.734,-27.344,-14.648,28.320,235.840
1690119491.217,-184.570,-33.203,-24.902,-355.957,-291.992
1690119491.221,-197.266,-19.043,-30.762,-327.637,-459.961
1690119491.224,-24.902,-14.160,-25.391,59.082,-124.512
1690119491.228,157.715,-21.484,-37.109,365.234,515.625
1690119491.232,55.664,-25.391,-41.016,86.426,432.129
1690119491.236,-186.523,-26.367,-37.109,-340.820,-422.363
1690119491.240,-206.543,-31.738,-36.621,-344.727,-710.449
1690119491.243,-43.457,-28.320,-19.531,4.883,-222.168
1690119491.247,148.438,-21.973,-2.930,341.309,419.922
1690119491.251,93.262,-19.043,-0.977,151.855,334.961
1690119491.255,-146.973,-16.113,-12.207,-275.879,-158.691
1690119491.259,-231.934,-29.785,-26.367,-359.863,-231.445
1690119491.263,-97.656,-34.668,-25.879,-69.824,-2.930
1690119491.267,112.793,-27.344,-27.344,282.715,354.492
1690119491.270,76.172,-23.926,-16.602,143.555,386.230
1690119491.274,-156.250,-20.020,-6.836,-284.668,123.535
1690119491.278,-263.184,-17.578,-14.648,-430.176,-377.930
1690119491.282,-178.223,-24.902,-16.113,-189.941,-408.691
1690119491.286,31.250,-10.254,-18.555,202.637,157.715
1690119491.287,40.039,0.488,-14.160,161.621,320.801
1690119491.291,-182.129,-8.301,-11.719,-277.344,-162.109
1690119491.295,-289.551,-1.953,-16.602,-479.492,-591.797
1690119491.299,-201.172,-2.441,-19.043,-267.578,-434.570
1690119491.303,-3.418,-13.184,-11.719,133.301,136.230
1690119491.307,76.172,4.883,-38.086,178.223,427.246
1690119491.311,-101.074,13.672,-68.359,-225.098,99.609
1690119491.314,-250.977,-14.160,-22.461,-448.242,-226.562
1690119491.318,-202.148,-26.367,0.977,-267.578,-346.191
1690119491.322,-11.230,-17.578,-7.812,141.113,-20.020
1690119491.326,87.891,-23.926,-11.230,255.859,326.660
1690119491.330,-71.777,-42.969,-40.527,-118.164,284.668
1690119491.332,-198.730,-33.203,-44.922,-375.977,-77.637
1690119491.336,-156.250,-14.160,-23.438,-237.793,-351.562
1690119491.340,18.555,-23.926,-14.160,161.133,21.484
1690119491.344,147.461,-41.016,-21.973,329.590,569.824
1690119491.348,-0.977,-36.621,-51.758,-32.227,226.074
1690119491.352,-178.223,-34.180,-59.082,-351.074,-384.277
1690119491.356,-134.277,-66.895,-40.527,-245.117,-408.203
