timestamps,TP9,AF7,AF8,TP10,Right AUX
1692122696.318,19.531,-3.906,-26.855,25.879,-52.734
1692122696.322,15.625,-1.465,-27.832,19.043,-61.035
1692122696.326,20.508,5.371,-27.832,21.484,-102.539
1692122696.330,29.297,-2.441,-29.785,35.156,-111.328
1692122696.334,31.250,2.441,-30.273,39.062,-60.547
1692122696.338,26.367,12.207,-29.297,40.039,36.621
1692122696.342,21.484,2.930,-29.785,22.461,26.855
1692122696.345,20.996,-0.977,-32.227,6.348,-135.254
1692122696.349,28.809,12.207,-28.320,24.902,-109.375
1692122696.353,35.645,16.113,-28.809,37.598,134.277
1692122696.357,23.926,0.977,-32.227,23.438,46.387
1692122696.361,15.625,-4.883,-29.785,10.742,-175.293
1692122696.364,16.113,0.488,-25.391,23.926,-75.684
1692122696.368,19.531,0.000,-29.297,47.852,16.602
1692122696.372,26.367,0.000,-25.391,50.781,27.832
1692122696.376,35.645,4.395,-15.137,49.805,-24.414
1692122696.380,33.691,7.324,-20.996,36.621,57.129
1692122696.384,14.160,5.371,-24.902,25.879,157.715
1692122696.388,19.531,4.395,-26.367,43.457,38.086
1692122696.391,28.809,0.488,-28.320,50.293,-13.184
1692122696.395,24.414,1.465,-23.438,38.086,123.535
1692122696.399,19.043,4.883,-20.508,23.926,372.070
1692122696.403,4.883,0.000,-28.320,11.230,83.496
1692122696.407,1.465,-6.836,-28.809,18.066,-167.969
1692122696.407,15.625,-2.441,-22.461,41.992,-84.961
1692122696.411,10.742,1.465,-25.391,36.133,-62.500
1692122696.415,5.371,0.977,-23.438,12.207,-146.484
1692122696.419,10.742,1.465,-19.043,13.184,-166.992
1692122696.423,3.906,-3.906,-20.020,23.926,-60.059
1692122696.427,7.324,-4.395,-23.926,29.785,62.988
1692122696.431,25.879,2.930,-24.414,29.297,64.453
1692122696.434,30.762,0.488,-23.926,22.949,-75.195
1692122696.438,13.184,-4.883,-27.344,18.555,174.805
1692122696.442,15.625,-4.395,-32.227,19.043,240.234
1692122696.446,29.785,-1.465,-30.273,31.738,-47.852
1692122696.450,23.926,5.859,-23.926,40.039,5.859
1692122696.453,15.137,5.371,-27.344,25.879,-2.930
1692122696.457,15.625,0.000,-35.156,20.020,-107.910
1692122696.461,28.320,2.930,-34.180,37.598,-107.910
1692122696.465,43.457,2.930,-31.738,54.199,11.719
1692122696.469,48.828,-4.883,-34.180,54.688,-2.930
1692122696.473,43.457,-4.883,-32.227,42.969,-2.441
1692122696.477,30.273,-0.977,-28.809,30.762,17.578
1692122696.480,24.902,-3.906,-30.762,33.691,99.121
1692122696.484,29.297,-11.230,-32.715,49.316,479.980
1692122696.488,27.344,-7.812,-34.180,46.387,288.574
1692122696.492,24.902,1.465,-32.715,18.555,-186.035
1692122696.496,18.555,0.977,-27.344,10.254,-120.117
1692122696.497,14.648,2.930,-30.762,12.207,-70.312
1692122696.501,16.113,3.418,-35.156,12.207,-237.305
1692122696.505,30.762,4.395,-29.297,20.020,-218.262
1692122696.509,24.414,3.906,-23.438,17.578,-126.465
1692122696.513,-6.348,-3.906,-22.949,1.465,-130.371
1692122696.517,-10.742,-5.371,-17.090,2.930,-79.590
1692122696.521,-1.465,1.465,-14.160,16.113,-18.555
1692122696.524,3.418,6.836,-23.438,13.672,225.586
1692122696.528,1.465,5.371,-26.855,6.836,179.199
1692122696.532,-1.465,2.930,-22.461,3.906,-41.504
1692122696.536,7.324,0.977,-23.926,5.371,95.215
1692122696.540,14.160,2.930,-25.391,17.578,171.875
1692122696.542,20.020,6.836,-25.879,24.902,34.668
1692122696.546,25.879,5.371,-28.320,19.043,-80.078
1692122696.550,24.414,8.301,-28.809,3.906,-58.105
1692122696.554,20.508,8.789,-32.227,-3.906,-32.227
1692122696.558,27.344,2.930,-37.109,10.254,-68.359
1692122696.562,30.273,-1.953,-37.109,22.949,-16.602
1692122696.566,25.879,-9.766,-33.691,18.555,198.730
1692122696.569,38.574,-17.578,-34.180,13.184,380.859
1692122696.573,33.203,-11.719,-33.691,12.695,106.934
1692122696.577,20.508,-6.348,-30.762,27.832,-140.137
1692122696.581,30.762,-6.836,-33.203,39.062,-41.504
1692122696.585,41.016,-4.395,-25.879,40.039,-15.137
1692122696.589,32.227,-3.906,-19.531,20.508,-109.863
1692122696.593,24.902,-3.418,-22.949,6.348,-234.863
1692122696.597,30.273,-3.906,-22.949,24.902,-4.395
1692122696.601,31.250,-3.418,-26.367,33.691,109.863
1692122696.605,21.973,-5.859,-27.832,21.973,-136.230
1692122696.609,22.461,-4.395,-20.508,18.555,-89.355
1692122696.613,16.602,0.488,-20.508,22.461,223.145
1692122696.616,4.883,-4.883,-24.414,30.273,148.926
1692122696.620,13.184,-1.465,-26.367,39.551,-136.230
1692122696.624,26.367,0.000,-29.785,41.992,-40.039
1692122696.628,22.461,-1.953,-29.297,33.203,5.371
1692122696.632,12.695,1.953,-31.250,11.719,-124.023
1692122696.648,12.207,3.418,-34.180,5.371,-118.164
1692122696.652,14.648,0.977,-35.645,24.902,-7.324
1692122696.656,19.043,-0.977,-37.109,32.227,7.324
1692122696.660,21.973,-2.441,-40.527,6.836,-71.777
1692122696.664,16.602,-4.395,-40.039,-7.812,-155.762
1692122696.668,8.789,-0.488,-39.551,6.348,76.172
1692122696.672,21.973,4.883,-35.645,36.621,312.012
1692122696.675,40.527,9.766,-33.203,42.969,115.723
1692122696.679,35.645,10.254,-36.133,26.367,0.977
1692122696.683,22.949,11.719,-31.738,22.949,76.660
1692122696.687,23.926,7.324,-26.367,23.438,28.809
1692122696.691,33.203,-0.488,-24.902,36.133,-87.402
1692122696.692,44.434,-5.371,-20.020,48.828,-63.477
1692122696.696,40.039,-10.254,-20.020,35.156,79.102
1692122696.700,24.902,-11.719,-24.414,14.648,49.316
1692122696.704,19.531,-9.277,-22.949,18.555,-94.238
1692122696.708,30.762,-0.977,-21.484,41.016,-38.574
1692122696.712,39.551,7.812,-21.973,49.805,53.711
1692122696.716,34.180,0.977,-25.391,34.180,68.848
1692122696.719,25.879,-4.395,-28.809,17.090,11.719
1692122696.723,20.996,1.465,-26.367,17.578,-59.082
1692122696.727,27.832,-2.930,-28.809,30.273,57.617
1692122696.731,29.297,-0.488,-29.297,30.762,70.801
1692122696.735,20.508,8.789,-24.902,26.855,-124.512
1692122696.737,12.695,6.348,-21.484,14.648,-40.527
1692122696.741,1.465,5.859,-25.879,4.395,121.094
1692122696.745,7.812,4.395,-35.156,19.531,-53.223
1692122696.749,15.625,1.465,-31.250,34.180,-127.441
1692122696.753,16.113,7.812,-28.809,31.738,-39.062
1692122696.757,13.672,4.395,-33.691,18.555,86.914
1692122696.761,8.301,0.000,-33.691,12.695,95.215
1692122696.764,12.207,1.465,-31.738,24.414,25.879
1692122696.768,26.367,0.488,-32.715,35.645,166.504
1692122696.772,41.016,1.465,-33.691,39.551,522.461
1692122696.776,35.645,5.859,-29.297,27.832,287.109
1692122696.780,17.090,6.348,-28.809,14.648,-145.020
1692122696.782,10.254,3.418,-33.203,21.484,-125.488
1692122696.786,16.602,-2.441,-28.320,37.109,-94.727
1692122696.790,19.531,-2.930,-25.391,41.504,-162.109
1692122696.794,14.160,-1.953,-26.855,23.926,-187.988
1692122696.798,11.719,-3.418,-27.832,8.301,-151.367
1692122696.802,4.395,-3.418,-28.320,9.277,-87.891
1692122696.806,11.719,-1.465,-25.879,25.391,12.695
1692122696.809,27.832,-0.488,-24.902,26.855,-37.109
1692122696.813,22.949,-3.418,-26.855,15.625,108.398
1692122696.817,10.742,-0.977,-27.344,13.184,125.488
1692122696.821,14.160,0.977,-23.926,24.414,-120.605
1692122696.825,28.320,1.465,-23.438,46.387,-31.738
1692122696.827,30.273,2.930,-26.367,52.246,83.008
1692122696.831,29.297,2.930,-24.414,34.668,-84.473
1692122696.835,20.020,0.977,-22.949,20.508,-140.137
1692122696.839,16.602,2.930,-23.438,24.414,-9.766
1692122696.843,20.508,2.441,-23.438,28.320,60.547
1692122696.847,37.109,5.371,-22.461,34.668,23.926
1692122696.851,44.922,14.160,-22.949,35.645,55.664
1692122696.854,23.438,10.254,-24.414,21.973,163.574
1692122696.858,7.812,-1.953,-28.320,14.160,345.703
1692122696.862,0.488,-1.465,-31.250,13.672,114.258
1692122696.866,17.578,3.418,-26.855,26.855,-112.305
1692122696.870,26.367,5.859,-24.902,24.414,-68.848
1692122696.873,10.254,3.418,-28.320,11.719,-83.984
1692122696.877,10.742,-1.465,-30.762,14.160,-103.027
1692122696.881,27.344,2.930,-27.832,25.879,-97.656
1692122696.885,27.344,4.883,-25.391,41.016,55.664
1692122696.889,19.531,-3.906,-30.762,35.156,10.254
1692122696.893,29.785,0.000,-40.527,25.879,-91.309
1692122696.897,35.156,7.324,-40.039,37.598,-37.109
1692122696.900,30.762,-12.695,-15.137,46.875,215.332
1692122696.904,14.160,-20.020,-6.348,42.480,127.930
1692122696.908,8.789,-17.090,-19.531,27.832,-135.254
1692122696.912,10.742,-13.184,-14.648,17.090,-73.242
1692122696.916,0.977,-5.371,-10.254,7.812,-73.242
1692122696.918,-4.883,-8.301,-14.648,4.883,-113.770
1692122696.922,9.277,-5.859,-17.578,19.043,-115.234
1692122696.926,28.320,-6.348,-19.531,22.461,15.625
1692122696.930,21.973,-4.395,-21.484,12.695,28.320
1692122696.934,13.184,-0.977,-25.391,7.324,-99.121
1692122696.938,21.973,-0.977,-24.414,9.277,-92.773
1692122696.942,24.414,3.418,-22.949,27.832,101.074
1692122696.945,25.391,6.836,-23.926,45.410,376.953
1692122696.949,17.578,6.348,-20.508,22.949,166.016
1692122696.953,5.859,5.371,-17.578,-0.977,-155.273
1692122696.957,9.766,6.348,-20.020,13.672,-43.945
1692122696.961,20.020,5.859,-24.414,29.297,-17.090
1692122696.962,27.832,1.953,-27.344,28.809,-109.375
1692122696.966,28.320,4.883,-23.926,20.508,-79.590
1692122696.970,26.367,3.418,-22.461,7.812,-62.988
1692122696.974,28.809,4.395,-26.367,8.301,-69.336
1692122696.978,35.156,8.301,-24.902,22.949,-59.082
1692122696.982,24.414,9.766,-23.438,28.320,39.551
1692122696.986,13.672,6.348,-22.461,19.043,220.703
1692122696.989,7.324,4.883,-23.438,9.766,98.633
1692122696.993,5.371,6.348,-22.461,12.695,-147.461
1692122696.997,15.625,0.977,-24.902,32.715,-60.059
1692122697.001,30.762,-5.371,-25.879,44.922,180.176
1692122697.005,28.320,1.465,-23.438,29.785,40.527
1692122697.023,18.066,8.301,-23.926,15.137,-157.227
1692122697.027,26.367,4.395,-28.809,17.090,-31.250
1692122697.031,27.344,4.883,-33.203,34.180,16.602
1692122697.035,31.738,11.719,-27.832,44.922,-57.617
1692122697.039,29.785,10.254,-27.344,33.691,-104.004
1692122697.043,17.090,4.883,-34.668,24.902,77.637
1692122697.047,24.902,1.953,-34.668,25.879,185.059
1692122697.050,29.785,6.348,-26.855,28.809,38.086
1692122697.054,33.691,1.465,-27.832,35.156,-41.016
1692122697.058,33.691,-8.789,-32.227,30.762,91.309
1692122697.062,22.949,-7.324,-32.227,14.648,375.000
1692122697.066,14.160,0.488,-30.273,8.301,126.465
1692122697.067,23.438,5.371,-29.785,20.996,-144.043
1692122697.071,30.762,-0.977,-32.227,22.949,-21.973
1692122697.075,14.648,-5.859,-34.180,23.926,-4.395
1692122697.079,12.207,-0.488,-31.738,17.090,-84.961
1692122697.083,15.625,0.000,-30.762,5.859,-50.293
1692122697.087,15.625,-0.977,-30.273,14.160,72.754
1692122697.091,22.949,3.906,-22.949,32.715,117.188
1692122697.094,23.926,2.441,-21.484,34.180,24.414
1692122697.098,18.555,2.441,-25.879,13.672,-28.320
1692122697.102,18.066,7.812,-28.320,14.648,59.570
1692122697.106,16.113,4.883,-25.879,33.203,-3.906
1692122697.110,22.461,4.395,-16.113,43.457,-122.070
1692122697.112,36.133,10.742,-15.625,47.363,-83.008
1692122697.116,37.109,11.719,-19.043,42.480,138.184
1692122697.120,21.973,5.371,-22.461,21.484,17.090
1692122697.124,16.113,4.395,-22.461,17.090,-200.195
1692122697.128,27.832,8.301,-20.996,34.668,-32.715
1692122697.132,40.039,10.254,-18.066,46.387,82.520
1692122697.136,37.109,14.648,-13.672,36.621,4.883
1692122697.139,22.949,9.766,-15.625,15.625,-118.164
1692122697.143,17.090,6.836,-17.090,23.438,-31.738
1692122697.147,22.461,6.348,-23.926,42.969,321.777
1692122697.151,23.438,0.488,-33.203,33.691,131.836
1692122697.155,22.949,5.371,-33.203,10.254,-140.137
1692122697.157,22.461,8.789,-27.344,-0.488,-73.242
1692122697.161,13.184,-4.395,-30.762,3.906,-80.566
1692122697.165,13.184,-7.324,-40.039,12.207,-119.141
1692122697.169,19.043,-0.488,-43.457,19.531,-107.910
1692122697.173,18.066,4.395,-39.551,18.066,6.348
1692122697.177,8.301,7.324,-38.086,8.301,20.508
1692122697.181,-6.836,0.977,-40.039,1.465,1.465
1692122697.184,0.977,1.465,-36.621,15.625,32.715
1692122697.188,16.113,3.418,-31.738,27.832,232.910
1692122697.192,12.207,1.953,-30.273,13.672,174.316
1692122697.196,6.836,5.859,-26.855,1.953,-161.133
1692122697.200,14.648,3.906,-26.367,7.324,-130.859
1692122697.202,34.180,3.418,-27.832,20.996,-127.441
1692122697.206,39.551,8.301,-25.879,37.109,-166.992
1692122697.210,41.016,7.324,-21.973,33.691,-164.551
1692122697.214,40.527,2.930,-25.391,16.113,3.906
1692122697.218,28.320,5.859,-28.320,15.137,73.242
1692122697.222,26.367,6.348,-24.414,28.809,-53.223
1692122697.226,37.109,7.324,-28.809,35.645,-63.965
1692122697.229,47.852,10.742,-33.203,37.598,154.785
1692122697.233,41.016,9.766,-28.809,27.344,421.387
1692122697.237,31.738,10.742,-26.855,16.113,101.074
1692122697.241,32.715,12.695,-25.879,33.691,-97.168
1692122697.245,39.062,11.230,-26.855,45.410,-10.742
1692122697.247,40.527,8.789,-27.344,32.715,-46.875
1692122697.251,33.691,12.207,-25.391,18.555,-100.098
1692122697.255,30.273,13.672,-22.461,13.184,-110.840
1692122697.259,23.438,6.836,-28.320,22.461,-49.316
1692122697.263,21.484,4.395,-32.715,44.434,5.371
1692122697.267,37.598,9.277,-30.273,43.945,48.828
1692122697.271,30.762,7.812,-27.344,23.926,8.789
1692122697.274,9.766,0.488,-26.855,18.555,252.930
1692122697.278,2.441,-3.418,-29.297,25.879,303.711
1692122697.282,18.066,3.418,-25.879,36.621,-84.473
1692122697.286,30.273,10.254,-20.508,42.969,-34.668
1692122697.290,25.391,10.254,-24.902,25.391,-2.441
1692122697.293,13.672,5.859,-29.785,6.836,-135.742
1692122697.297,6.836,-1.953,-27.344,15.137,-180.664
1692122697.301,17.578,0.000,-25.391,31.250,-138.184
1692122697.305,28.809,7.324,-20.996,36.621,-42.480
1692122697.309,18.555,8.301,-20.508,30.762,-88.867
1692122697.313,7.812,6.836,-24.414,26.367,-105.469
1692122697.317,12.695,6.836,-26.855,29.785,210.449
1692122697.320,11.230,4.883,-32.227,33.203,454.590
1692122697.324,6.836,5.859,-34.180,25.879,176.270
1692122697.328,9.766,8.789,-30.762,16.602,-80.078
1692122697.332,9.277,9.766,-29.785,15.625,19.531
1692122697.336,0.488,8.301,-29.785,15.137,38.574
1692122697.337,11.230,9.277,-23.438,19.043,-176.758
1692122697.341,30.762,2.441,-24.902,29.297,-124.023
1692122697.345,20.508,-7.812,-30.273,18.066,-38.086
1692122697.349,10.742,-9.766,-31.250,4.395,-37.109
1692122697.353,12.695,-14.648,-32.715,3.906,-98.145
1692122697.357,12.695,-14.160,-31.250,14.160,-1.953
1692122697.361,19.043,-8.789,-31.250,30.273,290.039
1692122697.364,27.344,-9.766,-32.715,29.297,153.320
1692122697.368,26.367,-7.324,-29.785,9.766,-157.227
1692122697.372,16.113,-5.371,-25.879,5.859,-115.234
1692122697.376,14.160,-1.953,-28.320,29.785,38.086
1692122697.380,27.832,0.977,-28.320,42.480,4.395
1692122697.383,27.344,-5.371,-26.855,38.086,-105.957
1692122697.387,12.695,0.977,-28.809,37.598,10.254
1692122697.391,5.859,-0.977,-31.738,28.809,122.559
1692122697.395,12.695,-10.742,-28.320,27.832,-2.930
1692122697.399,23.438,-5.371,-27.344,37.598,-62.012
1692122697.403,16.113,-1.465,-30.762,40.527,206.543
1692122697.407,13.184,0.977,-29.297,29.297,293.945
1692122697.410,2.930,9.766,-26.855,15.137,23.926
1692122697.414,8.789,11.719,-26.367,18.555,-77.148
1692122697.418,23.926,7.324,-23.926,36.621,102.051
1692122697.422,27.832,5.859,-26.367,45.410,270.996
1692122697.426,20.996,4.883,-28.320,24.902,-26.855
1692122697.444,13.672,4.883,-21.973,12.207,-123.047
1692122697.448,17.090,2.930,-25.391,26.855,-22.461
1692122697.452,23.438,0.000,-32.715,37.598,-98.145
1692122697.456,35.156,6.836,-29.785,35.645,-164.062
1692122697.460,31.738,10.742,-29.297,20.508,-86.914
1692122697.464,24.902,7.812,-33.203,8.789,48.340
1692122697.468,25.879,4.883,-34.668,18.555,86.426
1692122697.471,34.668,-0.488,-33.203,33.691,-53.223
1692122697.475,37.598,1.465,-27.344,36.621,-136.719
1692122697.479,19.531,1.953,-26.367,25.391,66.895
1692122697.483,15.625,-0.977,-27.344,19.043,40.527
1692122697.487,20.996,-0.488,-28.320,16.602,-149.414
1692122697.487,23.926,-1.953,-32.227,17.578,-103.027
1692122697.491,27.832,-3.418,-30.273,33.203,-63.965
1692122697.495,24.902,1.465,-25.391,30.762,-138.672
1692122697.499,23.926,3.418,-23.438,30.762,-125.977
1692122697.503,31.738,0.488,-25.391,40.039,16.602
1692122697.507,40.039,0.000,-21.484,54.688,73.242
1692122697.511,41.504,-5.371,-19.043,62.988,52.734
1692122697.514,30.762,-9.277,-22.949,49.316,50.781
1692122697.518,14.648,-3.418,-23.438,36.133,138.672
1692122697.522,21.973,-8.301,-24.902,35.645,373.535
1692122697.526,33.203,-15.137,-31.738,41.016,216.797
1692122697.530,28.320,-11.719,-34.180,39.551,-105.469
1692122697.532,20.020,-6.348,-31.738,31.250,-95.215
1692122697.536,15.137,-2.930,-30.762,21.973,-135.742
1692122697.540,8.301,-2.930,-27.344,17.578,-144.043
1692122697.544,8.301,-0.977,-29.785,24.902,-118.652
1692122697.548,20.020,-7.324,-37.109,31.738,-66.406
1692122697.552,28.320,-10.742,-35.645,26.367,-11.719
1692122697.556,18.066,-0.488,-32.227,9.766,-84.961
1692122697.559,10.254,4.883,-36.621,1.953,-89.844
1692122697.563,13.184,3.906,-33.691,30.762,272.461
1692122697.567,26.855,4.883,-28.809,43.945,374.512
1692122697.571,29.785,10.254,-32.227,21.973,-11.719
1692122697.575,23.438,10.742,-32.227,6.348,-95.215
1692122697.578,14.160,-0.488,-34.668,5.371,-94.238
1692122697.582,21.484,0.488,-35.645,24.902,-89.844
1692122697.586,42.480,7.812,-34.180,38.574,3.906
1692122697.590,38.574,8.301,-32.715,32.715,46.875
1692122697.594,27.344,7.812,-27.832,21.484,3.906
1692122697.598,29.785,10.254,-24.414,21.484,-24.902
1692122697.602,29.785,13.184,-26.855,33.691,-30.273
1692122697.605,33.691,15.625,-29.297,40.039,141.602
1692122697.609,33.691,10.742,-28.320,38.574,511.230
1692122697.613,24.414,5.371,-24.414,31.250,261.230
1692122697.617,21.484,5.371,-24.902,18.066,-191.406
1692122697.621,21.484,-0.488,-24.414,22.461,-173.828
1692122697.622,29.297,-2.441,-24.902,41.504,-109.375
1692122697.626,37.598,3.418,-24.414,49.316,-86.914
1692122697.630,32.227,4.883,-20.020,37.109,-147.461
1692122697.634,15.137,5.371,-21.973,18.066,-150.879
1692122697.638,7.324,9.766,-27.832,18.066,-112.793
1692122697.642,5.371,6.348,-25.879,29.785,-47.852
1692122697.646,10.254,1.953,-24.414,32.715,50.781
1692122697.649,7.812,3.418,-29.297,25.879,266.113
1692122697.653,-6.836,3.906,-33.691,9.766,198.242
1692122697.657,-9.277,6.836,-30.273,6.836,-79.590
1692122697.661,2.441,16.113,-25.391,22.949,-50.781
1692122697.665,19.531,15.137,-23.926,28.809,49.316
1692122697.667,23.926,11.230,-22.949,9.766,0.488
1692122697.671,16.113,13.672,-26.855,-2.441,-109.863
1692122697.675,19.043,13.184,-24.902,20.020,-39.062
1692122697.679,38.086,4.883,-25.391,42.480,66.406
1692122697.683,37.109,0.000,-29.297,42.480,0.488
1692122697.687,26.367,3.906,-31.738,26.855,10.742
1692122697.691,25.879,4.883,-30.273,21.973,198.242
1692122697.694,17.090,2.441,-29.297,20.508,415.039
1692122697.698,9.766,3.418,-30.762,21.973,92.285
1692122697.702,21.484,8.789,-25.879,28.809,-199.707
1692122697.706,32.715,7.324,-26.367,19.531,-54.199
1692122697.710,28.320,0.977,-32.715,5.859,-4.395
1692122697.729,18.555,-8.301,-31.738,-4.883,-174.316
1692122697.733,20.996,-10.742,-29.297,11.230,-107.422
1692122697.737,31.738,-6.836,-25.879,34.180,36.621
1692122697.741,29.785,-6.348,-21.973,28.320,-6.348
1692122697.745,19.531,-10.742,-16.602,15.625,-146.484
1692122697.749,15.137,-11.719,-17.090,16.602,-116.699
1692122697.753,12.207,-7.812,-22.949,31.738,206.543
1692122697.756,19.043,-5.371,-17.090,48.340,185.547
1692122697.760,29.297,-8.301,-14.648,34.668,-60.547
1692122697.764,17.090,-10.254,-20.996,11.719,-28.320
1692122697.768,14.160,-0.977,-20.020,9.766,-51.758
1692122697.772,19.531,0.977,-19.043,14.160,-155.762
1692122697.758,30.273,-1.465,-26.367,29.785,-128.418
1692122697.762,43.945,1.465,-25.391,38.086,-19.531
1692122697.766,33.691,-1.953,-21.484,23.926,36.133
1692122697.770,17.578,-3.418,-24.414,21.484,-33.691
1692122697.774,16.113,-0.488,-27.344,37.598,36.133
1692122697.778,21.973,-1.953,-22.461,44.434,220.215
1692122697.782,20.996,-6.348,-23.926,37.109,174.805
1692122697.785,15.625,-0.488,-24.902,23.438,59.082
1692122697.789,4.395,0.000,-26.367,6.836,-72.754
1692122697.793,6.348,-4.395,-33.203,9.277,7.812
1692122697.797,25.879,-0.977,-32.227,41.016,408.691
1692122697.801,36.133,9.277,-31.250,48.340,215.332
1692122697.817,33.691,14.648,-28.809,28.809,-217.285
1692122697.821,17.578,9.766,-21.484,15.625,-215.332
1692122697.825,10.742,8.789,-20.508,12.207,-168.457
1692122697.829,23.438,8.789,-27.344,25.879,-174.316
1692122697.833,26.855,11.719,-27.344,36.621,-72.266
1692122697.837,19.531,10.742,-28.320,25.391,-12.695
1692122697.841,15.137,12.695,-27.832,15.137,-48.340
1692122697.844,18.066,19.043,-19.531,20.996,-113.281
1692122697.848,28.320,9.277,-20.996,24.414,-220.215
1692122697.852,28.809,3.906,-22.461,35.645,137.207
1692122697.856,19.531,8.301,-29.785,30.273,130.859
1692122697.860,11.230,5.371,-28.809,7.812,-194.824
1692122697.878,7.324,1.465,-19.531,11.719,-126.953
1692122697.882,17.578,2.441,-21.973,22.461,-97.168
1692122697.886,27.832,0.488,-27.344,24.902,-111.328
1692122697.890,19.043,1.465,-31.250,13.184,-137.207
1692122697.894,8.789,3.906,-34.180,0.977,-71.289
1692122697.898,12.207,2.930,-31.738,7.812,90.820
1692122697.902,20.996,3.906,-30.273,29.785,99.609
1692122697.905,36.133,1.953,-30.762,43.457,49.316
1692122697.909,41.504,1.953,-25.391,34.668,106.445
1692122697.913,25.879,-0.488,-25.391,24.414,381.836
1692122697.917,23.926,-2.930,-26.367,29.297,202.637
1692122697.921,27.344,1.465,-23.926,34.180,-230.469
1692122697.907,28.320,0.000,-29.297,34.668,-114.746
1692122697.911,28.809,-1.953,-32.227,26.855,-42.480
1692122697.915,25.391,-4.395,-30.273,17.578,-162.109
1692122697.919,14.648,-5.371,-28.809,10.254,-151.367
1692122697.923,14.648,4.395,-30.273,14.160,-81.055
1692122697.927,32.227,2.441,-31.250,33.203,-31.738
1692122697.931,45.410,-0.488,-28.809,37.598,0.977
1692122697.934,34.668,3.418,-25.391,23.438,9.277
1692122697.938,17.090,2.441,-27.344,5.371,-15.625
1692122697.942,19.531,-0.488,-34.668,10.742,-113.281
1692122697.946,41.504,-1.465,-41.504,34.180,-109.375
1692122697.950,67.383,8.301,-42.969,57.129,-24.902
1692122697.968,68.359,4.395,-24.414,60.059,294.434
1692122697.972,31.738,-15.625,-8.789,25.391,223.633
1692122697.976,13.672,-20.996,-16.113,19.531,-159.180
1692122697.980,33.691,-17.090,-19.043,46.875,-108.887
1692122697.984,48.828,-9.277,-13.672,58.594,-55.176
1692122697.988,40.039,-7.812,-17.578,48.340,-54.199
1692122697.992,31.738,-17.578,-20.020,35.645,-96.680
1692122697.995,40.039,-18.555,-14.160,58.105,83.984
1692122697.999,58.105,-15.625,-10.254,80.566,396.484
1692122698.003,62.500,-13.672,-16.113,72.266,134.766
1692122698.007,55.176,-8.301,-22.949,61.523,-171.387
1692122698.011,48.340,-6.836,-21.484,50.781,-123.535
1692122697.999,52.734,-2.441,-18.066,49.316,-139.160
1692122698.003,59.082,-1.465,-20.020,70.312,-147.949
1692122698.007,55.176,-2.441,-20.508,80.078,-51.758
1692122698.011,50.781,-3.906,-23.926,61.035,29.785
1692122698.015,48.828,-5.371,-28.809,48.828,-60.547
1692122698.019,41.016,-9.277,-28.320,55.664,-133.789
1692122698.023,38.574,-8.301,-26.855,67.383,20.508
1692122698.026,50.781,-2.441,-22.461,73.730,133.789
1692122698.030,50.781,0.977,-23.926,58.594,21.973
1692122698.034,26.855,1.465,-25.391,42.480,-55.664
1692122698.038,24.902,1.465,-25.391,44.434,-27.344
1692122698.042,42.480,-4.395,-32.227,53.711,213.379
1692122698.042,41.504,-5.371,-32.715,47.363,145.020
1692122698.046,29.785,0.977,-27.832,43.457,-104.492
1692122698.050,20.996,-1.953,-28.320,32.715,-73.730
1692122698.054,25.391,-8.789,-33.691,25.391,-59.082
1692122698.058,27.344,-6.836,-30.273,44.922,-15.625
1692122698.062,36.621,-1.465,-23.438,56.641,1.953
1692122698.066,45.898,3.418,-25.391,56.641,144.043
1692122698.069,33.203,3.906,-27.832,47.852,506.836
1692122698.073,20.508,4.395,-34.180,30.762,231.445
1692122698.077,27.832,4.883,-35.156,35.156,-188.965
1692122698.081,39.062,-1.465,-27.832,56.641,-105.957
1692122698.085,29.785,-0.488,-29.297,43.457,-83.496
1692122698.087,17.090,-3.418,-29.785,22.461,-162.109
1692122698.091,18.555,-7.812,-25.879,20.508,-133.301
1692122698.095,27.344,-4.395,-23.926,31.738,-44.922
1692122698.099,22.461,0.000,-26.855,45.898,-36.621
1692122698.103,27.344,1.465,-23.438,44.434,-96.191
1692122698.107,26.855,-4.883,-19.531,24.414,-37.598
1692122698.111,25.391,-3.906,-18.066,22.461,257.812
1692122698.114,25.879,0.488,-19.531,29.297,212.402
1692122698.118,23.926,0.977,-20.508,28.809,-101.074
1692122698.122,35.156,-1.953,-19.043,38.574,-63.477
1692122698.126,28.320,-7.324,-20.020,34.668,12.695
1692122698.130,9.766,-4.883,-23.438,17.578,-77.637
1692122698.133,10.742,-0.488,-22.461,21.973,-146.484
1692122698.137,26.855,0.000,-22.461,44.922,-70.801
1692122698.141,30.762,-7.812,-23.438,45.410,-3.906
1692122698.145,23.438,-11.230,-20.020,20.508,-79.102
1692122698.149,23.926,-4.883,-18.066,10.254,-165.527
1692122698.153,28.320,-5.859,-20.996,28.320,38.574
1692122698.157,35.645,-12.207,-22.461,39.551,222.168
1692122698.160,47.852,-13.184,-25.879,39.551,48.340
1692122698.164,29.297,-8.789,-30.762,25.391,-76.660
1692122698.168,3.906,-12.207,-29.297,7.812,73.730
1692122698.172,4.395,-14.160,-29.785,11.230,288.086
1692122698.176,6.348,-11.230,-30.762,15.625,1.465
1692122698.192,15.137,-15.625,-28.809,24.414,-152.832
1692122698.196,16.113,-17.090,-25.879,26.367,-46.387
1692122698.200,6.836,-11.719,-25.391,14.648,-60.547
1692122698.204,9.277,-7.812,-24.902,14.160,-114.258
1692122698.208,19.043,-6.348,-28.809,37.109,-62.988
1692122698.212,30.273,-5.859,-36.133,50.293,127.441
1692122698.216,27.832,-1.465,-32.227,39.062,191.406
1692122698.219,16.602,-1.953,-25.879,20.996,31.250
1692122698.223,9.766,-3.906,-28.809,10.254,7.324
1692122698.227,18.066,-1.953,-31.250,28.809,213.867
1692122698.231,38.086,1.953,-31.738,43.457,137.207
1692122698.235,46.387,-1.465,-26.367,39.062,-64.941
1692122698.238,31.250,-6.836,-23.926,24.414,56.152
1692122698.242,22.949,-0.977,-21.484,19.531,86.426
1692122698.246,37.598,-0.488,-21.484,32.227,-22.949
1692122698.250,46.387,1.465,-21.484,44.922,14.648
1692122698.254,33.203,-3.418,-24.414,37.598,33.691
1692122698.258,18.555,-14.160,-34.668,15.137,21.484
1692122698.262,11.230,-13.672,-35.645,5.371,96.191
1692122698.265,9.277,-7.812,-27.832,17.578,85.938
1692122698.269,15.137,-4.395,-24.902,33.691,125.488
1692122698.273,12.207,-5.859,-29.785,38.574,436.035
1692122698.277,2.441,-4.883,-31.738,16.113,174.805
1692122698.281,0.000,-2.441,-28.320,0.977,-166.504
1692122698.284,2.441,4.395,-23.926,12.695,-61.523
1692122698.288,20.508,3.906,-27.344,29.785,-11.230
1692122698.292,29.785,-6.348,-33.691,31.738,-27.344
1692122698.296,20.508,-9.277,-34.668,18.555,-27.344
1692122698.300,20.508,-3.418,-34.668,8.301,-1.465
1692122698.304,16.113,-0.977,-32.715,9.277,28.320
1692122698.308,3.906,-1.465,-35.156,21.973,25.391
1692122698.311,14.648,-3.418,-36.133,25.879,-57.617
1692122698.315,22.949,-7.324,-30.273,20.020,95.703
1692122698.319,14.648,-6.836,-30.273,11.230,91.309
1692122698.323,16.113,2.441,-31.250,7.324,-180.176
1692122698.327,21.973,5.371,-30.273,15.625,-78.613
1692122698.327,28.320,2.441,-28.320,25.879,-11.230
1692122698.331,23.438,-0.977,-32.715,14.160,-110.352
1692122698.335,6.348,-3.418,-35.645,0.488,-166.992
1692122698.339,15.625,-1.465,-28.320,17.090,-124.023
1692122698.343,35.156,-4.883,-27.832,38.574,-12.695
1692122698.347,33.203,-5.859,-29.297,34.668,-5.371
1692122698.351,28.809,0.488,-25.391,27.344,-1.465
1692122698.354,28.320,2.930,-28.809,28.320,198.242
1692122698.358,15.625,-3.906,-31.250,41.016,605.957
1692122698.362,20.020,-6.836,-31.250,48.828,436.035
1692122698.366,27.832,-9.766,-32.715,31.738,-41.992
1692122698.370,15.625,-11.719,-30.762,22.949,-71.777
1692122698.372,12.207,-4.883,-33.691,12.207,-105.957
1692122698.376,5.859,0.977,-33.691,11.230,-166.992
1692122698.380,0.488,0.000,-27.832,29.297,-145.020
1692122698.384,10.742,0.488,-31.738,41.504,-97.168
1692122698.388,14.160,3.418,-34.668,28.809,-105.957
1692122698.392,3.906,-4.883,-33.691,15.625,-96.680
1692122698.396,-1.465,-5.859,-34.180,14.160,-101.074
1692122698.399,10.254,-1.465,-36.133,28.809,231.445
1692122698.403,26.367,-6.836,-37.109,37.598,294.922
1692122698.407,23.438,-10.254,-32.715,24.414,-123.535
1692122698.411,15.625,-6.348,-29.785,17.090,-120.605
1692122698.415,9.766,-6.836,-30.273,14.160,-64.941
1692122698.417,22.949,-5.859,-30.273,15.137,-131.836
1692122698.421,34.180,-4.883,-31.738,22.949,-125.488
1692122698.425,29.297,-6.836,-30.762,32.715,-29.785
1692122698.429,20.020,-4.883,-28.320,20.020,9.766
1692122698.433,20.020,-16.113,-23.926,14.160,-14.160
1692122698.437,43.945,-21.973,-19.043,51.758,-86.426
1692122698.441,49.316,-3.418,-26.855,70.312,129.395
1692122698.444,20.996,1.953,-36.133,31.250,449.219
1692122698.448,-1.465,-8.301,-42.969,-7.324,84.961
1692122698.452,0.488,-7.324,-45.898,-7.324,-130.859
1692122698.456,17.090,0.000,-47.852,15.625,45.410
1692122698.460,21.484,5.371,-57.129,21.484,-3.418
1692122698.462,17.578,7.812,-59.570,5.859,-127.441
1692122698.466,11.719,6.348,-57.129,-3.906,-198.730
1692122698.470,12.695,4.395,-55.664,-0.488,28.809
1692122698.474,36.621,2.441,-51.270,10.742,86.426
1692122698.478,52.734,2.930,-47.363,23.926,-133.301
1692122698.482,49.316,1.465,-35.645,24.414,10.254
1692122698.486,41.504,-0.977,-28.809,12.695,310.059
1692122698.489,31.738,-0.488,-37.598,9.766,166.016
1692122698.493,22.949,-2.441,-38.086,20.996,-161.133
1692122698.497,30.273,1.465,-31.250,35.156,-113.281
1692122698.501,28.320,6.348,-32.227,41.504,-13.184
1692122698.505,16.113,6.836,-32.227,32.227,-64.941
1692122698.509,9.277,-0.488,-36.621,11.719,-40.527
1692122698.513,7.812,-11.719,-41.992,12.207,92.773
1692122698.517,18.066,-5.859,-40.039,25.391,120.117
1692122698.521,23.438,-1.953,-37.109,27.832,16.113
1692122698.525,25.879,-2.930,-36.621,17.578,-99.609
1692122698.529,17.090,-1.953,-33.691,13.184,42.969
1692122698.533,3.418,-4.883,-28.320,22.949,203.613
1692122698.536,14.648,-6.836,-31.738,30.762,68.848
1692122698.540,22.949,-6.348,-33.691,41.016,-49.805
1692122698.544,20.996,-10.254,-29.785,37.109,78.125
1692122698.548,16.113,-18.066,-33.691,20.996,263.672
1692122698.552,17.578,-16.113,-42.480,17.090,37.598
1692122698.567,23.438,-10.742,-40.039,26.367,-143.555
1692122698.571,34.668,-3.418,-33.691,46.875,-108.887
1692122698.575,33.691,-1.953,-33.203,40.039,-18.066
1692122698.579,7.812,-4.883,-37.109,11.230,-62.500
1692122698.583,5.371,-1.953,-38.086,9.766,-178.223
1692122698.587,16.113,0.488,-31.250,33.203,104.980
1692122698.591,20.020,-5.371,-34.180,42.969,245.117
1692122698.594,22.461,-7.324,-33.203,33.691,-63.477
1692122698.598,21.484,-5.371,-28.320,18.555,-200.684
1692122698.602,8.301,-4.395,-31.738,11.719,-60.547
1692122698.606,4.883,-2.930,-34.180,16.113,-69.336
1692122698.610,13.672,0.488,-32.715,26.367,-131.348
1692122698.612,21.973,2.441,-30.762,27.344,-61.035
1692122698.616,22.949,2.441,-30.273,11.230,-66.406
1692122698.620,16.113,3.906,-24.414,3.418,-109.863
1692122698.624,19.531,3.418,-24.414,19.531,-73.730
1692122698.628,28.809,0.000,-26.367,35.156,9.766
1692122698.632,22.949,-9.766,-28.809,28.320,41.016
1692122698.636,15.137,-12.207,-35.645,18.066,55.176
1692122698.639,17.090,-8.789,-36.133,13.184,31.738
1692122698.643,20.508,-4.883,-29.297,17.578,90.820
1692122698.647,31.250,0.488,-28.809,38.574,423.828
1692122698.651,38.574,1.953,-34.180,42.969,283.203
1692122698.655,27.344,5.371,-33.203,28.809,-115.234
1692122698.672,18.555,9.277,-23.926,15.625,-147.461
1692122698.676,25.879,5.371,-27.832,18.066,-114.746
1692122698.680,31.250,-3.906,-33.203,34.668,-111.816
1692122698.684,37.109,-2.930,-27.344,42.969,-58.105
1692122698.688,29.297,-4.883,-28.809,32.227,45.898
1692122698.692,12.207,-12.207,-33.691,9.277,62.988
1692122698.696,8.789,-10.742,-28.809,10.742,5.371
1692122698.699,20.508,-14.648,-28.320,19.043,-38.086
1692122698.703,41.992,-16.113,-29.297,31.250,204.590
1692122698.707,32.227,-14.160,-27.832,25.879,272.949
1692122698.711,15.625,-10.254,-27.344,5.859,-106.934
1692122698.715,22.461,-8.301,-27.344,20.020,-134.766
1692122698.702,25.391,-10.742,-28.809,36.133,-27.832
1692122698.706,33.203,-9.277,-26.855,36.621,-79.590
1692122698.710,37.109,-8.301,-25.879,29.297,-130.859
1692122698.714,24.902,-6.836,-26.855,21.973,-48.828
1692122698.718,14.160,-2.441,-29.785,24.902,-16.113
1692122698.722,20.508,1.465,-29.785,37.598,-23.438
1692122698.726,42.480,0.488,-27.344,54.688,40.527
1692122698.729,34.668,-6.836,-25.879,43.457,89.844
1692122698.733,21.484,-7.812,-27.832,22.949,25.879
1692122698.737,26.367,-0.977,-26.855,23.438,-145.996
1692122698.741,35.156,0.000,-20.020,36.133,-143.555
1692122698.745,38.574,-0.488,-23.926,46.387,74.707
1692122698.747,42.480,-3.906,-31.738,44.434,433.105
1692122698.751,32.715,-2.930,-30.762,29.785,241.211
1692122698.755,11.719,0.488,-28.809,11.230,-101.562
1692122698.759,21.973,-3.418,-31.250,25.391,-59.082
1692122698.763,30.273,-1.465,-30.762,44.922,-41.504
1692122698.767,23.926,-1.953,-30.273,25.879,47.852
1692122698.771,17.578,-6.836,-35.645,4.395,119.141
1692122698.774,17.090,-9.277,-36.133,10.254,239.258
1692122698.778,15.625,-5.371,-33.691,18.066,79.102
1692122698.782,29.297,3.418,-34.180,25.879,-179.199
1692122698.786,35.156,-3.906,-37.598,34.180,-93.750
1692122698.790,21.484,-12.207,-36.133,33.691,-25.879
1692122698.794,18.555,-4.883,-29.297,25.879,-98.633
1692122698.798,26.367,2.441,-22.949,27.832,-127.930
1692122698.802,29.297,-0.488,-22.461,43.945,-22.461
1692122698.806,24.902,-3.906,-26.367,37.598,105.957
1692122698.810,14.160,-0.488,-21.973,22.949,4.883
1692122698.814,6.836,-3.906,-20.020,14.160,-100.586
1692122698.818,17.578,-5.859,-24.902,24.902,119.629
1692122698.821,27.832,-7.324,-26.855,38.574,357.422
1692122698.825,20.508,-5.859,-33.203,28.320,91.309
1692122698.829,18.555,-0.977,-35.156,17.578,-156.738
1692122698.833,20.996,0.000,-32.227,15.625,1.953
1692122698.837,13.184,1.953,-32.715,21.973,152.344
1692122698.838,13.184,-2.441,-36.133,29.297,-132.324
1692122698.842,25.391,-1.953,-30.762,36.621,-195.312
1692122698.846,16.113,0.488,-24.414,13.672,-116.699
1692122698.850,0.977,-0.488,-23.926,1.465,-100.586
1692122698.854,0.977,-3.906,-24.902,22.949,-145.020
1692122698.858,9.766,-1.953,-23.926,38.086,-91.797
1692122698.862,20.508,-1.953,-20.508,41.992,262.695
1692122698.865,19.043,-2.930,-23.926,20.020,296.875
1692122698.869,7.812,-0.488,-24.414,-4.883,-121.094
1692122698.873,6.836,-6.836,-21.973,7.812,-150.879
1692122698.877,20.020,-10.254,-28.809,25.879,-68.848
1692122698.881,19.531,-3.418,-34.180,28.320,-99.121
1692122698.883,18.066,6.836,-31.250,30.273,-75.195
1692122698.887,13.184,7.812,-30.273,20.020,4.395
1692122698.891,10.254,1.465,-32.227,11.719,-11.719
1692122698.895,22.461,-0.488,-33.203,28.809,-89.355
1692122698.899,29.785,-4.395,-30.273,41.016,-51.270
1692122698.903,34.668,-3.906,-26.855,41.016,102.539
1692122698.907,33.203,3.906,-26.367,25.879,150.879
1692122698.910,20.508,-2.930,-28.320,11.230,18.555
1692122698.914,20.996,-11.719,-34.180,21.973,-37.109
1692122698.918,47.363,-7.812,-30.273,46.387,167.969
1692122698.922,41.992,-2.930,-25.879,47.852,467.773
1692122698.926,22.461,-2.930,-28.320,30.273,192.383
1692122698.930,18.066,-6.348,-30.273,18.066,-185.059
1692122698.934,21.973,-7.812,-29.785,22.949,-153.809
1692122698.938,25.391,-9.277,-34.668,36.133,-109.863
1692122698.942,18.555,-5.371,-35.156,31.738,-117.676
1692122698.946,18.555,0.977,-29.297,15.625,-72.266
1692122698.950,21.484,0.977,-28.809,14.648,-11.230
1692122698.954,20.996,0.488,-30.762,21.973,-6.836
1692122698.957,31.250,2.930,-28.809,27.344,-45.410
1692122698.961,34.668,1.953,-31.250,31.738,2.930
1692122698.965,23.438,-0.488,-29.785,16.113,15.137
1692122698.969,15.137,-3.906,-25.879,6.836,-88.867
1692122698.973,20.020,-2.441,-27.344,19.531,-75.684
1692122698.988,28.320,-0.977,-21.484,40.039,39.062
1692122698.992,34.180,-3.418,-21.484,47.363,137.695
1692122698.996,31.250,0.488,-23.926,35.645,-16.602
1692122699.000,19.531,6.348,-22.461,31.250,-149.414
1692122699.004,16.602,4.883,-23.438,31.738,-9.277
1692122699.008,21.484,-0.977,-29.785,48.340,335.449
1692122699.012,24.902,-4.395,-32.715,58.105,259.277
1692122699.015,13.672,-6.348,-33.203,36.133,37.598
1692122699.019,14.160,-4.395,-33.203,22.461,102.051
1692122699.023,24.902,-1.953,-30.273,32.715,182.129
1692122699.027,25.879,2.441,-30.273,45.898,-47.363
1692122699.031,30.762,10.742,-26.855,51.270,-204.102
1692122699.032,23.438,3.906,-27.832,36.133,-53.223
1692122699.036,8.789,-6.836,-31.250,8.301,-45.898
1692122699.040,20.508,-7.324,-32.227,2.930,-163.574
1692122699.044,22.461,-8.301,-34.180,19.531,-88.379
1692122699.048,15.137,-8.789,-37.598,27.344,-7.812
1692122699.052,10.742,-5.859,-38.086,13.672,27.344
1692122699.056,-2.441,-5.859,-38.086,1.465,-16.602
1692122699.059,9.277,0.488,-35.645,12.207,-107.422
1692122699.063,20.508,0.000,-33.203,23.926,147.461
1692122699.067,19.043,-6.836,-39.062,18.066,175.293
1692122699.071,28.320,3.418,-34.180,4.883,-75.195
1692122699.075,25.879,3.418,-33.691,-2.930,-26.367
1692122699.078,10.254,-1.953,-37.598,-8.301,16.113
1692122699.082,15.137,0.488,-31.738,9.766,-1.953
1692122699.086,20.996,-0.977,-28.320,22.949,-46.875
1692122699.090,21.973,-1.465,-28.809,21.973,2.441
1692122699.094,9.766,-4.395,-28.320,12.695,52.246
1692122699.098,3.418,-6.348,-29.297,4.883,-9.766
1692122699.102,15.625,-1.953,-26.367,21.484,-14.160
1692122699.105,20.020,-2.441,-25.391,36.133,108.887
1692122699.109,23.438,-4.395,-28.320,34.668,382.324
1692122699.113,29.785,-0.488,-32.227,17.578,114.746
1692122699.117,23.438,3.906,-32.715,10.254,-192.383
1692122699.121,24.414,6.348,-28.809,19.531,-121.582
1692122699.137,35.645,5.371,-31.738,33.691,-91.797
1692122699.141,40.039,3.418,-31.738,35.645,-106.934
1692122699.145,29.785,-0.488,-30.273,22.949,-139.160
1692122699.149,13.672,-4.395,-28.809,8.789,-123.047
1692122699.153,11.719,-3.906,-26.855,11.719,-105.469
1692122699.157,16.602,-1.465,-27.344,28.320,-52.734
1692122699.161,16.602,-4.395,-22.949,26.367,47.363
1692122699.164,10.742,-7.324,-29.785,6.348,263.672
1692122699.168,21.484,6.348,-46.387,6.836,248.047
1692122699.172,43.457,10.254,-35.645,35.156,-114.258
1692122699.176,27.344,-5.859,-10.742,35.156,-104.004
1692122699.180,-7.812,-8.301,-9.277,12.695,7.324
1692122699.167,-21.973,-11.230,-13.672,5.859,-49.316
1692122699.171,-11.230,-13.672,-14.648,8.789,-121.582
1692122699.175,-1.953,-15.625,-14.648,20.508,-50.781
1692122699.179,-4.883,-17.578,-4.883,33.691,4.883
1692122699.183,-4.395,-16.602,-1.465,34.668,-5.371
1692122699.187,-2.930,-14.160,-4.395,24.414,17.578
1692122699.191,-4.395,-14.160,1.465,15.137,102.539
1692122699.194,-1.465,-16.602,-1.953,25.879,150.391
1692122699.198,16.113,-13.184,-7.324,51.270,3.418
1692122699.202,24.902,-11.230,-11.230,62.988,-42.480
1692122699.206,14.160,-9.277,-18.555,50.293,89.355
1692122699.210,8.301,-8.789,-21.973,28.320,411.621
1692122699.212,3.906,-8.301,-23.926,17.090,256.836
1692122699.216,15.137,0.000,-18.066,30.762,-108.398
1692122699.220,20.996,1.953,-15.625,40.527,-113.281
1692122699.224,16.113,3.418,-20.020,32.715,-138.672
1692122699.228,11.719,5.371,-20.508,20.020,-185.059
1692122699.232,6.348,2.441,-18.555,18.555,-117.188
1692122699.236,25.391,6.348,-15.137,43.945,281.738
1692122699.239,28.809,8.301,-20.508,48.828,261.719
1692122699.243,14.160,3.418,-26.367,27.832,-131.836
1692122699.247,6.836,0.977,-25.879,18.555,-144.531
1692122699.251,12.207,0.977,-20.996,14.160,-49.316
1692122699.255,19.531,2.930,-18.555,27.344,-84.961
1692122699.258,17.090,0.977,-22.461,43.457,-143.066
1692122699.262,13.184,2.441,-28.320,33.203,-45.410
1692122699.266,8.789,3.906,-29.785,17.090,-66.406
1692122699.270,3.906,10.254,-26.855,7.324,-150.879
1692122699.274,17.090,16.113,-29.785,15.625,-145.508
1692122699.278,38.574,13.184,-32.715,35.156,23.438
1692122699.282,39.551,17.090,-28.809,37.109,120.605
1692122699.285,33.203,16.602,-28.809,21.484,3.906
1692122699.289,23.926,4.395,-31.250,9.277,-84.473
1692122699.293,23.438,-1.465,-27.832,20.020,73.242
1692122699.297,30.762,-1.465,-29.785,43.457,379.395
1692122699.301,32.227,0.977,-32.715,30.762,150.879
1692122699.317,30.273,6.348,-27.344,17.090,-143.555
1692122699.321,23.438,4.883,-25.879,17.578,-44.922
1692122699.325,27.344,3.418,-25.879,25.391,33.203
1692122699.329,45.898,11.719,-22.461,46.387,-59.570
1692122699.333,51.270,11.719,-22.461,40.527,-72.754
1692122699.337,26.855,1.465,-26.367,24.902,65.430
1692122699.341,10.742,-0.977,-24.414,19.531,69.336
1692122699.344,19.531,2.441,-24.414,23.438,-88.867
1692122699.348,38.086,1.953,-24.902,38.086,-97.168
1692122699.352,39.062,1.953,-23.926,52.246,135.254
1692122699.356,23.438,7.812,-23.438,38.086,52.734
1692122699.360,6.836,8.789,-21.484,14.648,-176.270
1692122699.363,-3.418,2.441,-20.996,13.184,-114.258
1692122699.367,12.695,-2.441,-20.508,31.738,-12.695
1692122699.371,19.531,-4.395,-21.484,33.691,-36.621
1692122699.375,3.418,-6.348,-27.832,21.484,-80.078
1692122699.379,4.395,2.441,-27.344,28.320,53.711
1692122699.383,16.113,4.395,-23.926,22.949,125.000
1692122699.387,23.438,-3.906,-24.902,29.297,43.945
1692122699.390,24.902,-2.441,-30.273,50.781,63.477
1692122699.394,19.531,5.371,-33.691,36.621,207.031
1692122699.398,5.859,-10.254,-29.785,10.254,424.316
1692122699.402,6.836,-18.066,-24.414,9.277,154.297
1692122699.406,27.832,-4.395,-24.414,26.367,-85.938
1692122699.407,29.297,-3.906,-27.832,38.086,-3.906
1692122699.411,24.414,-9.277,-26.367,28.809,-32.227
1692122699.415,16.602,-6.836,-26.855,15.137,-121.094
1692122699.419,7.812,-3.906,-26.855,7.324,-96.680
1692122699.423,8.301,-5.859,-27.832,9.277,19.531
1692122699.427,17.578,-4.883,-25.391,27.344,56.152
1692122699.431,16.602,-12.207,-25.391,17.090,6.836
1692122699.434,10.254,-14.648,-31.738,-4.395,-139.648
1692122699.438,7.324,-10.742,-31.250,7.812,107.910
1692122699.442,7.324,-8.789,-28.809,23.926,175.293
1692122699.446,13.672,-7.324,-31.738,26.855,-145.020
1692122699.450,18.555,-1.953,-28.809,20.020,-115.723
1692122699.452,9.277,0.977,-25.391,8.301,-33.203
1692122699.456,10.254,0.977,-27.344,13.672,-112.305
1692122699.460,13.184,4.395,-29.785,25.879,-131.348
1692122699.464,11.230,0.488,-33.203,24.902,-1.465
1692122699.468,21.973,-7.324,-37.109,23.926,65.918
1692122699.472,21.973,-4.883,-34.180,21.484,53.223
1692122699.476,13.184,0.000,-27.832,20.020,28.320
1692122699.479,16.602,2.441,-24.414,33.203,103.516
1692122699.483,26.367,0.977,-17.578,49.805,471.680
1692122699.487,23.438,-0.488,-20.020,51.270,333.008
1692122699.491,18.555,1.465,-27.832,32.715,-139.648
1692122699.495,14.648,0.000,-30.273,21.484,-153.320
1692122699.497,19.043,0.977,-31.250,29.785,-93.262
1692122699.501,29.785,0.977,-30.762,40.039,-97.168
1692122699.505,46.387,3.418,-30.762,50.781,-126.953
1692122699.509,39.062,1.953,-31.250,35.645,-154.297
1692122699.513,12.207,-0.488,-32.715,10.742,-138.672
1692122699.517,11.230,-0.977,-34.180,16.113,-75.684
1692122699.521,15.625,-0.977,-32.715,23.926,-90.820
1692122699.524,23.926,1.465,-29.297,25.391,195.801
1692122699.528,15.137,4.395,-30.273,17.578,219.727
1692122699.532,9.766,5.371,-32.227,3.418,-131.348
1692122699.536,16.602,2.441,-29.785,10.254,-111.328
1692122699.540,22.949,-1.953,-29.785,30.762,28.320
1692122699.542,25.391,-2.930,-32.227,29.297,-46.875
1692122699.546,19.531,-0.488,-30.273,11.230,-173.828
1692122699.550,15.137,-3.418,-32.227,1.465,-104.492
1692122699.554,14.648,-4.883,-33.691,2.441,-46.387
1692122699.558,20.508,-0.977,-31.738,19.043,-54.199
1692122699.562,31.250,6.348,-29.785,34.180,36.621
1692122699.566,26.367,7.812,-27.344,27.344,195.801
1692122699.569,10.742,5.371,-33.203,19.531,369.141
1692122699.573,5.859,3.418,-40.039,14.648,167.969
1692122699.577,12.695,2.930,-33.203,29.297,-94.238
1692122699.581,25.391,3.906,-28.809,43.457,-15.625
1692122699.585,28.320,1.465,-32.227,29.297,71.289
1692122699.588,17.578,2.930,-27.344,17.090,-47.852
1692122699.592,16.602,3.906,-24.414,19.043,-172.363
1692122699.596,33.691,5.859,-25.879,28.320,-48.828
1692122699.600,42.969,4.883,-21.973,41.016,10.742
1692122699.604,34.668,2.441,-24.902,43.457,-70.312
1692122699.608,24.902,4.395,-28.320,25.879,-88.867
1692122699.612,17.578,4.883,-28.320,20.020,222.656
1692122699.615,18.066,10.742,-31.250,36.621,254.395
1692122699.619,32.715,16.602,-27.344,41.504,-93.750
1692122699.623,37.109,15.625,-19.531,29.297,-46.875
1692122699.627,32.715,12.695,-21.484,14.160,-13.672
1692122699.631,22.949,15.137,-23.438,13.184,-62.988
1692122699.634,29.785,17.578,-23.438,28.320,-94.238
1692122699.638,49.316,18.555,-21.484,45.410,-19.531
1692122699.642,44.434,17.578,-23.926,43.457,63.965
1692122699.646,27.344,10.742,-31.738,26.855,-27.832
1692122699.650,19.531,5.859,-39.551,18.555,-115.723
1692122699.654,26.367,4.883,-37.598,32.227,106.445
1692122699.658,28.320,6.836,-33.691,50.781,366.699
1692122699.661,23.926,10.254,-33.691,47.852,106.445
1692122699.665,15.137,8.301,-33.203,33.691,-57.617
1692122699.669,16.113,10.254,-33.691,30.762,13.184
1692122699.673,26.855,11.230,-33.203,38.086,-19.043
1692122699.677,37.598,13.184,-29.297,42.969,-124.023
1692122699.692,45.410,11.719,-23.926,49.805,-101.562
1692122699.696,48.828,2.441,-20.996,46.387,159.668
1692122699.700,40.527,-1.953,-24.902,28.809,195.312
1692122699.704,29.785,0.000,-24.902,24.902,-123.535
1692122699.708,37.598,-4.395,-20.996,45.410,-116.211
1692122699.712,37.109,-6.836,-19.043,49.316,104.492
1692122699.716,20.508,-9.277,-23.926,29.785,134.766
1692122699.719,14.160,-9.277,-26.367,17.090,-62.012
1692122699.723,15.137,-2.441,-23.438,26.367,-142.578
1692122699.727,21.484,-1.953,-25.391,45.410,53.223
1692122699.731,19.531,-7.324,-31.738,39.062,38.086
1692122699.735,23.438,-8.301,-33.691,22.461,-197.266
1692122699.752,33.203,-4.395,-27.832,22.461,-201.172
1692122699.756,24.902,0.488,-22.949,25.391,-136.719
1692122699.760,21.973,6.348,-23.926,29.785,-152.344
1692122699.764,25.879,7.812,-22.949,30.273,-124.512
1692122699.768,27.832,10.254,-19.043,28.809,-92.773
1692122699.772,26.855,10.742,-25.391,17.578,-55.176
1692122699.776,15.625,6.836,-29.297,2.930,-34.180
1692122699.779,11.719,5.859,-29.297,14.160,-10.742
1692122699.783,13.184,12.207,-28.320,31.738,96.680
1692122699.787,6.836,7.812,-25.391,28.809,362.793
1692122699.791,6.348,2.930,-25.879,17.090,166.016
1692122699.795,10.742,7.324,-29.785,7.324,-190.430
1692122699.782,8.789,2.930,-34.180,8.301,-122.070
1692122699.786,18.066,2.441,-31.738,24.902,-80.566
1692122699.790,13.672,8.789,-33.691,24.902,-131.836
1692122699.794,2.930,9.766,-32.715,6.348,-167.480
1692122699.798,0.488,4.395,-26.367,4.395,-66.895
1692122699.802,5.371,9.277,-26.855,12.207,55.176
1692122699.806,15.137,16.602,-27.832,23.926,7.324
1692122699.809,9.766,10.254,-27.344,24.414,-21.484
1692122699.813,15.137,6.836,-27.832,11.719,17.578
1692122699.817,17.090,7.812,-30.273,5.859,0.488
1692122699.821,15.137,5.371,-29.297,17.578,23.438
1692122699.825,19.043,3.906,-28.809,34.668,76.172
1692122699.827,25.879,6.348,-30.762,33.691,377.930
1692122699.831,21.484,4.883,-36.621,8.789,326.172
1692122699.835,12.207,3.418,-39.062,-2.930,-62.012
1692122699.839,14.648,7.812,-36.621,22.461,-25.391
1692122699.843,23.438,9.277,-37.109,31.250,24.414
1692122699.847,31.738,2.930,-36.621,22.461,40.527
1692122699.851,24.902,1.465,-32.227,15.625,-20.020
1692122699.854,20.996,9.766,-29.297,7.324,26.855
1692122699.858,17.578,9.277,-31.250,20.996,364.258
1692122699.862,17.578,-0.488,-30.273,28.320,174.805
1692122699.866,22.949,-2.930,-28.809,21.484,-155.762
1692122699.870,14.160,2.441,-32.227,18.555,-41.992
1692122699.872,7.812,1.465,-30.762,14.648,-22.461
1692122699.876,25.391,-9.277,-24.414,36.621,-150.391
1692122699.880,59.082,5.371,-24.414,63.477,-141.602
1692122699.884,48.340,27.344,-32.227,40.039,13.672
1692122699.888,25.879,20.020,-36.621,14.648,40.039
1692122699.892,27.832,5.859,-36.621,20.508,-65.918
1692122699.896,33.691,6.836,-36.133,35.156,-31.250
1692122699.899,52.734,11.719,-34.668,53.223,228.027
1692122699.903,47.852,6.836,-35.156,46.387,256.836
1692122699.907,29.785,3.418,-33.203,29.785,-65.918
1692122699.911,19.531,1.465,-28.809,19.531,-103.516
1692122699.915,14.160,0.000,-35.156,18.555,-49.316
1692122699.918,20.996,0.488,-37.598,36.621,-54.688
1692122699.922,24.414,6.348,-33.691,32.227,-67.871
1692122699.926,30.273,13.184,-32.715,22.461,38.086
1692122699.930,21.973,9.766,-36.621,18.555,105.469
1692122699.934,5.859,5.371,-40.527,11.230,-73.730
1692122699.938,14.648,-0.977,-41.504,21.973,-113.770
1692122699.942,20.020,-2.930,-39.062,29.785,156.250
1692122699.945,17.578,-2.930,-39.062,25.391,394.043
1692122699.949,14.160,-3.906,-39.551,10.254,132.812
1692122699.953,6.348,3.418,-35.156,10.742,-121.582
1692122699.957,16.602,10.742,-29.785,33.203,-20.508
1692122699.961,21.973,12.207,-26.367,41.992,33.691
1692122699.962,11.719,10.254,-29.297,23.438,-119.141
1692122699.966,9.766,1.465,-30.273,11.230,-184.570
1692122699.970,10.254,0.977,-28.809,19.043,-124.512
1692122699.974,8.789,4.883,-30.273,29.785,-92.773
1692122699.978,15.137,4.395,-29.785,34.668,-57.129
1692122699.982,28.809,5.859,-28.320,31.738,-52.734
1692122699.986,24.414,5.371,-24.902,27.344,269.043
1692122699.989,3.906,5.371,-25.391,13.184,358.398
1692122699.993,4.883,7.324,-28.809,11.230,-114.746
1692122699.997,19.043,3.906,-31.738,24.902,-113.770
1692122700.001,18.066,1.465,-35.156,21.973,17.578
1692122700.005,18.555,0.977,-34.180,14.648,-78.613
1692122700.008,18.555,-4.395,-33.691,16.602,-135.254
1692122700.012,21.973,-9.277,-29.785,25.391,-67.871
1692122700.016,29.297,-11.719,-30.762,24.414,-10.254
1692122700.020,22.949,-8.789,-38.086,26.855,-44.922
1692122700.024,22.949,-3.418,-39.551,28.320,-151.855
1692122700.028,24.902,0.000,-38.574,20.996,-19.043
1692122700.032,22.949,2.441,-37.109,24.902,226.562
1692122700.035,25.391,6.836,-34.180,36.133,39.551
1692122700.039,26.367,5.859,-35.645,41.016,-103.516
1692122700.043,24.414,-2.930,-34.180,37.109,156.250
1692122700.047,27.344,-3.906,-24.902,27.832,203.125
1692122700.051,22.949,-1.953,-28.809,22.949,-104.492
1692122700.067,22.461,3.418,-27.344,38.574,-163.574
1692122700.071,33.203,8.301,-24.902,49.805,97.656
1692122700.075,39.062,7.324,-28.320,31.250,173.828
1692122700.079,29.297,11.719,-30.273,10.742,-154.297
1692122700.083,21.484,8.301,-28.809,15.625,-145.996
1692122700.087,22.461,4.883,-25.879,29.297,115.723
1692122700.091,16.602,7.812,-29.785,28.809,104.980
1692122700.094,8.301,3.906,-31.738,20.508,-66.406
1692122700.098,1.465,-4.883,-29.785,12.695,-131.348
1692122700.102,0.977,-5.371,-31.738,10.742,207.031
1692122700.106,10.254,0.977,-33.691,16.113,265.137
1692122700.110,17.090,0.488,-34.180,18.555,-89.355
1692122700.112,11.230,1.953,-33.691,20.020,-78.125
1692122700.116,4.395,3.418,-34.180,1.465,-73.730
1692122700.120,7.812,-0.488,-33.203,-3.418,-173.340
1692122700.124,13.184,2.441,-27.832,12.695,-153.320
1692122700.128,20.508,4.883,-23.926,28.320,-30.273
1692122700.132,23.926,0.000,-30.762,23.438,32.715
1692122700.136,20.020,3.906,-35.645,13.184,11.719
1692122700.139,13.184,8.789,-31.250,15.137,-14.648
1692122700.143,14.160,9.766,-24.902,23.438,77.637
1692122700.147,23.926,4.883,-24.902,39.062,365.723
1692122700.151,26.367,-1.953,-28.320,30.762,178.711
1692122700.155,17.090,-1.953,-27.832,11.719,-170.898
1692122700.157,8.301,2.441,-24.414,2.930,-85.938
1692122700.161,-1.465,5.859,-23.438,6.836,-72.266
1692122700.165,17.578,2.441,-26.367,22.949,-136.230
1692122700.169,37.598,-3.906,-26.367,33.691,-65.430
1692122700.173,17.578,-5.371,-29.297,20.996,-9.277
1692122700.177,6.836,-5.371,-30.762,7.812,51.270
1692122700.181,9.766,-8.789,-24.414,11.230,59.082
1692122700.184,19.531,-2.930,-24.902,27.832,-77.637
1692122700.188,25.391,1.953,-27.344,38.086,111.816
1692122700.192,16.602,5.371,-23.438,18.555,51.270
1692122700.196,17.578,11.230,-20.996,5.859,-260.742
1692122700.200,35.645,6.836,-21.973,15.625,-160.645
1692122700.203,34.668,-0.977,-23.926,31.250,-83.496
1692122700.207,29.785,0.977,-23.926,36.133,-95.703
1692122700.211,32.227,0.977,-23.438,23.438,-119.629
1692122700.215,32.227,-1.953,-27.344,19.531,-37.598
1692122700.219,25.879,-2.930,-29.785,18.555,28.320
1692122700.223,18.555,-4.883,-30.762,18.555,-5.371
1692122700.227,26.367,-4.883,-29.785,22.461,37.598
1692122700.230,28.809,-4.395,-27.344,12.695,106.445
1692122700.234,14.160,-11.719,-27.832,7.812,394.531
1692122700.238,5.371,-15.137,-28.320,9.766,162.598
1692122700.242,21.484,-4.883,-26.367,20.508,-145.996
1692122700.246,29.785,3.418,-31.250,27.344,-29.297
1692122700.247,19.531,9.277,-32.715,11.230,-25.879
1692122700.251,9.277,13.184,-36.621,-11.230,-64.453
1692122700.255,4.883,12.207,-40.527,-8.789,-26.367
1692122700.259,14.160,15.625,-36.621,20.020,14.648
1692122700.263,28.320,17.090,-36.133,35.156,13.672
1692122700.267,30.762,11.719,-30.762,24.902,17.090
1692122700.271,14.160,13.672,-29.297,21.484,-7.324
1692122700.274,20.508,18.066,-27.832,37.109,285.645
1692122700.278,26.855,13.184,-28.320,39.062,381.836
1692122700.282,17.090,7.324,-34.668,34.180,15.137
1692122700.286,12.695,8.301,-32.715,22.949,-49.805
1692122700.290,14.648,13.184,-29.785,10.254,-44.922
1692122700.292,20.020,17.578,-31.738,14.648,-66.406
1692122700.296,20.996,16.113,-31.738,23.926,-124.023
1692122700.300,17.578,13.672,-29.297,36.621,-116.699
1692122700.304,12.207,13.184,-28.809,26.855,-53.223
1692122700.308,5.371,10.254,-30.762,11.719,-116.211
1692122700.312,20.508,9.277,-31.250,19.043,-124.023
1692122700.316,27.344,7.324,-23.926,31.250,101.074
1692122700.319,25.879,9.766,-24.902,38.086,323.730
1692122700.323,30.273,16.602,-30.762,32.227,67.383
1692122700.327,23.926,13.184,-28.320,26.367,-229.004
1692122700.331,19.043,11.230,-27.832,25.879,-58.105
1692122700.335,20.508,15.137,-28.809,29.297,49.316
1692122700.337,22.949,14.160,-28.809,37.109,-192.871
1692122700.341,30.273,3.906,-29.785,32.715,-175.781
1692122700.345,28.320,-2.930,-34.668,19.043,-99.121
1692122700.349,15.625,-0.977,-40.527,4.395,-146.484
1692122700.353,8.301,3.906,-37.109,9.766,-139.160
1692122700.357,24.902,4.883,-34.180,29.785,-77.148
1692122700.361,33.691,4.395,-35.645,33.203,234.863
1692122700.364,14.160,6.348,-35.156,15.625,198.730
1692122700.368,11.719,3.906,-35.156,8.789,-192.871
1692122700.372,21.973,2.930,-34.180,20.996,-115.234
1692122700.376,22.949,2.441,-32.715,34.180,91.797
1692122700.380,25.391,3.418,-32.227,35.645,24.902
1692122700.383,15.137,3.418,-35.645,25.391,-170.898
1692122700.387,11.719,4.395,-36.133,20.020,-90.332
1692122700.391,16.113,6.348,-35.645,19.043,92.773
1692122700.395,19.043,3.418,-39.062,26.367,-9.277
1692122700.399,16.113,0.977,-36.133,30.762,-91.797
1692122700.403,7.812,2.441,-37.598,22.461,98.145
1692122700.407,9.277,1.953,-38.086,12.207,211.426
1692122700.410,11.719,5.859,-33.203,15.625,52.734
1692122700.414,21.484,14.160,-30.762,34.180,-38.574
1692122700.418,40.527,13.184,-27.832,40.527,169.922
1692122700.422,40.039,4.883,-30.762,29.297,352.051
1692122700.426,31.250,-1.953,-36.621,21.973,57.617
1692122700.442,33.691,0.000,-32.227,26.855,6.348
1692122700.446,46.875,4.883,-28.320,38.574,145.996
1692122700.450,45.410,1.953,-28.320,49.316,49.805
1692122700.454,35.645,0.977,-25.879,45.410,-72.754
1692122700.458,37.109,3.906,-31.738,28.320,-55.176
1692122700.462,32.715,-1.465,-32.227,29.297,222.656
1692122700.466,34.668,-3.418,-32.227,40.039,180.664
1692122700.469,42.480,0.977,-34.668,41.016,-61.523
1692122700.473,28.809,-5.371,-34.668,29.297,-64.453
1692122700.477,20.020,-6.348,-35.156,13.184,-0.488
1692122700.481,9.277,1.465,-33.691,15.625,-56.152
1692122700.485,12.695,3.418,-33.203,23.438,-146.973
1692122700.487,26.855,7.324,-30.273,37.109,-59.570
1692122700.491,18.066,9.766,-33.691,33.691,47.363
1692122700.495,12.695,5.859,-36.621,20.020,-18.555
1692122700.499,15.625,4.395,-33.691,23.926,-58.105
1692122700.503,27.344,4.395,-30.762,36.621,82.520
1692122700.507,38.574,5.371,-29.297,42.480,135.254
1692122700.511,28.809,2.441,-32.227,38.574,54.688
1692122700.514,27.344,-1.465,-36.133,20.996,-1.465
1692122700.518,30.762,0.488,-35.156,7.812,70.801
1692122700.522,29.297,2.441,-29.785,27.832,378.906
1692122700.526,24.902,3.906,-28.809,35.645,196.777
1692122700.530,27.344,2.930,-31.738,29.297,-108.887
1692122700.532,18.555,3.906,-39.062,14.160,-102.051
1692122700.536,13.184,5.859,-44.922,2.930,-100.098
1692122700.540,29.785,8.301,-41.016,13.672,-107.422
1692122700.544,38.574,6.348,-38.574,31.250,-95.215
1692122700.548,42.969,4.395,-37.109,35.156,-74.219
1692122700.552,37.109,6.348,-31.738,21.484,-55.176
1692122700.556,17.578,2.930,-34.668,13.184,-26.855
1692122700.559,10.742,3.906,-33.691,22.461,-32.715
1692122700.563,19.043,4.395,-29.785,39.062,198.730
1692122700.567,10.742,-0.977,-35.645,35.645,206.543
1692122700.571,7.324,4.395,-31.250,19.043,-145.508
1692122700.575,15.625,7.812,-23.926,15.137,-130.859
1692122700.578,10.742,1.953,-26.367,22.461,51.270
1692122700.582,15.137,-7.812,-27.344,32.715,-19.531
1692122700.586,27.832,-8.301,-26.855,40.039,-111.328
1692122700.590,22.461,0.488,-26.855,30.273,-75.684
1692122700.594,11.719,-0.977,-23.438,20.508,-62.500
1692122700.598,11.719,-9.277,-28.809,17.090,-57.617
1692122700.602,15.137,-9.277,-34.668,22.949,-79.102
1692122700.605,26.855,-10.742,-33.203,32.715,86.426
1692122700.609,31.738,-14.648,-33.203,29.785,529.297
1692122700.613,12.695,-10.254,-38.574,2.441,401.855
1692122700.617,-7.324,-11.230,-35.156,-3.418,-106.934
1692122700.621,7.812,-5.859,-30.273,21.973,-93.262
1692122700.622,17.090,0.000,-30.762,28.809,-34.668
1692122700.626,21.973,4.883,-24.414,20.996,-134.766
1692122700.630,14.160,9.766,-24.414,14.648,-186.523
1692122700.634,4.883,12.695,-26.855,17.578,-147.949
1692122700.638,22.461,12.207,-23.926,22.461,-66.895
1692122700.642,40.039,7.324,-24.414,35.156,-49.805
1692122700.646,47.363,9.766,-25.391,41.992,-62.988
1692122700.649,47.363,20.996,-23.926,37.109,202.637
1692122700.653,55.664,25.879,-22.461,42.969,168.945
1692122700.657,57.129,18.555,-21.973,53.223,-145.996
1692122700.661,51.758,14.160,-21.973,63.965,-85.449
1692122700.665,41.992,9.277,-20.996,58.105,55.176
1692122700.667,30.762,6.836,-23.438,40.039,-60.547
1692122700.671,34.180,14.160,-27.344,34.180,-208.984
1692122700.675,37.598,13.184,-20.996,54.199,-113.770
1692122700.679,42.969,10.254,-19.043,66.895,-36.133
1692122700.683,48.828,20.020,-24.414,51.758,-50.781
1692122700.687,38.086,26.367,-26.367,30.273,-5.859
1692122700.691,30.762,22.949,-25.391,21.973,141.113
1692122700.694,27.832,21.484,-22.461,41.016,487.305
1692122700.698,23.438,19.531,-26.855,46.875,291.016
1692122700.702,22.949,15.625,-28.320,34.180,-73.242
1692122700.706,14.160,5.859,-28.809,17.090,3.906
1692122700.710,6.836,5.371,-31.738,3.418,-48.340
1692122700.714,9.766,9.277,-30.762,5.859,-92.773
1692122700.718,14.648,8.301,-29.297,22.949,1.953
1692122700.722,19.531,11.719,-29.785,28.809,47.363
1692122700.726,19.531,13.184,-28.320,14.648,19.043
1692122700.730,12.695,16.113,-27.344,-0.488,-111.816
1692122700.734,11.230,12.207,-25.879,3.418,-98.633
1692122700.738,18.555,10.254,-22.949,29.297,208.008
1692122700.741,27.832,10.742,-24.902,27.344,181.152
1692122700.745,23.438,5.859,-29.297,6.836,-141.113
1692122700.749,21.973,7.812,-33.691,2.930,-152.832
1692122700.753,19.531,12.695,-31.250,15.625,-58.105
1692122700.757,19.043,12.207,-27.344,28.320,-41.016
1692122700.758,20.020,11.719,-27.832,29.297,-90.332
1692122700.762,21.973,22.949,-24.902,26.855,-79.102
1692122700.766,20.996,27.832,-26.367,20.996,-59.570
1692122700.770,18.066,19.531,-27.832,22.949,-40.527
1692122700.774,27.832,16.113,-28.320,39.062,-86.426
1692122700.778,24.414,14.648,-32.227,49.805,56.641
1692122700.782,29.297,8.789,-37.109,46.387,462.891
1692122700.785,25.391,8.301,-41.992,27.832,325.684
1692122700.789,11.230,14.160,-35.156,18.555,-99.609
1692122700.793,19.531,12.207,-32.715,36.621,-32.227
1692122700.797,48.340,20.508,-40.527,64.453,76.660
1692122700.801,62.500,20.996,-33.203,66.895,-110.840
1692122700.817,20.508,1.465,-17.090,37.109,-120.117
1692122700.821,-17.090,-7.324,-12.695,10.254,-105.469
1692122700.825,-16.602,0.000,-12.695,6.348,-100.586
1692122700.829,-6.348,5.859,-11.719,16.113,-110.352
1692122700.833,0.977,3.418,-10.742,15.625,-74.707
1692122700.837,-6.836,4.883,-7.812,5.859,7.812
1692122700.841,-8.301,5.859,-6.348,-0.488,16.602
1692122700.844,10.254,6.348,-7.324,9.277,10.742
1692122700.848,20.996,7.324,-10.254,22.461,-25.879
1692122700.852,21.484,7.324,-14.160,22.461,214.355
1692122700.856,19.531,12.207,-16.602,16.602,177.734
1692122700.860,16.113,14.648,-18.555,10.254,-150.391
1692122700.862,19.043,13.184,-17.578,19.043,-80.078
1692122700.866,28.320,7.812,-23.438,32.715,71.777
1692122700.870,29.785,3.906,-23.438,36.621,14.648
1692122700.874,24.414,4.395,-20.020,27.344,-72.266
1692122700.878,26.855,6.348,-21.484,21.973,8.789
1692122700.882,28.809,5.371,-19.531,29.785,129.395
1692122700.886,29.297,2.930,-21.973,35.156,104.004
1692122700.889,31.738,4.883,-21.973,38.574,8.789
1692122700.893,27.832,5.371,-24.414,33.203,75.684
1692122700.897,16.602,1.953,-28.320,20.020,355.957
1692122700.901,9.766,-9.277,-23.926,17.090,251.953
1692122700.905,9.766,-17.090,-27.344,21.484,-136.719
1692122700.907,15.137,-10.742,-30.273,28.320,-175.293
1692122700.911,18.555,-0.977,-26.855,27.344,-135.742
1692122700.915,11.230,1.465,-26.367,10.742,-239.258
1692122700.919,11.230,1.953,-25.391,13.184,-267.578
1692122700.923,17.090,0.977,-26.367,31.250,-162.109
1692122700.927,21.484,-3.906,-25.879,37.598,-79.102
1692122700.931,18.555,-5.859,-24.414,24.414,-27.344
1692122700.934,18.066,-10.254,-25.879,4.395,-98.633
1692122700.938,21.973,-13.672,-26.367,13.672,96.191
1692122700.942,20.508,-5.859,-27.832,30.762,155.273
1692122700.946,19.531,0.977,-28.809,27.344,-131.836
1692122700.950,15.137,0.000,-27.832,18.555,-68.848
1692122700.952,13.672,0.488,-27.344,9.277,13.672
1692122700.956,-3.418,1.953,-29.297,5.859,-135.254
1692122700.960,-0.977,0.488,-30.762,25.391,-172.852
1692122700.964,20.020,3.418,-27.832,32.227,-1.465
1692122700.968,22.949,7.324,-25.879,17.578,20.508
1692122700.972,19.531,5.859,-28.320,11.719,-18.066
1692122700.976,10.254,7.812,-28.320,12.207,23.926
1692122700.979,20.508,11.719,-24.902,27.832,143.066
1692122700.983,29.297,5.859,-26.367,45.410,381.348
1692122700.987,26.855,4.395,-29.297,35.156,155.762
1692122700.991,29.785,9.277,-29.297,21.973,-193.848
1692122700.995,24.902,10.254,-27.832,22.949,-95.215
1692122700.999,26.367,12.207,-25.879,43.457,-48.828
1692122701.003,47.363,15.137,-24.902,64.453,-84.473
1692122701.007,56.152,12.695,-22.461,60.547,-63.965
1692122701.011,37.598,3.906,-23.926,47.852,-21.973
1692122701.015,23.438,-2.930,-28.809,38.086,-5.859
1692122701.019,21.973,-1.953,-29.297,39.551,-31.250
1692122701.023,27.832,-0.488,-28.320,37.598,24.902
1692122701.026,28.809,4.395,-28.320,36.133,274.902
1692122701.030,26.855,13.184,-28.809,21.484,210.449
1692122701.034,22.949,15.137,-25.391,6.348,-164.551
1692122701.038,22.461,17.090,-27.344,19.531,-131.836
1692122701.042,22.461,17.090,-27.832,33.691,-52.246
1692122701.042,25.879,13.672,-22.949,34.180,-71.777
1692122701.046,25.879,10.254,-23.438,25.391,-71.289
1692122701.050,10.742,3.418,-30.762,11.719,-57.617
1692122701.054,2.441,0.488,-35.156,12.695,-13.184
1692122701.058,6.836,-2.930,-29.785,20.996,2.930
1692122701.062,10.254,-7.812,-29.785,20.996,-14.160
1692122701.066,16.602,-3.906,-28.809,21.484,186.523
1692122701.069,21.484,1.953,-22.461,18.555,386.719
1692122701.073,21.973,2.441,-23.926,14.648,51.758
1692122701.077,33.203,11.230,-23.438,30.762,-218.262
1692122701.081,41.504,13.672,-22.949,47.852,15.137
1692122701.085,41.504,5.859,-29.297,36.621,247.070
1692122701.087,28.320,4.395,-27.832,20.996,-60.059
1692122701.091,20.508,3.418,-24.902,25.879,-220.703
1692122701.095,35.156,3.906,-22.461,42.480,-129.883
1692122701.099,45.410,10.254,-22.461,48.828,-125.000
1692122701.103,42.480,12.695,-24.414,30.762,-168.457
1692122701.107,33.691,15.137,-26.855,11.719,-142.090
1692122701.111,28.809,14.160,-27.344,26.367,142.578
1692122701.114,33.691,8.301,-29.297,48.828,251.953
1692122701.118,37.598,9.766,-29.297,45.898,-62.500
1692122701.122,37.109,14.648,-28.809,41.504,-112.793
1692122701.126,42.480,10.254,-33.203,35.156,14.160
1692122701.130,39.551,10.254,-29.297,26.855,-65.430
1692122701.133,38.086,13.184,-23.926,43.457,-194.336
1692122701.137,40.527,9.277,-25.879,57.617,-122.559
1692122701.141,44.434,6.348,-25.879,49.316,-33.203
1692122701.145,40.527,5.371,-22.461,35.645,-80.078
1692122701.149,32.715,3.906,-19.531,32.227,-142.578
1692122701.153,27.832,-1.953,-20.020,45.898,127.441
1692122701.157,29.785,-6.348,-18.555,59.570,336.914
1692122701.160,38.086,-4.395,-21.484,50.781,88.379
1692122701.164,27.344,13.184,-32.227,24.902,-35.156
1692122701.168,13.184,20.508,-39.062,6.348,72.266
1692122701.172,15.137,13.184,-35.645,11.230,39.551
1692122701.176,9.766,15.137,-34.180,14.648,-116.211
1692122701.192,11.719,15.137,-34.668,18.066,-187.988
1692122701.196,19.043,11.230,-30.762,21.484,6.348
1692122701.200,12.695,10.254,-28.809,22.461,263.184
1692122701.204,19.043,17.578,-30.273,21.973,42.480
1692122701.208,36.621,14.648,-28.809,31.250,-105.957
1692122701.212,40.039,5.859,-27.832,39.062,-35.156
1692122701.216,28.809,6.836,-34.180,23.438,-1.953
1692122701.219,9.766,5.371,-37.598,17.578,-110.352
1692122701.223,10.742,4.883,-37.109,26.855,-161.621
1692122701.227,23.926,5.859,-37.598,30.273,108.887
1692122701.231,30.273,8.789,-37.598,25.391,70.312
1692122701.235,41.992,8.789,-34.180,21.973,-112.793
1692122701.237,39.551,6.348,-29.785,18.555,-37.598
1692122701.241,29.785,11.719,-27.832,26.367,38.574
1692122701.245,32.227,14.160,-27.832,41.504,-20.996
1692122701.249,32.227,10.254,-26.367,40.527,-92.773
1692122701.253,30.273,8.789,-23.926,25.879,22.461
1692122701.257,23.926,11.719,-23.926,14.160,59.570
1692122701.261,24.414,14.648,-22.461,28.320,-21.484
1692122701.264,29.785,10.254,-20.508,43.457,8.301
1692122701.268,31.250,7.812,-22.949,41.992,84.473
1692122701.272,25.879,9.277,-28.320,34.180,310.059
1692122701.276,20.020,11.230,-30.273,14.160,171.387
1692122701.280,20.508,12.695,-28.809,14.160,-145.508
1692122701.284,22.949,10.254,-31.250,30.273,-136.230
1692122701.288,23.438,9.766,-31.738,32.715,-49.316
1692122701.292,23.438,11.230,-25.391,20.508,-49.805
1692122701.296,16.602,9.277,-22.949,12.695,-106.934
1692122701.300,3.418,2.930,-29.297,17.578,-0.977
1692122701.304,10.254,0.000,-30.273,23.438,91.797
1692122701.308,19.531,2.930,-27.344,27.344,-44.922
1692122701.311,17.090,-3.906,-27.344,25.391,-99.609
1692122701.315,18.066,-6.348,-20.996,32.227,173.828
1692122701.319,11.719,-0.977,-18.555,25.391,152.344
1692122701.323,16.602,0.000,-22.949,27.344,-194.336
1692122701.327,30.273,0.000,-21.484,41.992,-102.539
1692122701.327,32.715,1.953,-20.996,31.738,5.859
1692122701.331,22.461,4.883,-25.879,15.137,-121.582
1692122701.335,18.555,2.930,-29.297,14.648,-118.164
1692122701.339,26.855,-0.977,-33.691,24.414,37.109
1692122701.343,21.973,-2.441,-35.156,26.367,170.898
1692122701.347,22.461,1.465,-29.297,24.414,121.094
1692122701.351,17.090,-3.418,-34.180,15.137,14.160
1692122701.354,6.836,-11.230,-38.086,9.277,174.805
1692122701.358,16.602,-9.766,-35.156,26.367,541.504
1692122701.362,21.973,-5.371,-39.062,36.133,357.422
1692122701.366,7.812,-5.859,-37.109,25.391,-39.062
1692122701.370,9.766,-5.859,-34.668,6.348,-28.320
1692122701.372,17.090,-2.930,-42.969,-6.348,-17.578
1692122701.376,19.531,-3.906,-43.457,3.418,-90.332
1692122701.380,21.484,-0.977,-39.062,21.484,-51.758
1692122701.384,35.156,0.977,-38.574,22.461,-36.133
1692122701.388,29.297,-3.906,-34.668,5.859,-59.570
1692122701.392,8.789,-11.719,-37.598,-9.766,-2.441
1692122701.396,4.883,-14.648,-45.898,-2.441,-33.691
1692122701.399,18.555,-2.441,-40.039,28.809,224.121
1692122701.403,23.926,1.465,-32.227,33.691,380.859
1692122701.407,16.602,-5.371,-34.668,14.648,13.672
1692122701.411,20.020,-0.977,-34.180,15.137,-45.898
1692122701.415,23.926,1.953,-30.762,21.484,-27.344
1692122701.418,27.344,0.000,-35.156,24.902,-101.562
1692122701.422,40.527,-2.930,-38.086,28.320,-107.422
1692122701.426,41.992,-1.465,-36.133,22.461,-34.180
1692122701.430,28.320,4.883,-31.738,11.719,-41.016
1692122701.434,21.973,-0.977,-27.344,18.066,-145.996
1692122701.438,28.320,-3.906,-27.344,36.621,-68.848
1692122701.442,42.969,0.488,-26.367,40.527,207.520
1692122701.445,31.738,-3.418,-23.926,26.855,297.363
1692122701.449,15.137,-0.977,-24.902,9.766,-23.438
1692122701.453,23.438,3.906,-27.832,14.648,-163.574
1692122701.457,36.621,0.488,-28.809,32.227,50.781
1692122701.461,23.926,-4.883,-26.855,31.250,281.250
1692122701.462,15.137,-3.418,-28.320,18.066,36.621
1692122701.466,20.020,3.418,-30.273,11.230,-174.316
1692122701.470,17.578,4.395,-29.297,10.742,-132.812
1692122701.474,21.973,2.441,-32.227,22.949,-142.090
1692122701.478,35.156,3.418,-32.227,35.645,-83.008
1692122701.482,35.645,5.859,-30.762,21.484,0.977
1692122701.486,19.043,2.441,-30.273,4.395,227.539
1692122701.489,11.230,6.348,-31.250,-1.465,195.801
1692122701.493,9.277,7.324,-34.180,4.395,-81.543
1692122701.497,6.348,2.930,-32.227,24.902,-74.707
1692122701.501,6.836,0.000,-31.738,26.367,-19.531
1692122701.505,0.977,0.000,-33.691,13.672,7.812
1692122701.508,-3.418,3.906,-34.180,10.254,-110.840
1692122701.512,3.906,10.742,-32.715,20.996,-109.863
1692122701.516,9.277,13.184,-34.668,33.691,62.012
1692122701.520,7.812,6.836,-35.645,15.137,0.488
1692122701.524,7.812,5.859,-34.180,-2.930,-80.566
1692122701.528,11.230,8.789,-35.156,1.953,55.664
1692122701.532,18.066,2.441,-34.180,12.207,153.320
1692122701.535,26.855,-0.488,-28.320,26.855,36.621
1692122701.539,31.250,1.465,-28.320,22.461,-54.688
1692122701.543,29.297,4.395,-29.297,18.066,17.090
1692122701.547,15.137,11.719,-29.297,24.414,209.961
1692122701.551,9.277,13.184,-30.273,25.391,-17.090
1692122701.568,19.043,10.254,-27.344,37.109,-155.273
1692122701.572,32.227,8.789,-25.879,40.527,-4.395
1692122701.576,39.062,9.766,-26.367,33.203,16.113
1692122701.580,27.832,6.836,-27.344,25.879,-103.516
1692122701.584,20.020,0.977,-27.344,31.738,-158.691
1692122701.588,35.645,3.418,-29.785,58.594,229.492
1692122701.592,41.992,5.859,-27.832,55.664,435.059
1692122701.595,28.809,3.418,-25.879,27.344,-5.371
1692122701.599,18.066,8.301,-24.902,19.531,-142.090
1692122701.603,21.484,10.742,-26.855,22.949,10.254
1692122701.607,23.438,7.324,-29.297,28.809,-13.672
1692122701.611,21.484,5.859,-25.879,27.832,-99.121
1692122701.612,19.531,7.324,-23.926,22.461,-24.902
1692122701.616,17.578,4.395,-25.879,11.230,-16.602
1692122701.620,22.461,6.836,-31.738,9.277,-93.750
1692122701.624,27.832,9.766,-34.668,20.508,-104.980
1692122701.628,40.527,8.789,-35.645,26.367,8.789
1692122701.632,48.340,13.184,-34.180,28.320,157.227
1692122701.636,34.668,17.090,-32.227,15.625,23.438
1692122701.639,29.297,18.555,-31.250,15.137,-51.270
1692122701.643,34.668,16.113,-30.762,35.645,151.367
1692122701.647,37.109,13.672,-34.180,49.805,457.520
1692122701.651,41.504,17.578,-31.250,38.086,247.559
1692122701.655,31.738,23.438,-23.926,15.625,-176.758
1692122701.657,25.391,20.020,-26.367,16.602,-151.367
1692122701.661,26.855,11.719,-32.227,28.809,-93.750
1692122701.665,27.832,4.395,-29.297,32.715,-126.953
1692122701.669,30.273,3.906,-25.879,23.926,-149.414
1692122701.673,15.137,0.977,-28.809,19.531,-117.188
1692122701.677,2.930,-3.906,-33.691,18.555,-14.160
1692122701.681,16.602,2.441,-29.785,16.113,-26.367
1692122701.684,24.414,5.371,-26.367,26.855,-25.879
1692122701.688,14.648,4.883,-28.320,30.762,273.926
1692122701.692,6.836,9.766,-26.855,18.066,269.531
1692122701.696,7.324,14.648,-29.785,2.441,-98.145
1692122701.700,9.766,15.137,-31.738,12.695,-84.473
1692122701.702,28.320,17.090,-31.250,24.414,-8.789
1692122701.706,42.969,21.973,-31.738,15.137,-85.449
1692122701.710,30.273,19.043,-33.203,3.418,-135.254
1692122701.714,16.602,14.648,-31.250,3.906,-98.145
1692122701.718,25.391,15.137,-30.273,15.625,-42.480
1692122701.722,25.879,15.137,-29.297,26.855,-3.906
1692122701.726,11.719,16.602,-24.414,25.879,33.203
1692122701.729,14.160,15.625,-26.855,13.672,120.605
1692122701.733,14.648,13.184,-29.297,18.555,407.715
1692122701.737,16.602,17.090,-34.668,25.879,234.375
1692122701.741,24.902,15.625,-38.086,22.461,-104.980
1692122701.745,28.320,14.648,-31.738,23.438,-29.297
1692122701.748,19.043,12.207,-30.762,20.996,-7.812
1692122701.752,16.602,8.789,-32.715,13.184,-126.953
1692122701.756,17.090,11.719,-33.203,19.043,-128.906
1692122701.760,18.555,12.207,-37.598,34.668,-42.480
1692122701.764,25.391,8.789,-39.062,34.180,6.836
1692122701.768,31.250,11.230,-30.273,23.926,-3.906
1692122701.772,32.715,16.113,-27.832,10.742,-63.965
1692122701.775,36.621,15.137,-32.715,16.113,143.066
1692122701.779,43.457,8.301,-31.738,30.762,164.062
1692122701.783,37.109,4.883,-35.645,32.715,-129.395
1692122701.787,30.762,7.324,-33.691,29.785,-83.496
1692122701.791,20.996,6.348,-29.297,16.113,-70.312
1692122701.793,8.301,6.836,-29.297,8.301,-48.828
1692122701.797,13.184,4.883,-28.809,22.461,-80.078
1692122701.801,30.273,3.418,-27.832,37.598,-62.500
1692122701.805,22.949,1.465,-28.809,33.203,79.102
1692122701.809,10.742,-0.977,-27.344,20.020,8.789
1692122701.813,13.184,4.395,-24.414,16.602,-26.367
1692122701.817,19.043,1.953,-26.367,28.320,139.160
1692122701.820,20.020,5.371,-24.902,41.016,506.348
1692122701.824,21.973,9.277,-24.902,27.832,357.910
1692122701.828,18.066,4.395,-30.273,11.230,-128.906
1692122701.832,14.160,5.859,-31.738,12.207,-174.316
1692122701.836,22.461,5.859,-30.762,21.484,-149.902
1692122701.837,22.949,5.371,-33.691,32.227,-104.004
1692122701.841,27.832,8.301,-28.320,32.715,-40.527
1692122701.845,29.297,7.812,-26.855,20.508,-31.250
1692122701.849,18.066,7.812,-32.227,13.672,-9.766
1692122701.853,21.973,12.207,-28.809,27.344,-63.477
1692122701.857,30.762,12.207,-24.414,45.410,-71.777
1692122701.861,42.480,7.812,-22.461,50.293,272.949
1692122701.864,37.109,4.883,-25.879,35.156,354.492
1692122701.868,15.625,0.977,-27.832,18.066,-108.887
1692122701.872,17.578,-0.488,-26.855,24.902,-134.766
1692122701.876,27.832,7.324,-26.855,36.133,-12.695
1692122701.880,41.504,11.719,-24.414,36.133,-85.938
1692122701.882,41.504,12.207,-24.414,23.438,-135.254
1692122701.886,22.461,11.719,-27.832,18.066,-110.840
1692122701.890,18.555,7.812,-29.785,29.297,-97.656
1692122701.894,27.832,9.766,-36.621,38.574,-89.844
1692122701.898,25.879,14.648,-41.992,30.273,-88.867
1692122701.902,14.648,17.578,-38.574,11.719,63.477
1692122701.906,18.555,16.113,-36.133,2.441,183.594
1692122701.909,22.461,8.789,-38.086,11.230,-41.992
1692122701.913,23.438,9.766,-34.180,29.785,-57.617
1692122701.917,38.574,14.648,-28.809,41.504,126.953
1692122701.921,34.668,9.766,-34.668,29.297,373.535
1692122701.925,20.508,8.789,-32.715,13.672,166.992
1692122701.942,8.789,11.230,-31.738,17.090,-136.230
1692122701.946,17.090,13.184,-35.156,36.621,-61.035
1692122701.950,22.461,15.625,-33.203,42.480,-57.617
1692122701.954,21.973,14.648,-38.086,20.508,-116.699
1692122701.958,20.996,14.160,-39.062,8.789,-103.516
1692122701.962,14.648,13.672,-33.203,13.672,3.906
1692122701.966,32.227,15.625,-30.273,29.297,20.020
1692122701.969,46.387,20.508,-30.273,43.945,-23.438
1692122701.973,40.527,15.625,-32.227,30.762,-93.262
1692122701.977,28.809,7.324,-30.273,22.461,154.297
1692122701.981,22.461,5.859,-31.738,31.738,240.723
1692122701.985,20.020,6.836,-29.297,42.969,-98.633
1692122701.987,23.438,7.324,-23.438,48.340,-50.781
1692122701.991,25.879,3.418,-26.367,32.715,-15.625
1692122701.995,19.531,-1.953,-28.320,22.461,-83.496
1692122701.999,23.926,10.254,-33.203,29.297,-116.211
1692122702.003,49.316,15.625,-33.203,51.758,-78.613
1692122702.007,51.270,-1.953,-14.160,60.547,14.648
1692122702.011,13.672,-9.766,-6.348,30.273,7.812
1692122702.014,-0.488,-6.348,-11.230,5.371,-4.883
1692122702.018,2.441,-2.930,-11.230,9.766,99.121
1692122702.022,2.441,-4.883,-17.578,34.180,406.738
1692122702.026,10.254,-3.906,-17.090,48.340,335.938
1692122702.030,21.484,4.395,-6.348,43.457,-51.270
1692122702.032,20.020,0.977,-9.277,29.297,-21.973
1692122702.036,23.926,0.977,-13.672,24.414,8.301
1692122702.040,33.203,5.371,-10.742,39.062,-111.816
1692122702.044,34.180,3.418,-16.602,41.992,-103.027
1692122702.048,27.344,-0.488,-18.555,31.738,-46.387
1692122702.052,19.043,-2.441,-20.996,21.484,27.344
1692122702.056,10.254,-0.977,-21.973,16.113,64.453
1692122702.059,12.695,-4.395,-23.438,19.043,-41.016
1692122702.063,30.762,-8.301,-24.902,38.086,181.152
1692122702.067,38.574,-7.324,-26.855,44.922,253.906
1692122702.071,31.250,-4.395,-28.320,24.414,-104.980
1692122702.075,33.691,-0.977,-23.926,15.137,-126.953
1692122702.078,40.527,-0.977,-25.879,30.762,-31.738
1692122702.082,30.273,-2.930,-24.414,48.340,-34.180
1692122702.086,31.250,-2.441,-25.879,57.129,-110.840
1692122702.090,31.250,-4.883,-37.598,34.180,-55.664
1692122702.094,26.855,-7.812,-38.086,15.625,31.738
1692122702.098,24.414,-11.719,-33.203,26.367,-16.113
1692122702.102,19.043,-9.766,-30.762,41.992,-54.199
1692122702.105,20.508,-6.348,-29.297,49.805,5.859
1692122702.109,22.949,-4.883,-27.832,44.922,343.750
1692122702.113,16.602,0.977,-31.738,20.508,191.895
1692122702.117,12.695,1.465,-32.715,14.648,-208.008
1692122702.121,15.625,-3.906,-28.809,29.297,-142.090
1692122702.122,19.043,-10.254,-31.250,33.691,-78.125
1692122702.126,15.625,-17.578,-35.645,26.855,-154.785
1692122702.130,11.719,-19.531,-38.574,19.531,-187.500
1692122702.134,9.277,-17.578,-32.227,29.785,-94.238
1692122702.138,21.484,-12.207,-26.855,41.504,-47.852
1692122702.142,30.273,-0.488,-25.879,49.805,-60.059
1692122702.146,21.484,2.441,-19.531,42.480,-77.148
1692122702.149,37.598,6.836,-20.996,36.621,178.711
1692122702.153,45.410,12.207,-27.832,32.227,258.789
1692122702.157,38.086,7.812,-21.484,42.969,-83.496
1692122702.161,43.457,5.859,-17.090,50.293,-59.082
1692122702.165,33.203,7.324,-27.832,36.621,5.371
1692122702.167,27.832,7.812,-31.250,20.020,-97.168
1692122702.171,37.109,4.883,-27.832,14.648,-104.004
1692122702.175,28.809,1.465,-30.762,31.250,-50.293
1692122702.179,35.156,-1.465,-36.621,31.738,28.809
1692122702.183,42.480,6.836,-31.250,27.344,39.551
1692122702.187,22.949,12.207,-26.367,25.391,64.453
1692122702.191,13.672,9.766,-28.320,19.043,230.957
1692122702.194,20.020,11.230,-25.391,38.574,536.621
1692122702.198,35.156,12.695,-24.902,52.734,284.180
1692122702.202,34.180,15.625,-25.879,39.551,-128.418
1692122702.206,16.602,17.578,-25.879,24.414,17.090
1692122702.210,7.812,14.648,-30.273,14.160,97.656
1692122702.212,7.812,15.625,-32.715,13.672,-83.496
1692122702.216,19.043,17.090,-29.785,34.668,-99.609
1692122702.220,22.461,13.184,-29.297,34.668,-92.285
1692122702.224,20.996,12.695,-32.715,14.160,-67.383
1692122702.228,15.137,17.578,-30.762,8.789,-83.008
1692122702.232,12.207,14.160,-32.715,13.184,-98.145
1692122702.236,23.926,11.719,-30.762,25.391,184.082
1692122702.239,34.180,17.578,-28.320,24.902,188.965
1692122702.243,31.738,19.531,-33.203,12.695,-102.539
1692122702.247,24.414,20.996,-37.109,5.859,-74.219
1692122702.251,23.926,22.949,-40.039,6.836,-22.461
1692122702.255,28.809,19.531,-37.109,25.879,-65.430
1692122702.257,31.738,16.602,-33.203,34.668,-101.562
1692122702.261,29.297,18.066,-34.668,21.484,-51.270
1692122702.265,27.832,16.113,-35.156,10.254,-62.012
1692122702.269,26.855,13.184,-32.715,12.207,-117.676
1692122702.273,31.250,10.742,-31.738,27.344,-94.727
1692122702.277,41.992,8.789,-29.785,30.762,126.465
1692122702.281,29.785,6.836,-26.855,18.555,209.961
1692122702.284,24.902,11.230,-25.391,9.277,16.113
1692122702.288,33.691,11.719,-24.414,15.625,-65.430
1692122702.292,28.809,4.883,-23.926,28.320,-0.977
1692122702.296,34.180,0.977,-27.344,45.410,319.824
1692122702.300,36.621,5.371,-26.855,26.367,138.672
1692122702.317,20.020,10.742,-21.973,2.441,-173.340
1692122702.321,24.902,14.160,-18.555,8.301,-51.270
1692122702.325,33.691,13.184,-19.531,20.020,-3.418
1692122702.329,27.344,4.395,-20.996,33.203,-105.957
1692122702.333,35.645,4.395,-20.020,34.180,-132.812
1692122702.337,25.879,3.906,-19.531,23.926,12.207
1692122702.341,16.113,-2.441,-19.043,29.785,77.637
1692122702.344,31.738,3.418,-19.043,42.480,-50.293
1692122702.348,44.922,7.324,-20.020,45.410,-19.531
1692122702.352,36.621,0.977,-22.949,37.598,175.293
1692122702.356,18.066,0.977,-27.832,20.508,113.281
1692122702.360,11.719,7.324,-35.156,17.090,-156.250
1692122702.363,26.855,6.836,-38.086,23.438,-146.973
1692122702.367,41.016,2.930,-33.691,34.668,22.949
1692122702.371,39.551,3.906,-36.133,32.227,0.488
1692122702.375,23.438,2.930,-34.668,14.160,-99.121
1692122702.379,11.719,1.953,-32.715,14.648,-22.461
1692122702.383,16.113,5.859,-36.133,30.762,50.293
1692122702.387,23.926,13.184,-34.668,39.062,23.926
1692122702.390,25.879,16.113,-35.156,33.203,-27.344
1692122702.394,21.973,10.254,-30.273,25.879,70.801
1692122702.398,16.602,4.395,-26.855,24.414,165.527
1692122702.402,8.301,4.883,-32.715,23.438,-52.734
1692122702.406,17.090,11.719,-34.668,40.039,-179.199
1692122702.407,24.902,6.348,-33.691,45.410,82.520
1692122702.411,14.648,-0.488,-31.250,26.855,291.504
1692122702.415,4.395,3.906,-33.691,8.789,-54.688
1692122702.419,11.230,11.230,-31.738,19.531,-140.625
1692122702.423,12.695,13.184,-26.367,31.738,-1.953
1692122702.427,10.254,6.348,-26.367,25.879,49.316
1692122702.431,20.508,4.883,-26.367,30.762,-8.301
1692122702.434,11.230,10.742,-27.832,19.043,-102.539
1692122702.438,0.488,7.324,-33.203,8.789,-54.199
1692122702.442,10.254,-0.977,-35.645,25.879,-12.207
1692122702.446,20.020,-0.488,-32.715,31.250,-43.457
1692122702.450,14.160,5.859,-32.715,15.625,-62.500
1692122702.453,9.766,2.441,-29.785,8.301,105.957
1692122702.457,10.742,0.488,-20.508,16.113,62.988
1692122702.461,17.090,4.883,-18.066,29.297,-135.254
1692122702.465,30.273,8.301,-21.484,35.156,-99.121
1692122702.469,33.203,13.184,-20.996,22.461,-80.078
1692122702.473,24.902,17.578,-23.926,12.207,-101.562
1692122702.477,15.137,20.508,-28.809,18.066,-47.363
1692122702.480,20.020,17.578,-26.367,35.645,101.562
1692122702.484,26.367,8.789,-28.809,37.109,485.352
1692122702.488,25.879,8.301,-27.832,21.484,436.035
1692122702.492,20.020,15.625,-20.020,19.531,-20.020
1692122702.496,23.438,16.113,-17.578,20.508,-83.496
1692122702.497,33.203,9.277,-17.578,29.297,-82.031
1692122702.501,32.227,1.465,-21.484,29.297,-142.090
1692122702.505,33.691,6.836,-22.949,24.414,-131.836
1692122702.509,27.344,12.207,-25.879,17.578,-33.203
1692122702.513,24.414,9.766,-27.832,18.555,-29.297
1692122702.517,28.809,11.719,-25.391,28.809,-111.328
1692122702.521,40.527,11.719,-23.926,25.391,-53.223
1692122702.524,44.434,10.742,-21.973,24.902,213.379
1692122702.528,30.762,9.277,-22.461,21.484,184.082
1692122702.532,20.020,3.418,-25.879,12.207,-143.066
1692122702.536,16.113,6.836,-23.926,20.996,-119.141
1692122702.540,15.137,9.277,-21.973,38.086,9.766
1692122702.542,19.531,-2.930,-22.949,40.039,-10.742
1692122702.546,4.395,-14.648,-27.344,16.113,-84.961
1692122702.550,3.906,-7.324,-31.738,2.930,-2.441
1692122702.554,13.184,1.465,-29.785,16.602,49.805
1692122702.558,18.066,0.488,-26.367,28.809,-24.902
1692122702.562,35.156,3.906,-25.391,27.832,-16.602
1692122702.566,33.691,5.371,-31.250,20.508,115.723
1692122702.569,20.996,3.906,-31.250,17.578,285.156
1692122702.573,20.996,1.953,-29.297,16.602,144.043
1692122702.577,27.832,3.418,-30.273,21.973,-94.238
1692122702.581,27.832,2.930,-28.809,26.367,22.949
1692122702.585,19.531,-0.977,-34.180,13.184,127.441
1692122702.587,25.391,-1.465,-33.691,3.906,-101.074
1692122702.591,24.414,-2.930,-29.785,17.090,-94.238
1692122702.595,17.090,-6.836,-27.344,34.180,74.219
1692122702.599,32.715,-5.859,-23.438,37.598,38.574
1692122702.603,38.574,-1.465,-25.879,30.762,-119.141
1692122702.607,20.020,2.930,-23.926,23.926,-106.445
1692122702.611,25.879,5.371,-27.344,33.691,187.500
1692122702.614,33.691,9.766,-31.250,35.645,231.445
1692122702.618,38.086,10.742,-27.832,22.949,-136.719
1692122702.622,41.016,4.883,-30.762,20.508,-155.273
1692122702.626,15.137,5.371,-33.203,16.113,-62.988
1692122702.630,11.230,8.789,-31.250,20.020,-83.008
1692122702.633,26.367,10.254,-32.227,31.738,-128.418
1692122702.637,20.996,5.371,-30.762,37.598,35.645
1692122702.641,13.184,4.883,-28.320,29.297,154.297
1692122702.645,3.418,8.789,-28.809,20.996,-47.852
1692122702.649,4.883,9.766,-28.809,27.344,-123.047
1692122702.653,8.789,4.883,-31.250,37.109,130.859
1692122702.657,9.277,3.906,-31.250,36.621,264.648
1692122702.660,15.625,10.254,-29.297,23.926,79.590
1692122702.664,17.578,11.719,-27.832,4.395,-30.762
1692122702.668,15.137,12.207,-23.926,12.695,54.688
1692122702.672,7.812,7.812,-24.902,30.273,185.059
1692122702.676,10.742,6.836,-30.762,21.973,-62.012
1692122702.692,12.695,6.836,-28.320,16.113,-167.480
1692122702.696,8.301,2.441,-27.344,13.672,-67.383
1692122702.700,14.160,4.395,-28.320,16.602,-42.480
1692122702.704,24.902,3.418,-27.344,27.344,-133.789
1692122702.708,34.180,4.883,-26.855,33.203,-111.816
1692122702.712,35.156,8.301,-27.344,35.645,232.910
1692122702.716,29.785,4.883,-26.367,23.438,287.598
1692122702.719,27.832,4.395,-20.508,14.648,-87.891
1692122702.723,34.668,10.254,-16.602,42.969,-119.629
1692122702.727,43.457,6.836,-22.949,55.664,37.109
1692122702.731,38.574,2.441,-27.832,41.016,-31.250
1692122702.735,34.180,7.812,-27.344,28.320,-181.641
1692122702.737,25.879,10.742,-31.250,19.043,-147.461
1692122702.741,16.113,8.301,-36.621,20.996,-59.570
1692122702.745,28.320,6.348,-34.180,34.180,-59.570
1692122702.749,35.156,6.836,-29.785,39.551,-60.059
1692122702.753,32.715,3.906,-34.668,24.414,-6.348
1692122702.757,30.273,-1.465,-39.062,10.254,20.508
1692122702.761,28.320,0.000,-38.574,13.184,-51.270
1692122702.764,39.551,6.836,-43.457,30.762,-11.230
1692122702.768,46.875,5.371,-42.969,37.109,174.805
1692122702.772,40.039,3.906,-35.645,37.109,435.547
1692122702.776,37.598,4.395,-35.645,29.785,289.062
1692122702.780,30.762,3.418,-38.574,23.438,-59.570
1692122702.782,28.320,11.230,-34.668,35.645,-57.617
1692122702.786,25.879,9.277,-29.297,37.598,-99.609
1692122702.790,31.738,-5.859,-27.344,40.527,-180.176
1692122702.794,40.039,3.906,-32.715,41.992,-149.902
1692122702.798,26.855,19.043,-39.062,13.184,-141.113
1692122702.802,17.090,15.137,-41.016,6.836,-43.457
1692122702.806,7.324,18.066,-43.457,5.371,51.270
1692122702.809,-6.836,20.020,-43.457,-15.625,-36.133
1692122702.813,-10.742,20.508,-44.434,-11.719,237.793
1692122702.817,-4.883,21.973,-53.711,-11.230,295.410
1692122702.821,2.441,21.484,-50.781,-7.324,-109.375
1692122702.825,1.465,22.949,-40.039,9.277,-125.977
1692122702.827,-10.254,13.184,-42.480,0.977,-93.750
1692122702.831,-7.324,5.371,-40.039,-13.184,-129.395
1692122702.835,-0.977,9.277,-35.156,-10.254,-145.996
1692122702.839,-0.488,6.348,-34.668,8.789,-76.660
1692122702.843,11.719,3.906,-32.227,13.184,-78.125
1692122702.847,13.672,5.859,-32.227,6.836,-75.684
1692122702.851,1.953,2.441,-34.668,-2.441,-66.406
1692122702.854,3.418,4.395,-30.273,1.465,65.918
1692122702.858,5.859,2.441,-31.250,18.066,270.020
1692122702.862,9.766,3.906,-37.598,30.273,9.277
1692122702.866,14.648,4.883,-37.109,30.762,-189.453
1692122702.870,8.789,-0.488,-35.156,20.020,65.430
1692122702.872,10.742,2.441,-33.203,16.602,307.129
1692122702.876,23.438,4.395,-31.738,19.531,-31.250
1692122702.880,30.273,1.953,-30.762,36.621,-215.332
1692122702.884,25.879,0.000,-25.879,37.109,-128.418
1692122702.888,12.695,2.441,-23.438,13.184,-176.270
1692122702.892,7.324,9.277,-24.902,8.789,-115.234
1692122702.896,11.719,10.254,-26.855,17.578,-48.828
1692122702.899,25.879,9.766,-23.438,33.203,154.297
1692122702.903,30.273,14.160,-21.484,35.156,210.938
1692122702.907,23.438,13.184,-23.926,11.719,-99.609
1692122702.911,18.555,4.395,-24.902,2.930,-160.645
1692122702.915,17.578,2.930,-26.367,19.531,-106.445
1692122702.918,32.227,12.207,-25.879,37.109,-108.887
1692122702.922,35.645,14.648,-22.461,33.691,-63.965
1692122702.926,28.320,14.648,-18.066,27.832,24.414
1692122702.930,31.250,16.602,-20.508,26.855,56.152
1692122702.934,28.809,12.207,-23.438,40.527,12.207
1692122702.938,28.320,12.207,-22.949,59.570,-4.395
1692122702.942,36.621,17.578,-23.926,52.734,109.375
1692122702.945,30.273,16.113,-23.438,33.203,352.051
1692122702.949,22.949,16.113,-26.855,17.090,130.859
1692122702.953,18.555,17.090,-30.273,26.855,-133.789
1692122702.957,27.832,18.555,-26.367,51.758,43.945
1692122702.961,47.363,26.367,-27.832,58.105,74.707
1692122702.962,37.109,24.902,-31.738,41.016,-142.090
1692122702.966,16.602,18.066,-30.273,26.855,-168.457
1692122702.970,18.555,17.578,-29.785,34.668,-71.289
1692122702.974,30.273,16.602,-29.785,42.480,-75.684
1692122702.978,27.344,15.137,-30.273,40.527,-34.668
1692122702.982,22.949,17.578,-31.250,29.297,21.484
1692122702.986,26.367,22.461,-30.273,20.020,263.672
1692122702.989,21.973,23.438,-27.832,19.043,381.348
1692122702.993,21.973,22.461,-28.809,25.391,-32.715
1692122702.997,38.574,22.949,-29.785,37.109,-129.395
1692122703.001,33.203,21.484,-25.391,34.180,-59.082
1692122703.005,30.273,18.066,-24.902,19.043,-124.512
1692122703.008,24.902,15.137,-26.855,14.160,-106.445
1692122703.012,21.973,13.184,-28.809,30.273,12.207
1692122703.016,36.621,9.277,-23.926,49.805,57.129
1692122703.020,46.387,12.695,-19.043,49.316,-7.812
1692122703.024,42.480,14.160,-21.484,32.715,-56.641
1692122703.028,30.273,13.184,-18.066,35.156,141.602
1692122703.032,32.715,14.648,-14.160,54.688,319.336
1692122703.035,50.293,17.578,-23.438,59.082,112.793
1692122703.039,61.035,17.578,-28.809,60.059,-2.930
1692122703.043,48.340,11.719,-28.320,43.945,138.672
1692122703.047,33.691,9.766,-24.414,31.738,416.992
1692122703.051,32.227,9.766,-21.973,47.852,191.406
1692122703.067,54.199,8.789,-20.508,51.270,-182.617
1692122703.071,51.758,8.789,-19.531,39.551,-130.371
1692122703.075,37.598,4.883,-17.578,35.156,-143.066
1692122703.079,41.504,6.836,-16.113,42.480,-269.531
1692122703.083,40.527,3.418,-21.484,40.039,-249.512
1692122703.087,42.969,0.977,-24.414,42.480,-28.320
1692122703.091,39.551,7.812,-27.344,45.898,20.996
1692122703.094,32.715,10.742,-29.297,33.691,-88.379
1692122703.098,24.414,15.137,-26.855,28.320,-162.109
1692122703.102,21.973,19.043,-24.414,46.387,141.113
1692122703.106,20.508,18.066,-27.344,57.617,229.980
1692122703.110,21.973,15.625,-30.762,45.898,-114.258
1692122703.112,34.668,16.602,-25.391,36.621,-109.375
1692122703.116,31.250,14.648,-24.414,25.879,-30.273
1692122703.120,26.855,9.277,-31.738,22.949,-66.895
1692122703.124,36.133,10.742,-31.738,35.156,-139.160
1692122703.128,39.551,16.113,-26.367,43.457,-65.430
1692122703.132,44.922,17.578,-27.832,34.668,96.680
1692122703.136,41.504,16.602,-34.180,13.672,47.363
1692122703.139,24.902,10.742,-36.621,12.695,-83.984
1692122703.143,27.832,10.254,-30.273,36.621,8.301
1692122703.147,29.785,10.254,-28.320,43.945,359.863
1692122703.151,20.020,7.812,-31.738,14.160,214.844
1692122703.155,15.625,11.719,-29.785,-1.465,-145.020
1692122703.157,13.672,4.883,-24.902,21.484,1.953
1692122703.161,34.180,-2.930,-20.508,51.758,16.113
1692122703.165,54.199,17.090,-28.809,53.711,-58.594
1692122703.169,43.945,27.832,-38.574,27.832,-91.309
1692122703.173,25.879,24.902,-36.621,-1.465,-121.094
1692122703.177,22.461,21.973,-44.434,-0.977,-6.348
1692122703.181,33.691,7.812,-43.945,19.043,42.969
1692122703.184,24.414,5.371,-38.574,16.602,-76.660
1692122703.188,20.996,8.301,-40.527,11.719,102.051
1692122703.192,17.578,2.930,-34.668,6.836,145.020
1692122703.196,4.883,-0.977,-24.902,3.906,-151.855
1692122703.200,19.043,-4.883,-22.949,21.973,-63.965
1692122703.203,31.738,-2.441,-26.855,30.762,-1.953
1692122703.207,22.949,0.488,-28.320,29.297,-56.641
1692122703.211,18.555,0.977,-32.227,23.438,-86.426
1692122703.215,24.902,5.859,-31.250,23.926,-41.016
1692122703.219,20.020,5.859,-31.250,32.227,57.617
1692122703.223,24.414,1.953,-35.645,37.598,131.836
1692122703.227,29.297,2.441,-33.691,34.668,78.125
1692122703.230,17.578,11.719,-28.809,24.902,41.992
1692122703.234,11.230,11.719,-26.367,19.531,306.152
1692122703.238,14.648,5.859,-30.273,17.578,195.312
1692122703.242,26.855,6.348,-30.762,27.832,-100.586
1692122703.246,29.785,2.441,-30.273,28.320,-61.035
1692122703.247,19.043,-0.977,-33.203,9.766,-78.125
1692122703.251,15.625,4.883,-31.250,9.766,-131.348
1692122703.255,23.438,5.371,-34.668,11.719,-86.914
1692122703.259,20.996,1.465,-39.062,15.137,-25.391
1692122703.263,18.066,4.395,-38.086,22.949,17.090
1692122703.267,15.137,9.277,-40.039,6.348,-47.363
1692122703.271,6.836,1.953,-41.504,-2.930,-11.719
1692122703.274,14.160,2.930,-36.133,21.973,275.879
1692122703.278,19.043,9.277,-33.691,31.738,299.316
1692122703.282,14.648,5.859,-37.109,22.949,-61.523
1692122703.286,19.531,7.324,-36.133,23.438,-168.945
1692122703.290,13.672,0.000,-39.551,17.090,-89.355
1692122703.292,7.324,0.000,-36.621,15.625,-68.359
1692122703.296,13.184,7.812,-31.738,18.066,-97.168
1692122703.300,13.184,7.812,-36.133,26.855,-83.496
1692122703.304,17.090,8.301,-40.039,12.695,-51.270
1692122703.308,16.113,5.859,-39.062,-2.930,-51.758
1692122703.312,16.602,3.906,-37.109,14.648,8.301
1692122703.316,12.207,6.348,-38.086,23.438,100.586
1692122703.319,22.949,13.672,-31.250,33.203,427.734
1692122703.323,41.504,14.160,-28.809,38.574,369.629
1692122703.327,36.133,12.207,-30.273,20.996,-93.262
1692122703.331,34.668,7.324,-29.785,18.555,-27.832
1692122703.335,30.273,0.977,-30.762,23.926,156.738
1692122703.337,24.902,4.883,-32.227,27.832,-45.410
1692122703.341,19.531,7.324,-31.738,24.902,-158.691
1692122703.345,15.625,6.348,-29.785,14.160,-128.418
1692122703.349,20.020,-1.953,-31.250,9.766,-153.809
1692122703.353,37.109,1.953,-27.832,20.508,-147.949
1692122703.357,49.805,12.695,-25.879,38.574,-35.156
1692122703.361,35.156,12.207,-24.902,37.598,259.766
1692122703.364,20.020,8.789,-27.344,27.344,245.117
1692122703.368,12.695,7.324,-30.273,14.648,-153.320
1692122703.372,18.066,7.324,-30.273,26.367,-111.816
1692122703.376,34.180,7.812,-30.762,36.621,72.266
1692122703.380,41.016,9.277,-29.785,24.414,-37.109
1692122703.397,31.738,12.207,-31.738,9.766,-163.574
1692122703.401,14.648,11.230,-33.203,9.277,-107.422
1692122703.405,12.695,10.742,-33.691,23.926,-72.266
1692122703.409,26.367,11.230,-33.203,34.180,-95.215
1692122703.413,32.715,5.371,-30.273,38.574,-114.258
1692122703.417,37.109,3.906,-29.785,33.691,43.945
1692122703.421,36.621,5.371,-31.250,25.391,194.824
1692122703.424,26.855,6.836,-33.203,25.879,48.340
1692122703.428,27.832,7.324,-29.297,28.320,-28.809
1692122703.432,26.367,2.930,-29.785,28.320,119.629
1692122703.436,16.602,-1.465,-32.227,23.438,236.328
1692122703.440,2.441,-4.395,-33.203,15.625,0.977
1692122703.429,1.953,-7.324,-29.297,20.020,-54.688
1692122703.433,25.879,-6.836,-26.367,29.297,56.641
1692122703.437,31.738,-4.883,-31.250,24.414,13.672
1692122703.441,20.020,-9.277,-37.598,10.254,-160.645
1692122703.445,10.254,-9.766,-36.133,4.395,-199.219
1692122703.449,0.977,-10.742,-31.738,15.625,-22.949
1692122703.453,11.230,-6.836,-34.180,30.273,71.777
1692122703.456,13.672,-1.465,-35.156,31.738,-35.645
1692122703.460,11.230,-6.348,-33.691,20.020,-99.121
1692122703.464,12.207,-12.695,-35.645,13.672,157.715
1692122703.468,11.230,-7.812,-33.691,14.160,199.707
1692122703.472,14.648,-0.977,-28.809,22.949,-96.680
1692122703.488,32.227,-1.465,-24.902,34.668,-93.750
1692122703.492,26.367,-2.930,-25.879,25.391,-61.035
1692122703.496,5.859,1.953,-32.715,12.695,-101.074
1692122703.500,13.184,2.441,-30.762,14.648,-201.172
1692122703.504,27.832,3.418,-26.855,29.297,-23.438
1692122703.508,31.738,8.789,-30.762,44.922,246.582
1692122703.512,35.156,12.207,-28.809,37.109,24.414
1692122703.515,44.434,12.695,-28.320,21.973,-130.859
1692122703.519,33.203,10.254,-33.691,23.926,-1.465
1692122703.523,27.344,7.324,-33.691,42.480,265.137
1692122703.527,30.273,4.883,-30.273,38.574,90.820
1692122703.531,21.973,-1.465,-30.273,24.902,-145.020
1692122703.532,20.508,-4.395,-31.738,20.508,-67.871
1692122703.536,20.996,-0.488,-27.832,20.508,-74.219
1692122703.540,24.902,1.465,-23.926,30.762,-96.191
1692122703.544,30.762,6.348,-18.555,43.457,-60.547
1692122703.548,35.645,5.859,-20.996,40.039,12.695
1692122703.552,33.203,-0.488,-29.297,27.344,65.430
1692122703.556,25.391,1.465,-23.438,33.691,95.703
1692122703.559,20.508,3.418,-23.438,39.062,73.242
1692122703.563,24.902,-2.441,-33.691,48.828,298.828
1692122703.567,21.973,-5.859,-37.598,46.875,376.953
1692122703.571,15.625,-1.465,-36.133,20.508,-12.695
1692122703.575,12.695,-0.488,-30.762,10.254,-104.980
1692122703.577,17.578,-0.977,-29.785,19.531,-12.207
1692122703.581,48.828,14.160,-40.527,39.551,-32.227
1692122703.585,65.918,9.766,-36.621,55.664,-61.035
1692122703.589,33.691,-12.695,-17.090,34.668,-9.766
1692122703.593,-0.488,-10.254,-7.812,9.277,-1.465
1692122703.597,-1.465,-3.906,-11.230,18.066,23.438
1692122703.601,17.090,-0.977,-10.254,42.969,105.957
1692122703.604,21.973,7.324,-5.371,40.527,218.262
1692122703.608,22.949,7.812,-3.906,32.227,537.109
1692122703.612,14.648,-0.488,-6.836,21.484,381.836
1692122703.616,10.742,0.488,-11.230,15.625,-68.359
1692122703.620,26.855,2.441,-16.113,30.762,-10.742
1692122703.637,24.902,6.836,-20.020,27.832,-31.250
1692122703.641,7.812,6.836,-25.879,11.230,-123.047
1692122703.645,9.277,2.441,-23.438,0.977,-166.504
1692122703.649,11.230,3.906,-16.602,16.602,-151.367
1692122703.653,9.277,5.859,-21.973,26.855,-49.316
1692122703.657,10.254,-0.977,-26.367,23.926,36.621
1692122703.661,11.719,-6.348,-25.879,14.648,15.625
1692122703.664,19.531,-2.930,-27.344,7.324,142.090
1692122703.668,18.555,0.977,-26.855,18.555,141.113
1692122703.672,11.230,4.395,-23.926,33.203,-98.633
1692122703.676,20.996,3.906,-23.926,36.621,-49.316
1692122703.680,28.320,3.418,-22.461,28.809,13.184
1692122703.667,27.832,4.395,-21.973,18.066,-95.703
1692122703.671,22.949,4.395,-23.926,16.602,-158.203
1692122703.675,17.090,3.418,-26.855,25.879,-36.133
1692122703.679,14.648,1.465,-24.902,31.738,0.977
1692122703.683,10.254,-5.859,-23.438,21.973,-60.059
1692122703.687,14.648,-10.254,-25.391,9.766,-63.477
1692122703.691,15.625,-9.277,-26.367,22.461,82.031
1692122703.694,19.043,-8.789,-26.855,33.691,153.809
1692122703.698,27.344,-9.766,-26.855,35.156,-2.930
1692122703.702,32.715,-3.906,-28.809,36.133,-94.238
1692122703.706,30.273,0.000,-28.809,34.180,5.371
1692122703.710,27.832,-4.883,-29.785,33.203,358.887
1692122703.713,29.297,-5.371,-30.273,29.297,246.094
1692122703.717,28.809,4.395,-26.855,34.668,-98.633
1692122703.721,27.344,2.930,-24.902,40.039,-37.109
1692122703.725,29.785,-7.812,-28.320,29.785,9.277
1692122703.729,20.020,-9.766,-28.320,20.020,-150.391
1692122703.733,23.926,-8.789,-25.391,22.949,-148.926
1692122703.737,48.340,-6.836,-26.855,39.062,225.098
1692122703.740,37.598,0.488,-21.973,43.945,259.277
1692122703.744,14.648,5.371,-22.949,21.484,-107.910
1692122703.748,20.996,1.953,-22.949,6.348,-160.156
1692122703.752,21.973,0.488,-23.926,17.578,-115.723
1692122703.756,14.160,3.906,-32.227,26.855,-73.730
1692122703.757,27.344,4.395,-30.273,23.438,-104.492
1692122703.761,27.832,1.953,-25.879,15.625,-119.141
1692122703.765,17.090,0.977,-27.832,14.160,-62.500
1692122703.769,21.484,-4.883,-32.715,32.227,-50.293
1692122703.773,24.902,-11.719,-31.250,42.480,-70.312
1692122703.777,31.738,-11.719,-25.391,44.434,64.453
1692122703.781,34.180,-8.789,-23.926,45.410,390.625
1692122703.784,24.414,-6.836,-26.855,30.762,242.188
1692122703.788,16.602,-4.883,-28.320,22.461,-71.777
1692122703.792,25.391,-2.930,-25.391,32.715,-24.414
1692122703.796,39.062,-1.953,-25.391,43.945,13.184
1692122703.800,33.691,-0.977,-26.855,34.180,-108.398
1692122703.817,26.855,-2.441,-27.344,20.020,-177.734
1692122703.821,24.414,1.465,-25.879,33.203,-2.441
1692122703.825,23.926,5.859,-24.414,40.527,77.148
1692122703.829,31.738,7.812,-23.438,46.387,-100.098
1692122703.833,29.297,3.418,-23.926,38.574,-102.051
1692122703.837,16.113,-0.977,-20.996,15.625,39.062
1692122703.841,14.648,1.953,-24.414,12.207,83.008
1692122703.844,25.391,0.488,-27.344,26.367,63.477
1692122703.848,33.691,-0.488,-26.367,36.133,13.672
1692122703.852,26.855,5.371,-24.902,35.645,136.230
1692122703.856,22.949,7.812,-24.414,21.973,188.965
1692122703.860,20.508,5.859,-28.809,6.836,-125.000
1692122703.862,20.996,4.883,-33.691,15.625,-111.328
1692122703.866,27.344,6.348,-31.738,23.438,4.883
1692122703.870,19.531,5.859,-31.250,16.113,-41.504
1692122703.874,16.602,8.789,-30.273,2.930,-123.535
1692122703.878,21.484,11.719,-30.273,8.789,-114.746
1692122703.882,21.973,12.695,-29.297,21.973,-83.008
1692122703.886,24.414,16.602,-26.855,30.762,-110.352
1692122703.889,28.320,12.207,-31.738,22.949,-139.160
1692122703.893,24.414,12.207,-37.598,5.371,-35.156
1692122703.897,19.531,14.160,-38.086,15.625,305.176
1692122703.901,11.719,12.207,-34.180,32.227,262.207
1692122703.905,18.066,18.555,-28.320,33.203,-125.000
1692122703.908,33.203,28.320,-28.320,35.156,-188.477
1692122703.912,28.809,20.996,-27.832,15.625,-175.781
1692122703.916,25.391,12.207,-29.297,0.000,-191.895
1692122703.920,14.648,20.020,-30.273,8.301,-145.020
1692122703.924,5.371,20.996,-24.414,18.555,-94.238
1692122703.928,14.160,13.672,-27.832,18.066,-57.617
1692122703.932,13.184,11.230,-34.668,10.254,-61.523
1692122703.935,4.883,11.719,-34.668,1.465,-115.723
1692122703.939,7.324,9.766,-31.250,3.418,111.816
1692122703.943,25.391,9.277,-29.297,23.926,213.867
1692122703.947,28.809,9.277,-26.855,32.227,-51.270
1692122703.951,24.414,9.766,-24.414,22.949,-66.406
1692122703.952,22.949,12.207,-26.855,19.043,47.852
1692122703.956,20.508,8.301,-26.855,30.273,-18.555
1692122703.960,16.113,2.930,-28.809,29.785,-121.582
1692122703.964,20.996,1.953,-30.762,21.973,-68.359
1692122703.968,27.344,3.418,-29.297,17.090,-26.367
1692122703.972,15.625,-1.465,-29.785,5.859,-34.180
1692122703.976,9.766,-7.812,-29.297,18.555,-55.176
1692122703.979,29.785,-4.395,-30.273,39.551,62.012
1692122703.983,31.738,-0.977,-27.832,47.363,424.805
1692122703.987,18.555,2.441,-27.832,39.551,313.477
1692122703.991,16.113,5.371,-31.250,23.438,-121.094
1692122703.995,15.625,5.859,-32.227,29.785,-167.969
1692122703.998,12.207,4.883,-39.062,40.527,-56.152
1692122704.002,7.812,4.395,-41.504,32.715,-41.992
1692122704.006,10.742,7.812,-36.133,26.367,-135.254
1692122704.010,10.254,12.695,-32.227,17.578,46.875
1692122704.014,9.766,16.602,-28.320,13.672,145.996
1692122704.018,25.879,19.531,-27.832,29.297,52.734
1692122704.022,31.738,18.555,-32.715,31.738,0.977
1692122704.025,23.438,16.113,-35.645,24.414,167.480
1692122704.029,17.578,12.695,-32.715,17.090,218.750
1692122704.033,15.137,8.789,-28.809,12.695,-120.117
1692122704.037,27.832,7.324,-28.320,29.785,-116.211
1692122704.041,34.180,4.395,-34.668,39.062,-1.465
1692122704.042,27.344,4.883,-38.574,29.297,-91.309
1692122704.046,28.809,11.719,-36.133,20.996,-179.688
1692122704.050,28.809,15.625,-34.180,20.508,-116.211
1692122704.054,21.973,10.254,-31.738,25.391,18.555
1692122704.058,34.180,6.836,-26.367,35.645,-16.113
1692122704.062,46.387,0.000,-26.855,29.785,16.113
1692122704.066,30.762,-5.371,-28.320,27.344,81.543
1692122704.069,25.391,-0.977,-29.297,35.645,381.348
1692122704.073,34.180,0.488,-35.156,28.809,380.859
1692122704.077,34.668,-3.906,-35.645,22.949,-30.762
1692122704.081,33.203,-2.441,-37.109,25.391,-33.691
1692122704.085,20.996,3.418,-34.668,19.043,-99.121
1692122704.087,12.695,4.395,-29.785,17.090,-199.707
1692122704.091,16.602,4.883,-29.297,37.109,-116.699
1692122704.095,24.902,4.883,-29.785,39.062,-39.062
1692122704.099,29.297,4.395,-30.762,22.461,-47.363
1692122704.103,24.902,7.324,-31.250,20.996,-81.055
1692122704.107,13.184,8.789,-28.320,13.672,-15.625
1692122704.111,15.137,8.301,-29.297,26.367,285.156
1692122704.114,23.438,3.418,-30.762,41.992,328.613
1692122704.118,29.785,-0.977,-30.273,29.785,-29.297
1692122704.122,35.156,1.953,-30.762,21.484,-170.898
1692122704.126,23.438,4.883,-32.715,8.789,-113.281
1692122704.130,14.648,2.441,-34.180,9.277,-64.941
1692122704.147,17.090,-1.465,-35.645,18.066,-136.719
1692122704.151,22.461,4.883,-34.180,25.879,-104.492
1692122704.155,18.555,10.742,-28.809,20.996,-53.711
1692122704.159,15.625,5.371,-28.320,8.301,-97.168
1692122704.163,18.555,1.465,-28.809,9.766,-121.094
1692122704.167,22.461,0.977,-28.320,34.668,49.805
1692122704.171,40.039,8.301,-28.809,54.199,206.055
1692122704.174,37.109,7.324,-35.156,23.438,82.520
1692122704.178,12.695,1.953,-42.969,9.766,39.551
1692122704.182,22.949,6.348,-39.551,30.273,112.793
1692122704.186,41.992,3.906,-34.180,39.551,332.520
1692122704.190,50.781,6.348,-33.691,31.738,158.203
1692122704.192,51.758,10.742,-27.832,32.227,-210.449
1692122704.196,28.320,3.418,-27.344,31.738,-165.527
1692122704.200,16.602,5.859,-31.738,29.785,-136.230
1692122704.204,17.090,14.160,-31.250,42.480,-214.355
1692122704.208,22.461,14.648,-30.762,41.016,-148.438
1692122704.212,26.367,19.043,-33.203,29.785,52.246
1692122704.216,22.949,17.090,-35.156,18.555,39.551
1692122704.219,23.926,12.695,-34.180,16.602,-102.539
1692122704.223,27.344,9.277,-33.203,30.273,-134.277
1692122704.227,31.738,8.301,-32.715,40.039,168.945
1692122704.231,30.762,11.719,-30.762,31.250,209.473
1692122704.235,22.949,11.719,-33.203,11.719,-99.609
1692122704.237,21.484,11.230,-29.297,16.113,-91.797
1692122704.241,17.578,10.254,-27.832,31.250,31.738
1692122704.245,20.996,9.277,-31.738,36.621,-19.531
1692122704.249,36.621,12.695,-29.785,33.203,-118.652
1692122704.253,23.926,13.184,-30.762,21.973,-86.426
1692122704.257,9.766,12.207,-31.738,19.531,-21.973
1692122704.261,14.648,13.672,-30.273,24.414,-33.203
1692122704.264,20.996,6.836,-28.320,34.180,-39.062
1692122704.268,23.926,0.000,-25.879,32.715,80.078
1692122704.272,14.160,0.488,-28.809,36.621,392.578
1692122704.276,17.578,4.883,-26.855,27.832,236.328
1692122704.280,23.438,7.324,-24.414,20.996,-111.328
1692122704.283,18.555,10.742,-26.855,36.133,-71.289
1692122704.287,24.902,6.348,-29.785,38.086,0.488
1692122704.291,28.320,0.977,-30.762,24.414,-78.613
1692122704.295,20.996,5.859,-28.809,23.438,-151.855
1692122704.299,21.484,1.953,-29.785,28.320,53.711
1692122704.303,34.668,-0.977,-34.668,26.367,97.168
1692122704.307,36.133,3.418,-35.156,28.320,1.465
1692122704.310,27.832,4.883,-34.180,24.414,-37.598
1692122704.314,24.414,2.930,-36.621,20.020,119.141
1692122704.318,20.020,0.977,-34.668,26.367,166.992
1692122704.322,16.602,-1.465,-32.715,37.109,-124.512
1692122704.326,23.926,-2.930,-32.227,39.062,-110.840
1692122704.342,25.879,-4.883,-33.203,25.391,-40.527
1692122704.346,21.973,-3.418,-31.250,16.602,-46.387
1692122704.350,25.391,-2.441,-25.391,23.438,-48.828
1692122704.354,29.785,-0.488,-25.879,46.875,41.016
1692122704.358,32.227,6.836,-25.391,49.805,97.168
1692122704.362,30.762,10.742,-25.879,31.250,28.320
1692122704.366,26.855,7.812,-25.879,24.414,3.906
1692122704.369,27.832,7.812,-26.367,24.902,40.039
1692122704.373,23.926,9.277,-27.344,32.715,367.676
1692122704.377,23.438,6.836,-29.785,36.133,326.172
1692122704.381,27.344,6.348,-33.203,20.996,-112.305
1692122704.385,23.926,3.418,-38.574,-1.953,-123.535
1692122704.372,24.414,0.977,-41.016,-1.465,-70.312
1692122704.376,21.973,3.906,-37.598,19.043,-141.113
1692122704.380,26.855,1.465,-35.156,27.832,-145.508
1692122704.384,28.320,2.930,-32.715,30.273,-84.961
1692122704.388,18.066,1.953,-38.574,22.461,-91.309
1692122704.392,14.648,-9.766,-37.109,11.230,-78.613
1692122704.396,23.438,-8.301,-24.414,25.391,67.871
1692122704.399,32.227,0.977,-22.461,34.180,175.781
1692122704.403,33.203,-0.977,-28.809,30.762,43.945
1692122704.407,31.738,-7.324,-32.715,18.555,-112.305
1692122704.411,24.414,-7.324,-35.645,12.207,-200.684
1692122704.415,31.738,-3.906,-38.086,35.156,81.543
1692122704.417,42.969,1.953,-32.715,44.922,259.277
1692122704.421,34.668,-0.488,-27.832,28.809,-91.797
1692122704.425,32.227,-3.418,-29.297,22.461,-118.164
1692122704.429,26.367,-1.465,-30.762,11.719,-44.434
1692122704.433,20.996,-1.465,-32.227,10.254,-95.703
1692122704.437,24.902,1.465,-33.203,28.320,-85.449
1692122704.441,20.996,4.883,-27.832,31.738,62.500
1692122704.444,12.207,7.324,-23.926,22.461,407.715
1692122704.448,0.488,2.930,-25.391,13.184,269.531
1692122704.452,2.441,-3.906,-29.297,19.043,-166.992
1692122704.456,12.695,-5.371,-32.227,28.809,-0.488
1692122704.460,15.625,0.000,-29.785,24.414,123.535
1692122704.463,14.160,9.766,-26.367,16.113,-137.207
1692122704.467,6.348,6.348,-30.273,5.859,-203.613
1692122704.471,10.254,1.953,-33.691,9.766,-47.852
1692122704.475,15.137,6.836,-38.086,21.973,27.344
1692122704.479,14.160,9.766,-36.621,27.832,-22.949
1692122704.483,21.484,14.648,-29.785,24.902,-84.961
1692122704.487,22.461,14.160,-27.832,20.020,191.406
1692122704.490,12.695,13.184,-30.762,24.902,230.469
1692122704.494,18.066,14.160,-35.645,30.762,-110.352
1692122704.498,27.832,20.020,-32.715,35.156,-104.980
1692122704.502,33.691,17.090,-30.762,22.461,-71.777
1692122704.506,26.855,5.859,-31.738,1.953,-37.598
1692122704.508,14.648,1.953,-36.621,2.930,-93.750
1692122704.512,18.066,-0.488,-42.969,16.113,-61.523
1692122704.516,20.020,3.906,-40.039,23.926,50.781
1692122704.520,6.836,8.789,-37.109,13.184,-30.273
1692122704.524,-1.465,6.836,-33.203,11.230,-144.043
1692122704.528,3.906,5.859,-30.273,5.859,-5.371
1692122704.532,3.906,-0.977,-39.551,8.301,399.902
1692122704.535,14.160,-4.883,-38.574,19.043,278.320
1692122704.539,17.578,1.953,-33.691,3.906,-106.445
1692122704.543,14.160,6.348,-36.621,-2.930,-23.438
1692122704.547,6.836,8.301,-39.551,0.488,93.750
1692122704.551,8.789,12.695,-38.574,6.348,-83.984
1692122704.554,18.066,10.742,-34.180,17.578,-146.484
1692122704.558,21.973,2.930,-34.668,19.531,30.273
1692122704.562,14.160,0.977,-36.621,7.324,88.867
1692122704.566,5.859,-3.418,-33.203,3.418,-75.195
1692122704.570,10.742,-2.441,-32.715,23.438,-140.137
1692122704.574,10.742,-3.906,-27.344,41.992,218.750
1692122704.578,5.371,-6.836,-29.785,32.715,378.418
1692122704.581,6.836,-2.930,-35.156,12.207,-32.715
1692122704.585,15.137,1.465,-30.762,3.418,-165.039
1692122704.589,16.113,3.418,-28.809,9.766,-27.344
1692122704.593,12.695,4.395,-32.715,19.043,12.695
1692122704.597,15.625,3.418,-39.062,18.066,-82.031
1692122704.612,15.137,0.977,-39.062,12.695,-77.637
1692122704.616,8.789,-1.465,-39.062,4.395,-11.230
1692122704.620,16.113,-6.836,-41.016,14.160,-1.953
1692122704.624,20.020,-7.324,-39.551,33.691,-94.727
1692122704.628,14.648,-5.371,-34.180,36.133,40.527
1692122704.632,13.672,-5.371,-30.762,22.461,211.426
1692122704.636,10.742,-6.348,-36.133,2.441,48.340
1692122704.639,13.672,-1.953,-37.109,10.254,-17.090
1692122704.643,22.949,-2.441,-32.227,36.621,47.852
1692122704.647,17.578,-2.930,-29.297,55.176,290.527
1692122704.651,15.137,5.371,-34.668,38.086,107.910
1692122704.655,19.531,7.812,-34.668,17.090,-225.586
1692122704.657,11.230,10.254,-29.785,27.832,-126.465
1692122704.661,19.043,9.277,-36.133,31.250,-96.191
1692122704.665,25.391,8.301,-41.016,27.832,-106.445
1692122704.669,22.949,16.113,-36.133,22.949,-90.820
1692122704.673,28.809,18.555,-31.738,13.672,-88.379
1692122704.677,18.555,8.301,-39.551,14.160,8.789
1692122704.681,11.719,3.418,-42.969,28.320,-8.789
1692122704.684,20.996,5.371,-36.621,30.762,-39.062
1692122704.688,29.297,4.883,-32.227,24.902,235.840
1692122704.692,16.602,2.441,-31.738,18.555,340.820
1692122704.696,14.160,10.742,-34.668,20.996,5.859
1692122704.700,30.273,12.695,-35.645,35.156,-45.898
1692122704.702,37.109,3.418,-33.203,33.691,33.203
1692122704.706,32.227,0.488,-33.691,29.297,24.414
1692122704.710,21.484,1.953,-32.227,24.902,-5.371
1692122704.714,23.926,7.812,-32.227,23.438,8.789
1692122704.718,26.855,6.348,-40.039,31.250,23.438
1692122704.722,39.551,0.000,-45.898,48.340,41.992
1692122704.726,36.621,-4.883,-42.480,34.180,28.320
1692122704.729,13.672,-12.207,-39.551,13.672,113.770
1692122704.733,3.418,-3.906,-41.016,12.695,491.699
1692122704.737,1.465,0.488,-34.668,12.207,377.441
1692122704.741,7.324,-2.441,-31.738,11.230,-63.477
1692122704.745,10.742,3.418,-34.668,3.906,-13.184
1692122704.747,4.883,7.812,-35.156,-2.441,8.789
1692122704.751,12.207,9.277,-39.062,-8.789,-196.289
1692122704.755,24.414,11.230,-42.480,15.137,-150.879
1692122704.759,25.391,13.184,-41.016,25.879,-52.246
1692122704.763,24.414,16.602,-33.691,11.230,-40.527
1692122704.767,19.531,12.207,-34.668,10.742,-57.617
1692122704.771,15.625,1.953,-41.504,9.766,-46.387
1692122704.774,15.625,-4.883,-36.621,23.926,178.223
1692122704.778,12.207,-8.789,-36.133,35.156,189.941
1692122704.782,11.719,-10.254,-39.062,25.391,-127.930
1692122704.786,18.555,-14.160,-38.574,16.602,-185.547
1692122704.790,13.672,-9.277,-35.645,19.043,-102.539
1692122704.793,11.230,-3.418,-32.715,23.438,-30.762
1692122704.797,21.484,0.000,-30.273,37.598,-82.520
1692122704.801,31.738,4.395,-28.320,42.480,-19.531
1692122704.805,30.762,2.441,-26.855,24.414,88.379
1692122704.809,18.066,-1.953,-27.832,13.184,-6.836
1692122704.813,18.066,-3.906,-32.227,24.414,22.461
1692122704.817,27.832,-8.789,-34.668,38.086,137.695
1692122704.820,36.621,-4.395,-28.809,46.875,469.238
1692122704.824,28.320,3.418,-31.738,27.344,324.707
1692122704.828,20.996,6.348,-37.598,7.812,-162.598
1692122704.832,22.461,6.348,-33.691,19.531,-106.934
1692122704.836,29.297,4.395,-30.762,28.809,-40.039
1692122704.838,29.297,1.953,-30.273,25.391,-113.770
1692122704.842,20.020,-2.930,-32.715,18.555,-112.793
1692122704.846,18.066,-4.395,-33.691,9.277,-20.508
1692122704.850,18.555,-3.906,-32.227,13.672,-39.062
1692122704.854,22.949,-1.953,-33.691,32.715,-116.211
1692122704.858,22.949,-2.930,-33.691,41.992,-71.289
1692122704.862,16.602,-5.859,-31.738,40.527,194.824
1692122704.865,9.277,-4.395,-27.832,34.180,234.863
1692122704.869,18.066,-2.441,-26.855,25.391,-111.328
1692122704.873,26.367,-7.324,-30.762,28.320,-115.234
1692122704.877,11.719,-5.859,-31.738,36.621,-15.625
1692122704.881,4.883,-0.488,-31.250,16.602,-58.105
1692122704.882,5.371,0.488,-34.668,-0.977,-183.105
1692122704.886,4.395,1.953,-33.691,10.742,-234.375
1692122704.890,6.348,3.906,-28.320,24.902,-186.523
1692122704.894,16.602,5.859,-27.344,24.414,-171.387
1692122704.898,28.809,8.301,-32.227,18.066,-159.668
1692122704.902,31.738,9.766,-33.203,14.160,-3.418
1692122704.906,19.043,8.789,-31.738,15.625,265.137
1692122704.909,11.719,2.930,-34.180,18.066,189.941
1692122704.913,20.020,4.883,-35.645,27.832,-54.688
1692122704.917,20.996,8.301,-35.156,29.785,-14.648
1692122704.921,14.648,5.371,-34.668,25.391,144.531
1692122704.925,14.160,4.883,-32.715,25.879,-54.688
1692122704.942,25.391,7.324,-29.297,32.227,-165.527
1692122704.946,30.762,5.371,-29.297,43.457,26.367
1692122704.950,22.461,2.441,-29.785,33.691,72.754
1692122704.954,24.414,3.906,-32.227,12.207,-24.414
1692122704.958,22.461,7.812,-32.227,14.160,-39.062
1692122704.962,21.484,9.766,-25.879,30.273,138.672
1692122704.966,27.344,7.324,-29.297,41.016,136.719
1692122704.969,25.879,3.906,-31.738,34.668,52.246
1692122704.973,31.738,8.301,-28.809,21.484,-25.879
1692122704.977,25.391,9.277,-32.227,13.672,135.254
1692122704.981,11.719,5.371,-34.180,20.020,286.133
1692122704.985,21.484,-2.930,-38.086,30.273,-41.016
1692122704.987,24.902,-4.883,-41.992,33.691,-106.445
1692122704.991,15.625,-1.953,-41.992,23.438,-17.578
1692122704.995,16.113,-0.488,-40.039,17.090,-3.906
1692122704.999,21.484,9.766,-37.109,20.020,-60.547
1692122705.003,22.949,8.301,-37.598,36.621,-40.527
1692122705.007,27.344,4.883,-40.527,40.527,13.184
1692122705.011,20.020,9.277,-41.504,16.602,-30.762
1692122705.014,6.836,11.719,-36.621,4.883,-33.691
1692122705.018,9.766,14.648,-36.621,13.184,55.176
1692122705.022,22.461,13.184,-39.062,30.273,444.824
1692122705.026,27.832,10.254,-37.109,41.992,445.801
1692122705.030,7.812,6.348,-35.156,23.926,-11.719
1692122705.032,-0.977,4.883,-32.227,10.254,-86.914
1692122705.036,3.418,5.371,-32.227,20.020,-102.051
1692122705.040,15.137,8.301,-31.250,33.691,-153.809
1692122705.044,23.438,8.789,-30.762,35.156,-150.879
1692122705.048,22.461,7.324,-36.621,24.414,-89.355
1692122705.052,8.789,10.254,-44.434,14.648,12.207
1692122705.056,3.906,7.324,-49.805,8.789,-41.992
1692122705.059,13.672,3.906,-49.316,13.672,-136.230
1692122705.063,22.461,8.789,-40.039,22.461,168.457
1692122705.067,31.738,13.672,-33.203,18.066,312.988
1692122705.071,29.785,12.695,-35.645,0.488,-89.355
1692122705.075,26.367,11.719,-40.527,-0.977,-151.367
1692122705.092,38.086,13.672,-44.922,10.742,5.371
1692122705.096,44.922,10.254,-41.016,26.367,-67.871
1692122705.100,40.039,8.789,-35.645,31.250,-104.492
1692122705.104,30.273,6.348,-35.645,16.113,-76.660
1692122705.108,8.301,-0.977,-37.109,5.371,-86.914
1692122705.112,5.371,-0.488,-34.668,11.719,-43.457
1692122705.116,20.996,4.883,-31.250,24.414,6.348
1692122705.119,22.461,1.465,-34.668,31.250,142.578
1692122705.123,17.090,-4.395,-38.574,22.461,403.320
1692122705.127,12.695,-1.465,-39.062,0.488,104.492
1692122705.131,2.441,-4.883,-42.969,0.977,-262.207
1692122705.135,11.230,-6.348,-40.039,27.344,-39.551
1692122705.123,17.090,-4.883,-35.645,24.902,113.281
1692122705.127,5.371,-3.418,-31.738,5.859,-116.699
1692122705.131,7.812,1.953,-32.227,8.789,-144.531
1692122705.135,20.020,6.348,-33.691,25.879,44.434
1692122705.139,30.273,7.324,-29.297,44.434,30.762
1692122705.143,33.203,13.184,-27.344,45.410,-47.852
1692122705.147,33.203,16.113,-31.738,23.926,87.891
1692122705.150,31.250,16.602,-29.297,13.672,96.680
1692122705.154,26.367,16.602,-33.691,18.066,-40.527
1692122705.158,26.367,8.301,-36.133,31.250,-77.637
1692122705.162,23.438,9.766,-28.320,30.273,-136.230
1692122705.166,16.113,14.648,-26.367,32.227,79.590
1692122705.167,1.465,14.160,-24.902,30.762,153.809
1692122705.171,9.277,14.648,-25.391,17.578,-125.000
1692122705.175,20.996,12.207,-21.973,29.785,-93.750
1692122705.179,18.066,11.719,-24.902,32.715,-25.879
1692122705.183,10.254,10.254,-31.250,19.043,-62.988
1692122705.187,4.395,6.348,-29.785,6.836,-106.934
1692122705.191,18.066,5.371,-30.762,11.230,46.387
1692122705.194,25.879,2.441,-36.621,26.855,520.508
1692122705.198,29.785,0.977,-37.109,30.273,407.227
1692122705.202,30.273,-2.441,-34.668,25.391,-114.258
1692122705.206,15.625,-2.441,-33.203,13.184,-48.340
1692122705.210,12.695,2.441,-39.062,10.742,26.855
1692122705.212,28.320,1.953,-40.039,18.066,-135.742
1692122705.216,32.227,2.441,-36.133,28.320,-132.324
1692122705.220,31.738,4.395,-31.738,30.273,-22.949
1692122705.224,30.273,6.348,-28.320,14.648,-7.324
1692122705.228,29.785,5.859,-30.762,4.883,-101.562
1692122705.232,41.992,8.301,-31.250,25.391,-125.000
1692122705.236,49.316,12.695,-25.879,47.852,197.266
1692122705.239,38.086,13.672,-30.762,39.062,345.215
1692122705.243,27.344,19.531,-33.691,24.902,-47.363
1692122705.247,28.320,19.043,-27.344,23.438,-171.875
1692122705.251,20.508,9.766,-30.273,21.484,-13.184
