timestamps,TP9,AF7,AF8,TP10,Right AUX
1689846934.371,-21.973,-25.879,-52.734,-40.527,-9.766
1689846934.375,-56.641,-33.691,-30.273,-81.055,-80.566
1689846934.379,-53.711,-37.598,-15.625,-80.078,-224.609
1689846934.383,-50.293,-37.598,-17.090,-25.879,-229.004
1689846934.387,-43.457,-36.621,-27.832,-12.207,-75.195
1689846934.391,-47.363,-38.086,-29.785,-22.461,64.941
1689846934.395,-46.387,-34.180,-23.438,-46.875,62.500
1689846934.398,-38.574,-38.086,-41.992,-54.688,-28.320
1689846934.402,-20.996,-53.223,-60.547,-24.902,143.066
1689846934.406,-2.441,-24.414,-25.879,-0.977,193.359
1689846934.410,-7.324,-13.184,-13.184,5.371,-86.914
1689846934.414,-44.434,-35.645,-39.551,-34.668,-69.336
1689846934.416,-47.852,-26.367,-59.570,-53.223,10.742
1689846934.420,-23.438,-22.461,-42.969,-43.457,-167.969
1689846934.424,-38.574,-32.227,-39.551,-52.246,-237.793
1689846934.428,-59.082,-47.363,-41.992,-33.203,-85.938
1689846934.432,-46.387,-53.711,-32.227,-34.668,2.441
1689846934.436,-20.020,-33.691,-38.086,-47.363,27.344
1689846934.440,-36.133,-26.367,-47.852,-34.180,1.465
1689846934.443,-43.457,-41.504,-17.090,-18.066,65.918
1689846934.447,10.254,-48.828,-2.930,-0.488,431.152
1689846934.451,-28.320,-37.109,-11.230,-25.879,212.402
1689846934.455,-68.848,-30.273,-28.809,-83.496,-179.688
1689846934.459,-77.637,-40.527,-34.180,-83.496,-72.754
1689846934.461,-60.059,-39.062,-24.902,-42.969,49.316
1689846934.465,-28.320,-35.156,-25.879,-11.719,-106.445
1689846934.469,-38.086,-42.969,-34.180,-18.555,-156.250
1689846934.473,-38.086,-34.668,-29.785,-53.711,-26.367
1689846934.477,-19.043,-16.113,-24.902,-62.988,-80.566
1689846934.481,31.250,-18.555,-35.156,12.695,-112.793
1689846934.485,20.020,-39.062,-44.434,40.527,62.012
1689846934.488,-65.430,-58.105,-26.855,-8.789,312.012
1689846934.492,-88.867,-63.477,-37.598,-52.734,117.188
1689846934.496,-58.594,-53.223,-62.500,-112.793,-166.992
1689846934.500,-20.020,-39.062,-43.945,-62.988,-119.141
1689846934.504,-20.020,-31.250,-25.879,23.438,-47.852
1689846934.507,-18.066,-37.598,-24.414,29.297,-48.828
1689846934.511,-1.953,-55.664,-20.508,-25.879,-91.797
1689846934.515,-24.414,-48.828,-26.855,-68.359,-33.203
1689846934.519,-20.996,-28.809,-26.367,-12.207,-24.902
1689846934.523,-3.418,-29.297,-20.020,17.578,-82.031
1689846934.527,-7.324,-34.668,-27.344,15.137,-56.152
1689846934.531,-3.906,-30.273,-38.086,-8.789,56.152
1689846934.534,4.883,-32.227,-38.574,-27.832,188.477
1689846934.538,10.254,-36.621,-22.461,7.324,-12.695
1689846934.542,41.504,-11.230,-7.812,42.480,-160.645
1689846934.546,25.391,-7.812,-25.879,42.969,45.410
1689846934.550,-33.203,-45.410,-48.340,-5.859,104.492
1689846934.551,-37.109,-54.199,-48.340,-48.828,-112.793
1689846934.555,-16.113,-42.969,-29.785,-34.180,-120.117
1689846934.559,5.371,-36.133,-26.367,19.043,-45.898
1689846934.563,-0.488,-36.133,-34.668,37.598,-24.414
1689846934.567,-25.879,-31.738,-34.668,-0.488,-33.691
1689846934.571,-18.555,-26.855,-35.156,-26.855,-7.324
1689846934.575,-9.277,-19.043,-33.691,-9.766,340.820
1689846934.578,-13.184,-17.578,-17.578,22.949,355.957
1689846934.582,14.648,-28.809,-19.043,17.578,-80.566
1689846934.586,-35.156,-29.297,-27.344,-7.812,-170.898
1689846934.590,-71.777,-29.785,-19.531,-29.297,-125.977
1689846934.594,-20.508,-30.762,-30.762,-38.086,-170.410
1689846934.596,-15.137,-33.203,-50.293,-16.113,-127.441
1689846934.600,-20.508,-30.273,-39.551,12.695,-22.461
1689846934.604,-9.277,-13.184,-29.785,8.301,-20.508
1689846934.608,-20.020,-20.996,-32.715,-37.598,-146.484
1689846934.612,-48.828,-35.645,-31.250,-55.664,-231.934
1689846934.616,-35.645,-31.738,-39.551,-14.160,-26.855
1689846934.620,7.324,-38.086,-44.434,39.551,267.090
1689846934.623,-6.348,-35.645,-31.250,-8.301,130.859
1689846934.627,-44.434,-36.621,-19.531,-83.496,-87.891
1689846934.631,-49.316,-39.062,-19.531,-31.738,-47.363
1689846934.635,-6.348,-25.391,-26.367,25.879,-16.113
1689846934.639,-5.371,-21.484,-26.855,15.137,-84.961
1689846934.656,-32.715,-31.250,-21.973,2.441,-76.172
1689846934.660,-45.898,-44.922,-19.531,-69.336,80.566
1689846934.664,-40.527,-32.715,-48.828,-96.680,153.809
1689846934.668,-27.832,-27.832,-71.289,-50.293,-95.703
1689846934.672,-22.461,-36.621,-24.414,0.488,-102.051
1689846934.676,-11.230,-36.621,10.742,16.602,168.945
1689846934.680,-26.367,-32.715,0.000,-2.930,87.891
1689846934.683,-66.895,-30.762,-12.207,-36.621,-101.562
1689846934.687,-51.270,-29.297,-24.902,-23.438,-107.422
1689846934.691,-13.184,-27.832,-25.391,-2.930,272.949
1689846934.695,-16.113,-30.273,-15.137,-3.906,263.184
1689846934.699,-0.977,-31.250,-8.789,-14.648,-117.676
1689846934.701,-32.227,-35.156,-19.531,-36.621,-169.434
1689846934.705,-58.594,-30.762,-40.527,-16.602,-124.023
1689846934.709,-20.508,-21.484,-50.293,1.953,-75.684
1689846934.713,-0.488,-12.695,-23.438,-2.930,-60.059
1689846934.717,-11.719,-13.184,-11.719,-18.555,-94.727
1689846934.721,-37.598,-20.508,-24.414,-25.879,-65.430
1689846934.725,-33.691,-31.250,-31.250,-12.207,-63.477
1689846934.728,-12.207,-28.809,-47.363,-28.320,-61.523
1689846934.732,-13.184,-24.414,-38.574,-22.461,133.301
1689846934.736,-25.879,-27.832,-13.184,-12.207,393.066
1689846934.740,-40.039,-25.391,1.953,-71.289,51.270
1689846934.744,-15.137,-25.391,14.648,-61.523,-169.434
1689846934.746,23.438,-33.691,20.020,20.020,119.141
1689846934.750,-35.156,-55.664,1.953,27.344,39.551
1689846934.754,-56.641,-39.551,-5.859,-18.066,-117.188
1689846934.758,-10.742,-13.184,-38.574,-39.062,-57.617
1689846934.762,-37.598,-14.160,-47.852,-32.715,50.781
1689846934.766,-33.691,-7.324,-8.301,-14.160,36.133
1689846934.770,-6.348,-29.297,-9.766,15.625,38.574
1689846934.773,-15.137,-45.410,-60.547,-19.531,-20.020
1689846934.777,5.371,-25.879,-73.242,-69.336,116.699
1689846934.781,-20.996,-42.480,-40.039,-46.387,37.598
1689846934.785,-21.484,-26.367,-23.438,18.555,-167.969
1689846934.789,17.090,-16.113,-3.418,35.645,-48.340
1689846934.792,-19.531,-47.852,-6.348,-27.832,-24.902
1689846934.796,-57.129,-30.273,-16.113,-86.426,-139.648
1689846934.800,-53.711,-26.855,-23.926,-88.867,-104.004
1689846934.804,-40.527,-72.754,-42.480,-62.012,22.461
1689846934.808,-34.668,-62.012,-54.688,-17.578,103.516
1689846934.812,-48.340,-41.504,-52.246,-17.578,171.875
1689846934.816,-40.527,-27.344,-22.949,-46.387,75.684
1689846934.819,-8.301,-4.395,-12.695,-25.879,12.695
1689846934.823,12.695,-2.441,-9.766,19.043,422.363
1689846934.827,-6.348,-19.531,-23.926,19.531,204.590
1689846934.831,-28.809,-57.129,-52.246,-6.836,-130.859
1689846934.835,-63.965,-79.590,-43.457,-48.828,-72.754
1689846934.836,-82.520,-61.035,-27.344,-73.730,-161.621
1689846934.840,-51.758,-36.621,-24.902,-33.691,-205.566
1689846934.844,0.488,-16.602,-40.039,11.719,-86.426
1689846934.848,-12.207,-20.508,-42.480,-43.945,29.297
1689846934.852,-70.801,-46.387,-38.574,-86.426,-51.270
1689846934.856,-29.785,-33.203,-41.992,-69.336,-145.020
1689846934.860,7.324,-17.090,-25.879,-30.273,-4.395
1689846934.863,12.695,-21.973,-17.090,44.434,367.676
1689846934.867,-39.551,-36.133,-23.926,16.113,274.414
1689846934.871,-63.477,-29.297,-12.695,0.977,-157.227
1689846934.875,-37.598,-18.066,-29.297,-31.250,-217.285
1689846934.879,-13.672,-26.367,-53.711,-57.129,-121.582
1689846934.896,10.742,-28.809,-42.969,5.371,-81.055
1689846934.900,-22.461,-31.250,-20.996,21.973,-97.168
1689846934.904,-44.922,-34.668,-31.738,-53.711,-57.617
1689846934.908,-50.781,-48.340,-39.062,-89.355,-93.262
1689846934.912,-25.879,-30.273,-15.625,-47.363,-158.691
1689846934.916,0.977,-17.090,0.977,7.812,-81.055
1689846934.920,-12.207,-27.832,-27.344,-1.465,73.730
1689846934.923,-30.273,-29.785,-44.922,-40.039,334.473
1689846934.927,-45.898,-41.016,-52.246,-45.410,97.656
1689846934.931,-28.320,-42.480,-29.297,-31.250,-168.457
1689846934.935,-37.109,-28.320,-35.156,-49.805,-31.738
1689846934.939,-70.801,-22.949,-62.012,-35.156,124.512
1689846934.926,-62.012,-18.555,-45.898,-37.598,-93.750
1689846934.930,-48.828,-22.949,-58.105,-106.445,-185.059
1689846934.934,-94.238,-44.922,-50.781,-116.699,-93.262
1689846934.938,-127.930,-45.410,-51.270,-118.164,-78.125
1689846934.942,-99.121,-36.621,-63.965,-77.637,-44.922
1689846934.946,-112.305,-51.270,-11.719,-81.055,124.512
1689846934.950,-97.656,-34.668,-4.395,-126.465,221.191
1689846934.953,-59.082,-9.277,-11.230,-108.887,-26.367
1689846934.957,-74.219,-36.621,-18.555,-105.469,-149.414
1689846934.961,-73.242,-62.012,-49.316,-101.074,-46.387
1689846934.965,-57.617,-46.875,-38.086,-65.430,320.801
1689846934.969,-63.965,-27.344,-19.043,-72.266,201.172
1689846934.971,-71.777,-17.090,-41.504,-102.051,-200.684
1689846934.975,-52.734,-20.020,-31.250,-84.473,-197.266
1689846934.979,-36.621,-37.109,-19.531,-44.922,-88.379
1689846934.983,-24.902,-37.109,-13.184,-41.016,-52.246
1689846934.987,-43.945,-30.762,-8.789,-49.805,-129.883
1689846934.991,-51.758,-34.180,-36.621,-81.055,-44.922
1689846934.995,-28.320,-31.250,-26.855,-59.082,127.930
1689846934.998,-12.207,-22.949,-4.395,-18.066,2.441
1689846935.002,-29.785,-26.367,-15.625,-21.484,-52.246
1689846935.006,-53.223,-20.996,-25.879,-51.758,-18.555
1689846935.010,-29.785,-15.137,-12.695,-66.406,-46.387
1689846935.014,-15.137,-20.996,-12.695,-29.785,-123.047
1689846935.031,-33.691,-22.461,-31.250,-22.949,-62.012
1689846935.035,-48.828,-32.227,-16.602,-47.363,211.426
1689846935.039,-35.645,-33.203,-14.648,-66.895,313.477
1689846935.043,-40.039,-34.668,-30.273,-60.547,-86.914
1689846935.047,-50.293,-34.668,-15.625,-30.762,-208.984
1689846935.051,-22.461,-17.090,-22.461,-9.277,38.086
1689846935.055,-10.742,-4.395,-36.621,11.230,71.289
1689846935.058,-1.953,-5.371,-24.414,-16.113,-134.277
1689846935.062,-32.227,-20.020,-26.367,-51.270,-181.152
1689846935.066,-49.805,-41.504,-28.320,-40.527,48.340
1689846935.070,-22.461,-43.457,-15.137,-24.414,-14.160
1689846935.074,-4.883,-39.062,-11.719,-22.461,-115.234
1689846935.076,0.488,-13.672,-8.789,-6.836,-82.520
1689846935.080,-13.672,-20.020,-8.789,-24.414,-133.789
1689846935.084,-47.363,-48.828,-26.855,-41.016,-88.867
1689846935.088,-50.781,-50.781,-30.762,-14.160,-35.156
1689846935.092,-4.395,-44.922,-23.438,-19.531,-21.973
1689846935.096,5.859,-43.945,-15.137,-56.641,95.703
1689846935.100,-39.062,-45.410,-18.066,-85.449,6.836
1689846935.103,-75.684,-46.875,-40.039,-68.359,-100.586
1689846935.107,-52.246,-44.922,-36.133,-25.879,141.602
1689846935.111,-15.625,-34.180,-28.320,-3.418,400.879
1689846935.115,-12.695,-34.180,-31.250,-40.039,77.637
1689846935.119,-15.137,-26.855,-33.203,-61.035,-232.910
1689846935.121,-17.578,-20.508,-24.902,-51.270,-140.137
1689846935.125,-55.664,-30.762,-2.441,-14.160,-105.469
1689846935.129,-44.922,-36.621,0.977,-8.789,-103.516
1689846935.133,-32.227,-40.527,-41.504,-20.996,-58.105
1689846935.137,-45.410,-20.996,-62.500,-47.363,-26.367
1689846935.141,-42.969,-16.113,-6.348,-76.172,-66.406
1689846935.145,-37.598,-24.902,7.812,-35.645,-54.688
1689846935.148,-24.414,-37.109,-28.320,-14.160,13.672
1689846935.152,-23.438,-43.457,-39.551,-36.133,246.582
1689846935.156,-30.273,-46.875,-41.504,-60.059,226.074
1689846935.160,-37.598,-53.223,-17.578,-55.664,-135.254
1689846935.164,-60.059,-54.688,-12.695,-29.297,-135.254
1689846935.166,-22.461,-45.898,-6.348,1.465,5.371
1689846935.170,-16.113,-37.598,1.465,-25.879,-30.273
1689846935.174,-80.566,-30.273,-17.090,-79.102,-110.840
1689846935.178,-85.449,-30.762,-25.391,-88.867,-134.766
1689846935.182,-52.246,-36.133,-24.414,-82.031,-129.395
1689846935.186,-51.758,-40.527,-22.949,-39.062,8.301
1689846935.190,-41.504,-15.625,-41.992,-2.930,91.797
1689846935.193,-31.250,-5.859,-58.105,-69.336,79.590
1689846935.197,-76.660,-33.691,-28.320,-129.883,403.320
1689846935.201,-85.449,-44.922,-11.230,-84.473,282.227
1689846935.205,-33.203,-30.273,-16.113,-1.465,-130.859
1689846935.209,-9.277,-22.949,-18.555,7.812,-64.453
1689846935.211,-34.668,-35.645,-11.230,-53.711,-115.234
1689846935.215,-40.527,-46.387,-8.789,-82.520,-267.090
1689846935.219,-42.969,-33.691,-23.926,-62.500,-182.617
1689846935.223,-40.039,-30.762,-43.945,-37.598,-49.805
1689846935.227,-28.320,-46.387,-28.809,-30.762,-39.551
1689846935.231,-44.434,-43.945,-14.648,-7.812,-66.406
1689846935.235,-47.363,-35.156,-32.227,-45.410,-7.812
1689846935.238,-29.785,-33.203,-27.832,-69.824,198.730
1689846935.242,-18.066,-25.391,-15.625,-20.996,103.516
1689846935.246,-8.301,-22.949,-32.715,-13.672,-91.797
1689846935.250,-14.648,-25.391,-37.598,-23.926,-13.184
1689846935.254,-37.109,-19.531,-0.977,-25.391,-30.273
1689846935.256,-53.223,-24.902,-34.180,-41.016,-158.203
1689846935.260,-16.602,-24.414,-48.340,-23.926,-122.559
1689846935.264,9.277,-19.043,-26.855,-0.488,20.508
1689846935.268,-10.742,-29.297,-39.551,6.348,95.215
1689846935.272,-36.621,-41.992,-33.203,-19.043,21.484
1689846935.276,-71.777,-38.086,-10.254,-73.242,-113.770
1689846935.280,-44.922,-35.156,-10.254,-55.664,-4.883
1689846935.283,-7.324,-45.410,-12.207,-9.766,353.027
1689846935.287,-14.160,-46.875,-2.441,-13.184,175.781
1689846935.291,-56.641,-42.480,-16.113,-65.918,-160.156
1689846935.295,-63.965,-40.527,-26.855,-75.195,-99.609
1689846935.299,-23.438,-30.762,-10.742,-9.277,15.137
1689846935.302,-18.066,-34.668,-16.602,21.484,-13.672
1689846935.306,-19.043,-36.133,-34.668,-42.969,9.277
1689846935.310,-19.531,-18.555,-27.832,-39.062,22.949
1689846935.314,-66.895,-29.785,-24.414,-18.555,-100.586
1689846935.318,-51.758,-60.547,-33.203,-46.387,-195.312
1689846935.322,-27.832,-49.805,-26.855,-35.645,-29.297
1689846935.326,-51.758,-38.574,-18.555,-32.715,287.598
1689846935.329,-38.574,-35.645,-6.348,-55.176,132.812
1689846935.333,-37.598,-37.598,-36.621,-78.613,-227.051
1689846935.337,-34.180,-29.785,-71.289,-47.852,-130.859
1689846935.341,-16.113,-7.324,-18.066,14.648,-30.273
1689846935.345,-21.484,-16.113,-15.625,-2.930,-80.566
1689846935.346,-50.781,-39.062,-35.156,-80.566,-81.543
1689846935.350,-71.289,-50.293,-30.273,-85.938,-124.023
1689846935.354,-48.340,-58.594,-44.434,-85.938,-79.102
1689846935.358,-64.941,-63.477,-61.523,-42.480,83.496
1689846935.362,-20.020,-53.711,-52.734,-6.836,12.207
1689846935.366,-30.273,-39.062,-20.020,-55.176,30.762
1689846935.370,-90.820,-38.574,-10.254,-66.895,387.207
1689846935.373,-66.406,-39.551,-15.137,-57.129,94.727
1689846935.377,-23.438,-44.922,-26.367,-18.066,-143.555
1689846935.381,1.953,-43.457,-21.973,6.836,97.168
1689846935.385,-56.641,-38.086,-7.812,-14.648,106.445
1689846935.389,-95.215,-44.434,-19.531,-67.383,-185.547
1689846935.406,-44.434,-41.016,-16.602,-48.340,-215.820
1689846935.410,-3.906,-36.621,-30.762,-29.297,-41.992
1689846935.414,-17.578,-40.039,-30.273,-25.879,-37.598
1689846935.418,-66.895,-43.457,-28.809,-30.273,-82.031
1689846935.422,-74.707,-49.805,-19.531,-72.754,-62.988
1689846935.426,-41.992,-34.180,-6.348,-58.594,7.812
1689846935.430,-32.227,-23.926,-29.297,-29.785,98.145
1689846935.433,-41.992,-31.738,-30.762,-24.902,84.473
1689846935.437,-39.551,-41.016,-22.461,-32.715,25.391
1689846935.441,-20.020,-37.109,-21.973,-41.504,232.910
1689846935.445,-19.531,-20.508,-0.488,-46.875,147.461
1689846935.449,-26.367,-19.531,-31.738,-9.766,-131.348
1689846935.451,-49.316,-45.898,-52.734,3.418,-114.258
1689846935.455,-60.059,-48.340,-32.715,-48.828,-118.164
1689846935.459,-58.594,-45.410,-23.438,-59.082,-170.410
1689846935.463,-60.547,-64.453,-26.367,-33.691,-176.758
1689846935.467,-23.926,-51.758,-32.227,-53.711,-38.574
1689846935.471,1.953,-22.949,-38.574,-29.785,96.680
1689846935.475,-61.035,-37.598,-41.992,-28.320,69.824
1689846935.478,-82.031,-46.875,-34.180,-73.242,-30.762
1689846935.482,-68.359,-48.340,-21.973,-74.219,35.156
1689846935.486,-57.129,-41.016,-21.973,-37.598,494.629
1689846935.490,-48.340,-30.273,-34.180,-5.371,363.770
1689846935.494,-32.227,-20.996,-31.738,-20.508,-67.383
1689846935.496,-23.926,-26.855,-17.090,-44.922,-107.422
1689846935.500,-57.617,-32.715,-33.203,-48.828,-217.773
1689846935.504,-68.359,-26.367,-66.895,-62.500,-221.680
1689846935.508,-26.855,-25.391,-45.410,-19.531,-62.988
1689846935.512,-31.250,-22.461,-34.668,-18.066,29.785
1689846935.516,-59.082,-31.250,-40.527,-66.406,17.090
1689846935.520,-62.500,-38.086,-31.250,-73.242,-30.273
1689846935.523,-36.621,-36.621,-21.973,-56.641,-52.734
1689846935.527,-11.719,-37.598,-17.578,-33.203,200.684
1689846935.531,-16.602,-35.156,-28.320,-13.184,145.508
1689846935.535,-48.340,-29.785,-21.973,-18.066,-127.930
1689846935.539,-62.500,-32.227,-29.297,-50.293,-98.633
1689846935.541,-41.504,-27.832,-22.461,-41.992,-30.273
1689846935.545,-7.324,-13.672,-6.836,-2.441,-90.820
1689846935.549,-9.766,-21.973,-30.762,11.719,-102.051
1689846935.553,-5.371,-31.250,-52.246,-18.066,-112.305
1689846935.557,-30.273,-36.133,-31.738,-53.711,-106.934
1689846935.561,-57.617,-55.664,-25.879,-45.898,-42.969
1689846935.565,-41.504,-56.152,-34.180,-20.020,-118.164
1689846935.568,-35.645,-47.363,-18.555,-20.020,11.230
1689846935.572,-55.176,-49.805,-21.973,-23.438,406.738
1689846935.576,-83.496,-40.039,-41.016,-67.383,162.598
1689846935.580,-65.918,-36.133,-40.527,-82.031,-146.484
1689846935.584,-20.020,-25.879,-39.062,-34.180,-63.965
1689846935.587,-1.953,-22.461,-43.945,-30.762,-38.574
1689846935.591,-33.203,-35.645,-30.762,-40.039,22.949
1689846935.595,-51.270,-39.062,-20.020,-47.852,-44.434
1689846935.599,-38.086,-33.691,-21.484,-67.383,-16.113
1689846935.603,-40.527,-36.133,-30.762,-22.461,10.742
1689846935.607,-53.223,-39.551,-33.203,14.160,-20.508
1689846935.611,-37.109,-31.738,-25.879,-30.273,98.145
1689846935.614,-24.902,-23.926,-41.016,-67.383,199.219
1689846935.618,-53.711,-34.668,-37.109,-48.828,9.766
1689846935.622,-45.898,-29.785,6.348,-6.836,-173.828
1689846935.626,11.719,-20.020,-0.977,15.137,-73.730
1689846935.630,-5.859,-41.992,-34.668,-18.066,5.371
1689846935.631,-84.473,-56.152,-24.414,-72.754,-69.336
1689846935.635,-91.797,-47.363,-27.344,-84.961,-140.625
1689846935.639,-51.758,-35.156,-63.477,-49.316,-135.254
1689846935.643,2.930,-28.320,-57.617,-6.348,-37.598
1689846935.647,27.344,-26.855,-8.789,0.977,26.367
1689846935.651,-39.062,-37.598,3.418,-12.207,49.805
1689846935.655,-61.523,-26.367,-29.297,-53.711,131.348
1689846935.658,-32.715,-23.926,-40.039,-44.922,190.430
1689846935.662,-2.930,-24.414,-29.297,15.625,92.285
1689846935.666,8.301,-14.648,-28.809,12.695,-53.223
1689846935.670,-32.715,-28.320,-39.551,-55.176,3.906
1689846935.674,-34.668,-43.457,-24.902,-75.195,303.711
1689846935.676,-57.617,-49.805,-16.602,-49.316,28.320
1689846935.680,-79.590,-46.875,-29.297,-27.344,-159.180
1689846935.684,-24.902,-18.555,-13.672,-6.348,-22.949
1689846935.688,0.977,-4.883,-4.395,-30.762,-131.348
1689846935.692,-32.715,-38.574,-31.738,-74.219,-257.812
1689846935.696,-57.617,-55.176,-39.551,-78.125,-73.730
1689846935.700,-41.016,-50.293,-45.410,-49.316,312.500
1689846935.703,-41.016,-33.691,-63.965,-35.645,186.035
1689846935.707,-45.898,-22.461,-59.082,-27.832,-175.293
1689846935.711,-39.551,-31.250,-32.715,-75.684,-195.312
1689846935.715,-42.480,-31.738,-18.555,-76.172,-1.465
1689846935.719,-18.555,-34.180,-17.578,-14.648,34.668
1689846935.721,8.789,-29.297,-8.789,16.602,-52.246
1689846935.725,-8.789,-13.672,1.953,-29.297,-79.590
1689846935.729,-67.871,-25.391,-22.461,-75.195,-134.277
1689846935.733,-73.242,-42.969,-38.574,-44.922,-194.336
1689846935.737,-44.922,-38.574,-35.156,-29.785,-153.320
1689846935.741,-5.371,-34.668,-37.109,-9.766,67.383
1689846935.745,6.836,-25.391,-41.992,-11.719,254.395
1689846935.748,-22.949,-13.184,-46.875,-50.293,49.805
1689846935.752,-35.156,-17.578,-45.410,-50.293,-60.059
1689846935.756,-31.738,-25.879,-32.227,-20.996,163.574
1689846935.760,-14.160,-28.809,-15.137,13.184,420.898
1689846935.764,-47.363,-29.785,-9.277,-30.273,62.012
1689846935.781,-56.641,-34.180,-15.137,-57.129,-188.477
1689846935.785,-40.527,-32.715,-23.438,-62.500,-96.680
1689846935.789,-22.461,-28.320,-8.789,-39.551,-96.680
1689846935.793,8.789,-14.648,15.137,14.160,-94.238
1689846935.797,2.930,-16.602,-19.043,-13.672,-74.219
1689846935.801,-45.410,-34.180,-53.223,-70.312,55.664
1689846935.805,-70.312,-37.109,-48.340,-84.473,70.312
1689846935.808,-61.035,-32.715,-33.691,-62.988,-92.773
1689846935.812,-30.273,-36.621,-30.762,-24.414,-72.266
1689846935.816,-14.648,-44.922,-22.949,-15.137,191.406
1689846935.820,-59.082,-45.898,-10.254,-61.523,55.664
1689846935.824,-72.754,-38.086,-39.551,-92.773,-121.582
1689846935.826,-74.707,-33.691,-30.273,-61.523,-71.289
1689846935.830,-41.504,-39.062,-7.812,-26.367,39.062
1689846935.834,-25.391,-36.133,-41.016,-22.949,-11.719
1689846935.838,-51.758,-30.273,-50.293,-20.508,-156.250
1689846935.842,-52.246,-26.855,-13.184,-27.344,-118.164
1689846935.846,-43.457,-25.391,-9.277,-50.781,59.082
1689846935.850,-22.949,-33.203,-32.715,-32.227,110.840
1689846935.853,-15.625,-42.969,-22.949,-0.977,20.508
1689846935.857,-21.973,-54.688,1.953,-19.531,98.633
1689846935.861,-44.434,-40.527,-31.738,-46.387,376.953
1689846935.865,-62.988,-20.020,-58.105,-72.754,129.883
1689846935.869,-27.832,-26.855,-47.852,-48.828,-114.258
1689846935.871,-57.129,-37.109,-43.945,-36.621,-34.668
1689846935.875,-93.262,-33.691,-31.250,-49.316,-11.719
1689846935.879,-70.312,-29.785,-41.016,-62.988,-177.734
1689846935.883,-40.527,-36.621,-51.270,-91.309,-265.625
1689846935.887,-17.578,-42.480,-27.832,-62.988,-36.621
1689846935.891,-30.762,-40.039,-19.043,-34.180,27.832
1689846935.895,-46.387,-26.855,-33.203,-30.762,-59.082
1689846935.898,-32.715,-23.438,-26.855,-61.035,-84.473
1689846935.902,-38.086,-29.785,-3.418,-78.125,66.895
1689846935.906,-36.133,-26.855,-12.695,-19.043,1.953
1689846935.910,-22.949,-28.809,-23.438,33.203,-125.977
1689846935.914,-28.809,-28.809,-30.273,-11.719,-92.285
1689846935.916,-43.457,-20.996,-29.785,-77.148,92.773
1689846935.920,-47.363,-19.043,-18.555,-60.547,-18.555
1689846935.924,-41.016,-37.598,-17.090,-34.180,-174.316
1689846935.928,-11.719,-28.320,-9.277,-5.371,-26.367
1689846935.932,17.578,-10.254,-19.531,-2.930,5.859
1689846935.936,-11.230,-32.715,-34.668,-42.969,-93.262
1689846935.940,-59.082,-37.109,-25.879,-47.852,-38.086
1689846935.943,-52.734,-27.344,-33.691,-23.438,146.973
1689846935.947,-27.832,-31.250,-59.570,-11.230,499.512
1689846935.951,-32.227,-36.621,-64.941,-18.066,297.363
1689846935.955,-44.434,-34.668,-27.832,-46.387,-120.117
1689846935.959,-51.758,-32.715,-5.371,-80.078,-128.906
1689846935.961,-51.758,-34.668,-20.020,-46.387,-152.344
1689846935.965,-25.879,-35.156,-18.066,-9.766,-166.504
1689846935.969,-31.250,-34.180,-17.578,-12.695,-91.309
1689846935.973,-54.688,-20.996,-15.137,-43.945,-59.082
1689846935.977,-30.762,-22.461,-6.836,-58.105,-112.793
1689846935.981,-30.762,-34.180,-23.926,-11.230,-62.988
1689846935.985,-22.461,-31.250,-27.832,7.812,82.520
1689846935.988,-16.113,-32.227,-38.574,-28.320,453.613
1689846935.992,-42.969,-38.086,-40.527,-74.707,396.973
1689846935.996,-62.500,-43.457,-22.461,-56.641,-130.859
1689846936.000,-27.344,-40.039,-27.344,-19.531,-212.402
1689846936.004,-15.625,-33.203,-26.855,19.531,-40.039
1689846936.006,-25.391,-34.668,-17.090,-0.488,-10.742
1689846936.010,-20.020,-26.855,-16.602,-81.055,-144.043
1689846936.014,-9.277,-22.949,-23.438,-70.801,-174.805
1689846936.018,-10.254,-33.691,-35.645,-36.621,-73.242
1689846936.022,-28.320,-42.969,-45.410,-15.625,-45.410
1689846936.026,-32.227,-41.992,-46.387,-5.371,1.953
1689846936.030,-35.645,-41.992,-27.344,0.977,105.957
1689846936.033,-57.617,-45.410,-21.973,-33.691,101.074
1689846936.037,-32.715,-34.180,-21.484,-57.129,-39.551
1689846936.041,8.789,-24.414,-27.344,4.395,-39.062
1689846936.045,11.719,-26.855,-29.785,25.391,66.406
1689846936.049,-28.809,-29.297,-28.809,-20.020,335.449
1689846936.051,-71.289,-27.832,-33.691,-46.387,116.699
1689846936.055,-42.480,-28.320,-25.391,-39.062,-177.734
1689846936.059,-8.789,-23.926,-22.949,0.488,-84.961
1689846936.063,-12.695,-27.832,-41.016,-11.719,-71.777
1689846936.067,-34.180,-33.203,-38.086,-55.176,-135.254
1689846936.071,-29.785,-30.762,-28.809,-59.570,-34.180
1689846936.075,-34.668,-32.227,-26.855,-68.359,205.078
1689846936.078,-20.020,-31.250,-37.109,-43.457,106.934
1689846936.082,-15.625,-28.809,-43.945,24.902,-95.703
1689846936.086,-47.852,-31.250,-37.109,-20.996,-65.430
1689846936.090,-33.203,-23.926,-32.715,-67.383,-72.266
1689846936.094,-19.531,-18.555,-29.297,-53.223,-104.004
1689846936.097,-28.809,-21.484,-20.020,-9.277,-106.445
1689846936.101,-13.672,-18.555,-16.113,47.852,-49.805
1689846936.105,-29.785,-27.344,-28.809,18.066,54.688
1689846936.109,-56.641,-33.691,-40.039,-47.363,-87.402
1689846936.113,-41.504,-30.273,-28.320,-59.570,-187.988
1689846936.117,-19.531,-24.414,-36.133,-32.227,15.137
1689846936.121,-10.742,-25.391,-52.246,-32.227,182.617
1689846936.124,-22.949,-35.156,-35.156,-53.711,60.547
1689846936.128,-52.734,-38.574,-33.203,-76.660,-45.898
1689846936.132,-66.406,-46.387,-36.133,-57.617,0.000
1689846936.136,-46.387,-43.457,-25.879,-11.719,174.316
1689846936.140,-27.832,-33.691,-35.645,5.371,58.105
1689846936.156,-21.484,-30.762,-47.852,-27.832,-83.984
1689846936.160,-20.020,-31.738,-57.617,-52.246,-115.723
1689846936.164,-30.762,-39.551,-25.879,-55.176,-162.109
1689846936.168,-37.598,-40.039,-2.441,-33.691,-209.961
1689846936.172,-37.109,-38.086,-9.277,11.719,-148.926
1689846936.176,-10.742,-23.926,-19.043,36.133,247.559
1689846936.180,9.766,0.000,-22.949,-6.348,251.465
1689846936.183,-12.207,-10.742,-34.668,-79.102,-149.414
1689846936.187,-62.988,-32.715,-48.828,-100.586,-156.738
1689846936.191,-70.312,-43.457,-49.805,-32.227,132.324
1689846936.195,-47.363,-48.828,-48.828,-1.465,54.199
1689846936.199,-53.223,-46.387,-39.062,-49.316,-150.391
1689846936.201,-22.461,-34.180,-23.438,-55.176,-173.828
1689846936.205,-0.488,-22.949,-48.828,-46.387,-169.922
1689846936.209,-20.508,-29.297,-51.758,-18.555,-129.883
1689846936.213,-44.434,-27.832,-15.137,12.207,-81.055
1689846936.217,-48.340,-29.785,-19.043,-3.418,-4.883
1689846936.221,-68.359,-43.945,-32.227,-51.758,92.285
1689846936.225,-29.785,-37.598,-30.762,-54.199,50.781
1689846936.228,19.531,-26.367,-24.902,-30.762,-45.898
1689846936.232,-17.090,-24.902,-26.367,-21.484,73.242
1689846936.236,-53.223,-27.832,-25.391,-44.922,312.988
1689846936.240,-52.246,-31.250,-28.809,-83.496,42.480
1689846936.244,-37.109,-25.879,-31.250,-66.406,-233.398
1689846936.246,-41.992,-30.273,-20.508,-8.301,-34.668
1689846936.250,-27.832,-22.949,-33.691,48.828,120.117
1689846936.254,-26.855,-23.926,-59.570,19.043,-52.246
1689846936.258,-66.895,-45.410,-42.480,-58.594,-126.953
1689846936.262,-72.266,-52.246,-33.203,-53.711,-70.312
1689846936.266,-30.273,-45.410,-43.457,-41.992,-6.836
1689846936.270,-24.414,-45.898,-37.598,-39.551,21.973
1689846936.273,-54.688,-52.734,-25.879,-45.898,-19.043
1689846936.277,-61.523,-44.922,-25.391,-50.293,190.430
1689846936.281,-59.570,-40.039,-43.457,-47.852,213.379
1689846936.285,-49.316,-37.109,-47.852,-19.531,-98.145
1689846936.289,-23.438,-34.668,-37.598,-0.488,-103.027
1689846936.291,-20.996,-32.227,-28.809,-31.250,-19.043
1689846936.295,-17.578,-24.902,-35.156,-38.086,-103.516
1689846936.299,-30.273,-35.156,-52.734,-49.805,-173.340
1689846936.303,-56.152,-42.969,-40.527,-32.715,-143.066
1689846936.307,-43.945,-34.668,-29.297,6.836,-58.594
1689846936.311,-39.551,-33.691,-31.250,-8.789,62.500
1689846936.315,-38.574,-29.785,-27.832,-50.293,35.645
1689846936.318,-50.781,-23.438,-45.898,-75.684,37.598
1689846936.322,-47.363,-27.344,-44.922,-41.016,430.664
1689846936.326,-22.461,-27.832,-36.621,13.672,304.199
1689846936.330,-23.438,-31.250,-47.852,5.371,-104.980
1689846936.334,-34.668,-38.086,-41.016,-25.879,-65.918
1689846936.336,-52.246,-37.109,-32.715,-47.363,-109.375
1689846936.340,-38.086,-30.273,-35.156,-57.617,-214.844
1689846936.344,-10.742,-30.273,-34.668,-40.527,-69.824
1689846936.348,-30.273,-33.203,-28.809,-20.508,36.621
1689846936.352,-42.969,-34.180,-29.297,-66.895,-73.730
1689846936.356,-55.664,-31.250,-30.273,-83.496,-93.262
1689846936.360,-61.035,-25.391,-32.715,-18.555,38.574
1689846936.363,-44.922,-39.551,-30.273,21.484,293.945
1689846936.367,-39.062,-48.340,-25.391,0.977,167.969
1689846936.371,-45.410,-40.527,-34.180,-44.434,-113.770
1689846936.375,-70.801,-42.969,-33.691,-37.598,-178.223
1689846936.379,-54.199,-37.598,-17.578,-30.762,-174.316
1689846936.381,-14.160,-36.621,-33.203,-62.012,-65.918
1689846936.385,-29.785,-49.805,-46.387,-47.363,-68.848
1689846936.389,-51.270,-62.500,-40.039,-36.133,-31.250
1689846936.393,-83.984,-62.012,-49.316,-75.195,19.531
1689846936.397,-75.195,-48.340,-45.410,-63.965,-81.543
1689846936.401,-47.852,-45.898,-32.227,-47.363,-41.504
1689846936.405,-42.480,-46.875,-38.086,-16.602,170.898
1689846936.408,-38.086,-41.016,-45.410,-0.488,361.816
1689846936.412,-78.125,-40.039,-45.898,-76.172,101.074
1689846936.416,-88.867,-51.758,-42.480,-79.590,-161.621
1689846936.420,-42.969,-49.805,-40.039,-41.016,-31.250
1689846936.424,-30.762,-37.598,-49.316,-20.508,134.277
1689846936.427,-31.738,-34.668,-46.387,-25.879,-55.176
1689846936.431,-37.598,-31.738,-41.992,-55.664,-141.602
1689846936.435,-46.387,-32.715,-52.734,-33.203,-31.738
1689846936.439,-21.484,-33.691,-49.316,5.859,-47.363
1689846936.443,3.418,-32.715,-48.340,-15.625,-56.152
1689846936.447,-12.207,-36.621,-35.156,-48.828,9.766
1689846936.451,-30.273,-35.156,-20.020,-70.312,279.785
1689846936.454,-38.086,-27.832,-50.781,-73.730,146.973
1689846936.458,-32.227,-22.949,-59.570,-29.297,-188.477
1689846936.462,-10.254,-25.391,-34.180,15.137,-119.141
1689846936.466,-13.672,-35.156,-22.949,-18.066,-80.078
1689846936.470,-57.129,-39.551,-34.180,-66.895,-138.672
1689846936.471,-73.730,-41.992,-29.785,-74.707,-198.730
1689846936.475,-41.504,-41.016,-11.230,-39.551,-203.613
1689846936.479,-6.836,-28.809,-34.180,0.977,-93.750
1689846936.483,-14.648,-25.879,-50.293,14.160,-41.504
1689846936.487,-47.363,-26.855,-23.926,-39.062,-138.184
1689846936.491,-61.035,-35.156,-20.996,-73.242,-17.578
1689846936.495,-45.410,-34.180,-43.945,-47.852,268.555
1689846936.498,-22.461,-32.227,-38.086,-32.227,118.652
1689846936.502,-29.297,-35.156,-25.879,-14.648,7.324
1689846936.506,-43.457,-36.133,-29.785,-19.531,123.535
1689846936.510,-59.570,-37.109,-21.484,-42.969,268.555
1689846936.514,-60.059,-30.273,-22.949,-68.359,-30.273
1689846936.531,-38.086,-30.273,-30.273,-50.781,-144.531
1689846936.535,-39.551,-35.645,-39.062,-17.090,1.953
1689846936.539,-53.711,-39.551,-41.992,-42.480,-99.609
1689846936.543,-56.641,-42.480,-27.344,-41.992,-231.445
1689846936.547,-53.711,-34.180,-26.855,-35.156,-141.602
1689846936.551,-28.809,-26.367,-34.668,11.719,192.383
1689846936.555,-21.973,-31.738,-27.832,41.016,178.223
1689846936.558,-44.922,-29.785,-34.180,-12.695,-56.152
1689846936.562,-46.875,-27.832,-49.316,-34.180,-131.348
1689846936.566,-52.734,-31.250,-32.227,-12.695,76.660
1689846936.570,-45.410,-32.715,-20.996,-0.488,118.164
1689846936.574,-5.371,-29.297,-45.898,17.090,-64.941
1689846936.576,-8.789,-24.902,-62.500,-22.949,-91.797
1689846936.580,-60.059,-39.062,-49.805,-66.895,-107.422
1689846936.584,-92.285,-51.270,-25.879,-40.527,-126.953
1689846936.588,-67.871,-53.711,-31.738,-37.598,-79.590
1689846936.592,-28.320,-51.270,-55.664,-45.410,20.020
1689846936.596,-28.809,-33.691,-48.340,-46.875,115.723
1689846936.600,-51.270,-28.320,-45.410,-73.242,35.156
1689846936.603,-25.391,-25.391,-54.199,-61.523,-135.254
1689846936.607,1.465,-20.996,-45.410,-18.555,21.484
1689846936.611,-4.395,-22.461,-39.551,32.715,311.035
1689846936.615,-33.203,-21.973,-20.996,-3.906,90.332
1689846936.619,-64.453,-23.438,-25.879,-89.844,-158.203
1689846936.621,-61.035,-21.973,-44.434,-81.055,-30.762
1689846936.625,-28.320,-28.320,-52.246,-34.180,237.793
1689846936.629,-4.395,-33.203,-50.293,-14.160,4.395
1689846936.633,-35.645,-34.668,-41.016,-35.156,-146.484
1689846936.637,-54.199,-30.762,-54.199,-62.988,-38.574
1689846936.641,-54.199,-20.996,-54.688,-76.172,-35.645
1689846936.645,-40.039,-20.020,-51.758,-30.762,-70.801
1689846936.648,-17.578,-28.320,-60.059,-9.766,-52.734
1689846936.652,-24.414,-28.809,-44.922,-9.766,237.793
1689846936.656,-35.645,-25.879,-28.809,-40.039,150.391
1689846936.660,-48.340,-33.691,-34.668,-79.590,-170.898
1689846936.664,-44.922,-35.645,-48.340,-43.945,-154.785
1689846936.667,-30.762,-26.855,-60.059,-0.977,-8.789
1689846936.671,-35.645,-28.809,-47.852,-7.324,-40.039
1689846936.675,-33.203,-35.156,-35.645,-46.875,-129.395
1689846936.679,-36.621,-29.785,-37.598,-64.941,-107.910
1689846936.683,-38.574,-29.785,-36.133,-35.156,-18.066
1689846936.687,-32.715,-38.086,-34.180,3.906,39.551
1689846936.691,-47.852,-34.180,-45.410,8.789,49.805
1689846936.694,-43.457,-33.203,-46.875,-29.297,52.734
1689846936.698,-22.949,-38.086,-31.738,-75.195,354.492
1689846936.702,-21.484,-38.574,-41.504,-48.340,139.160
1689846936.706,-43.457,-47.852,-67.383,-22.949,-165.527
1689846936.710,-45.898,-50.293,-53.711,-25.391,-55.664
1689846936.711,-34.180,-43.457,-20.020,-28.809,-126.465
1689846936.715,-56.641,-46.387,-15.625,-67.871,-266.602
1689846936.719,-81.055,-49.805,-20.020,-72.754,-229.004
1689846936.723,-45.410,-52.246,-30.273,-26.855,15.137
1689846936.727,-20.020,-49.316,-35.156,-1.953,57.617
1689846936.731,-52.734,-44.434,-29.297,-41.992,-68.848
1689846936.735,-57.617,-39.062,-33.691,-93.750,-47.852
1689846936.738,-53.223,-41.504,-45.898,-69.336,78.613
1689846936.742,-56.641,-45.898,-57.129,-41.504,38.086
1689846936.746,-34.180,-45.898,-38.086,-8.789,-64.453
1689846936.750,10.254,-39.062,-10.254,-17.578,-53.711
1689846936.754,-25.391,-39.062,-50.781,-49.316,189.941
1689846936.756,-70.801,-47.363,-64.941,-51.758,58.105
1689846936.760,-38.086,-42.480,-47.852,-34.180,-183.594
1689846936.764,-31.250,-41.504,-56.641,-29.785,-53.711
1689846936.768,-47.852,-42.480,-55.176,-11.230,7.812
1689846936.772,-36.621,-37.598,-46.387,-36.621,-59.570
1689846936.776,-39.551,-39.551,-46.387,-55.664,-109.863
1689846936.780,-46.875,-40.527,-39.551,-36.133,68.359
1689846936.783,-32.227,-37.598,-26.855,-19.043,512.695
1689846936.787,-1.465,-42.480,-32.715,0.000,308.105
1689846936.791,28.320,-46.387,-40.039,-4.883,-114.258
1689846936.795,-34.180,-34.180,-38.086,-54.199,-104.980
1689846936.799,-71.289,-21.484,-53.223,-101.562,30.273
1689846936.801,-28.809,-20.996,-45.410,-45.410,-67.871
1689846936.805,-32.227,-21.484,-26.855,-35.645,-102.051
1689846936.809,-49.316,-24.414,-48.340,-79.590,-61.523
1689846936.813,-55.176,-26.855,-62.988,-102.051,-93.750
1689846936.817,-61.035,-25.879,-50.781,-104.492,-176.758
1689846936.821,-46.387,-22.461,-53.711,-47.363,-43.945
1689846936.825,-51.270,-29.297,-54.199,-14.648,250.488
1689846936.828,-38.086,-20.996,-47.852,-74.219,220.215
1689846936.832,-22.461,-16.113,-42.480,-104.004,-55.664
1689846936.836,-46.875,-25.391,-30.762,-60.547,-150.879
1689846936.840,-41.504,-27.832,-54.199,-18.555,37.109
1689846936.844,-31.738,-32.715,-59.570,-4.395,20.508
1689846936.846,-54.688,-33.203,-42.480,-43.457,-172.363
1689846936.850,-40.527,-30.762,-38.086,-70.801,-179.199
1689846936.854,-42.969,-30.762,-49.805,-34.180,-47.852
1689846936.858,-42.480,-23.926,-57.129,-9.766,-77.637
1689846936.862,-36.133,-26.367,-29.785,-23.926,-113.281
1689846936.866,-37.598,-28.320,-22.461,-33.203,2.930
1689846936.870,-47.852,-25.879,-13.184,-70.801,46.875
1689846936.873,-55.664,-27.832,-9.277,-78.125,-55.664
1689846936.877,-20.020,-27.344,-20.020,-20.508,-13.184
1689846936.881,-22.949,-34.668,-27.344,-12.695,112.305
1689846936.885,-36.621,-30.762,-44.434,-44.434,370.605
1689846936.889,-15.137,-17.090,-49.316,-57.617,92.285
1689846936.906,-31.738,-20.020,-33.203,-79.590,-195.801
1689846936.910,-20.996,-17.090,-28.809,-28.809,-51.270
1689846936.914,16.602,-12.695,-61.035,13.184,-36.133
1689846936.918,-17.090,-19.043,-68.359,-21.484,-130.371
1689846936.922,-36.133,-20.020,-47.852,-46.875,-170.898
1689846936.926,-4.883,-15.137,-39.551,-62.988,38.574
1689846936.930,-16.602,-21.973,-38.086,-24.414,111.328
1689846936.933,-30.273,-31.738,-40.039,-5.371,-46.875
1689846936.937,-26.367,-33.203,-33.203,-34.180,-65.918
1689846936.941,-33.203,-35.156,-40.527,-42.480,135.254
1689846936.945,-53.711,-33.203,-46.387,-67.383,-21.484
1689846936.949,-39.551,-25.391,-31.250,-20.020,-195.801
1689846936.951,19.043,-10.254,-15.137,48.828,6.836
1689846936.955,2.930,-14.160,-31.250,7.324,88.379
1689846936.959,-47.852,-30.273,-50.781,-64.453,-67.871
1689846936.963,-57.129,-26.367,-46.387,-68.359,-194.824
1689846936.967,-40.039,-27.832,-35.156,-20.020,-115.723
1689846936.971,7.812,-41.504,-25.879,29.785,57.617
1689846936.975,-23.438,-38.574,-22.949,-9.277,48.828
1689846936.978,-94.238,-20.508,-21.484,-110.840,-92.285
1689846936.982,-90.820,-19.043,-40.527,-101.074,-38.086
1689846936.986,-58.105,-25.879,-49.805,-64.453,286.133
1689846936.990,-53.711,-30.762,-48.340,-43.945,117.188
1689846936.994,-101.074,-34.668,-79.590,-97.656,-116.699
1689846936.996,-102.539,-21.484,-83.008,-145.996,-83.496
1689846937.000,-108.398,-28.320,-42.480,-136.230,-103.027
1689846937.004,-80.566,-29.785,-32.715,-109.863,-104.004
1689846937.008,-50.293,-10.254,-33.691,-15.137,-20.508
1689846937.012,-60.059,-24.902,-34.668,-41.504,142.578
1689846937.016,-64.453,-35.645,-42.480,-94.238,65.430
1689846937.020,-82.520,-21.973,-12.695,-79.102,-44.922
1689846937.023,-81.055,-28.809,-18.066,-84.473,-117.676
1689846937.027,-43.457,-38.086,-54.688,-29.785,129.395
1689846937.031,-27.832,-28.809,-85.449,-16.113,192.383
1689846937.035,-61.523,-38.574,-63.965,-61.523,-95.703
1689846937.039,-83.008,-37.598,-4.395,-76.660,-139.160
1689846937.041,-66.406,-29.297,-8.789,-81.543,-106.445
1689846937.045,-57.617,-36.133,-31.738,-43.945,-57.617
1689846937.049,-57.617,-40.527,-36.133,-29.785,-24.902
1689846937.053,-42.969,-41.992,-36.133,-68.848,-32.715
1689846937.057,-51.270,-47.363,-46.387,-91.797,-64.453
1689846937.061,-63.477,-42.969,-62.012,-69.336,-85.938
1689846937.065,-43.945,-32.227,-48.828,-27.832,-60.547
1689846937.068,-23.438,-35.645,-48.828,-26.855,125.000
1689846937.072,-59.570,-42.969,-74.219,-38.574,443.848
1689846937.076,-80.078,-44.434,-77.148,-69.824,169.922
1689846937.080,-31.738,-31.250,-50.293,-80.078,-243.652
1689846937.084,-9.277,-25.879,-16.113,-11.719,-174.316
1689846937.086,-33.691,-38.574,-34.180,16.602,-125.977
1689846937.090,-40.527,-38.574,-40.039,-19.043,-191.406
1689846937.094,-39.551,-39.551,-29.785,-59.570,-223.633
1689846937.098,-40.527,-37.598,-57.129,-44.434,-161.621
1689846937.102,-15.625,-34.668,-56.641,-27.832,-125.000
1689846937.106,-19.043,-38.086,-37.109,-29.297,-78.125
1689846937.110,-38.086,-39.551,-34.668,-33.691,-32.715
1689846937.113,-49.316,-38.086,-32.715,-44.922,141.602
1689846937.117,-59.082,-36.133,-31.738,-63.477,158.691
1689846937.121,-45.410,-41.016,-39.062,-39.551,-117.188
1689846937.125,-29.785,-46.387,-36.133,6.348,-80.078
1689846937.129,-28.320,-35.645,-35.645,-28.809,83.008
1689846937.131,-39.551,-34.668,-41.992,-73.242,-120.117
1689846937.135,-33.203,-24.414,-44.434,-56.152,-258.789
1689846937.139,-9.277,-5.371,-47.852,-4.395,-187.500
1689846937.143,-15.625,-29.785,-48.340,24.414,-51.758
1689846937.147,-58.105,-61.035,-52.246,-30.273,-18.555
1689846937.151,-78.613,-57.129,-54.199,-62.012,-60.059
1689846937.155,-58.105,-38.574,-21.973,-41.016,31.250
1689846937.158,-31.738,-31.250,-29.785,-55.176,221.680
1689846937.162,-21.484,-30.762,-60.059,-48.828,116.211
1689846937.166,-30.762,-31.738,-37.598,-21.484,-91.797
1689846937.170,-41.504,-41.992,-25.391,-58.594,78.613
1689846937.174,-62.988,-45.410,-28.320,-74.707,201.172
1689846937.176,-79.590,-39.062,-32.715,-52.734,-146.484
1689846937.180,-41.016,-41.016,-33.691,-17.090,-131.836
1689846937.184,-32.715,-36.621,-36.621,9.766,38.086
1689846937.188,-57.617,-31.738,-61.035,-54.688,-66.895
1689846937.192,-60.059,-31.738,-45.410,-82.031,-186.523
1689846937.196,-37.109,-24.414,-25.391,-28.320,-90.332
1689846937.200,-33.691,-31.738,-30.762,-25.879,295.410
1689846937.203,-29.297,-36.133,-28.809,-22.949,343.750
1689846937.207,-27.832,-27.832,-33.691,-32.715,-29.297
1689846937.211,-38.574,-19.043,-48.340,-57.129,-176.758
1689846937.215,-24.902,-22.461,-40.527,-45.410,-154.297
1689846937.219,-15.625,-29.785,-18.555,-21.484,-143.555
1689846937.222,-17.090,-27.344,-29.297,24.902,-97.168
1689846937.226,-9.277,-30.762,-65.430,22.949,20.020
1689846937.230,-19.531,-26.367,-61.035,-55.664,35.645
1689846937.234,-57.129,-22.461,-42.480,-83.496,-58.105
1689846937.238,-40.039,-33.691,-42.480,-39.062,-112.305
1689846937.242,-3.906,-34.668,-38.086,17.578,26.855
1689846937.246,-18.066,-21.484,-22.461,11.230,224.609
1689846937.249,-22.461,-17.578,-18.066,-43.457,8.301
1689846937.253,-24.414,-22.461,-18.066,-39.551,-159.668
1689846937.257,-4.883,-16.113,-39.062,-11.719,31.250
1689846937.261,16.602,-11.719,-39.062,27.344,293.457
1689846937.265,-22.461,-27.832,-26.367,-11.230,49.805
1689846937.281,-44.434,-38.086,-45.410,-75.195,-104.980
1689846937.285,-55.664,-38.574,-52.246,-65.430,-45.410
1689846937.289,-40.527,-39.062,-40.527,-29.297,-32.227
1689846937.293,-20.508,-35.645,-29.785,26.855,65.430
1689846937.297,-5.859,-30.273,-33.691,-4.883,79.590
1689846937.301,-14.160,-30.273,-46.387,-56.152,312.012
1689846937.305,-50.293,-37.109,-33.691,-49.805,319.336
1689846937.308,-38.574,-39.062,-26.855,-44.434,-88.379
1689846937.312,-28.809,-36.621,-46.875,-17.578,-92.773
1689846937.316,-39.062,-38.574,-53.223,-23.926,101.074
1689846937.320,-34.668,-33.691,-47.852,-53.711,-49.316
1689846937.324,-36.133,-29.785,-52.246,-63.477,-216.309
1689846937.326,-22.949,-32.227,-61.523,-62.500,-162.109
1689846937.330,-26.367,-35.645,-61.035,-20.508,-69.824
1689846937.334,-15.137,-22.461,-64.453,28.320,-30.273
1689846937.338,-40.527,-20.508,-60.547,-30.273,-46.387
1689846937.342,-65.430,-38.086,-26.855,-97.656,-83.008
1689846937.346,-52.246,-39.551,10.742,-52.734,45.898
1689846937.350,-41.016,-36.621,7.324,1.953,179.199
1689846937.353,-42.480,-38.086,0.000,10.254,147.949
1689846937.357,-42.480,-29.297,-13.184,-29.297,192.871
1689846937.361,-30.273,-17.090,-38.574,-54.199,438.965
1689846937.365,-52.734,-13.672,-46.387,-46.875,278.809
1689846937.369,-29.297,-21.484,-37.109,-22.461,-75.684
1689846937.371,-19.043,-32.715,-36.621,-5.859,-58.105
1689846937.375,-43.457,-33.203,-33.691,-26.367,-100.098
1689846937.379,-35.645,-30.273,-34.668,-66.895,-240.723
1689846937.383,-23.926,-29.785,-47.852,-53.223,-248.047
1689846937.387,-18.555,-31.250,-43.945,-2.930,-106.934
1689846937.391,-24.414,-37.598,-39.062,11.719,-33.691
1689846937.395,-34.180,-34.668,-44.922,-31.738,-12.207
1689846937.398,-18.066,-22.949,-42.969,-76.660,-97.168
1689846937.402,-17.578,-20.996,-49.316,-58.594,225.098
1689846937.406,-56.152,-28.320,-45.898,-18.555,399.414
1689846937.410,-28.320,-26.367,-28.320,-11.230,-17.090
1689846937.414,-10.254,-29.297,-41.016,-11.719,-100.586
1689846937.416,-47.363,-31.738,-45.410,-26.855,-71.777
1689846937.420,-28.320,-22.949,-28.320,-33.203,-141.113
1689846937.424,0.488,-22.461,-19.531,27.344,-132.324
1689846937.428,33.691,-25.879,-23.438,50.781,-31.738
1689846937.432,17.578,-20.508,-39.062,-26.855,-19.531
1689846937.436,-52.734,-22.949,-45.898,-70.312,-62.500
1689846937.440,-21.484,-21.973,-37.598,-51.758,-109.863
1689846937.443,16.602,-18.066,-34.668,-8.301,-17.090
1689846937.447,4.395,-21.973,-49.805,16.602,495.605
1689846937.451,-22.461,-22.461,-62.500,-11.230,253.418
1689846937.455,-22.461,-23.926,-46.875,-38.574,-216.797
1689846937.459,-18.066,-30.762,-43.945,-38.574,-67.383
1689846937.461,-18.066,-31.250,-55.664,-29.297,-34.668
1689846937.465,23.926,-21.484,-69.336,-4.395,-190.430
1689846937.469,2.930,-21.973,-62.500,10.254,-163.574
1689846937.473,-54.199,-31.738,-49.316,-10.254,-84.961
1689846937.477,-46.875,-33.691,-50.781,-39.062,-121.582
1689846937.481,-20.020,-29.785,-56.152,-48.828,-107.910
1689846937.485,-25.391,-30.273,-50.293,-39.062,32.715
1689846937.488,-38.086,-32.715,-51.270,-20.020,250.000
1689846937.492,-54.199,-39.551,-56.641,-41.504,152.832
1689846937.496,-50.293,-36.621,-54.688,-61.035,-177.734
1689846937.500,-15.137,-29.297,-61.523,-48.340,-168.457
1689846937.504,-14.160,-40.527,-52.246,-4.395,-25.879
1689846937.507,-50.781,-46.387,-32.715,13.184,-11.719
1689846937.511,-20.508,-33.691,-14.160,-20.020,-17.578
1689846937.515,-21.973,-20.020,-38.086,-33.691,-60.547
1689846937.519,-67.383,-26.367,-59.570,-55.176,-19.043
1689846937.523,-27.832,-33.691,-46.875,-26.855,-6.836
1689846937.527,-20.508,-38.086,-42.480,-6.836,5.371
1689846937.531,-36.133,-39.551,-34.180,-29.785,136.719
1689846937.534,-23.438,-24.902,-31.738,-55.176,341.309
1689846937.538,-37.598,-19.531,-44.922,-45.410,23.926
1689846937.542,-28.809,-23.926,-41.016,-10.742,-210.938
1689846937.546,-19.043,-25.391,-40.527,-17.090,-11.719
1689846937.550,-37.109,-30.762,-39.551,-32.715,37.598
1689846937.551,-46.875,-32.227,-32.715,-58.594,-152.832
1689846937.555,-13.184,-25.391,-38.086,-43.945,-160.156
1689846937.559,-12.695,-22.949,-29.785,-8.301,-21.973
1689846937.563,-19.043,-25.391,-40.527,3.906,0.488
1689846937.567,-11.230,-18.066,-67.871,5.371,6.836
1689846937.571,-21.973,-17.090,-39.551,-27.344,17.090
1689846937.575,-41.992,-23.926,-14.160,-61.035,280.273
1689846937.578,-25.879,-20.996,-24.414,-28.320,369.629
1689846937.582,-3.418,-23.438,-25.879,5.859,-35.156
1689846937.586,-20.996,-21.484,-43.457,-3.418,-179.199
1689846937.590,-12.207,-16.602,-62.012,-26.855,-99.121
1689846937.594,-14.648,-22.461,-43.945,-48.828,-171.387
1689846937.596,-31.738,-32.715,-34.180,-53.223,-180.664
1689846937.600,-11.719,-41.992,-20.996,-13.672,-76.172
1689846937.604,-25.391,-39.062,-10.254,-12.207,-48.828
1689846937.608,-37.109,-35.645,-19.043,-37.598,-118.652
1689846937.612,-21.973,-39.062,-25.391,-32.227,-176.758
1689846937.616,-22.461,-41.016,-24.902,3.906,-52.246
1689846937.620,-10.254,-43.945,-21.973,18.555,164.062
1689846937.623,-0.977,-44.922,-25.391,-8.301,94.238
1689846937.627,-20.508,-45.410,-17.090,-22.461,-4.395
1689846937.631,-47.852,-46.387,-7.324,-23.438,75.684
1689846937.635,-36.621,-47.852,-20.996,16.113,274.414
1689846937.639,-2.441,-48.340,-30.762,49.805,59.570
1689846937.656,5.371,-39.062,-35.645,19.043,-144.043
1689846937.660,-15.137,-37.598,-38.086,-13.184,-88.379
1689846937.664,-33.203,-43.945,-41.504,-22.461,-164.551
1689846937.668,-25.879,-36.133,-34.180,-14.160,-231.445
1689846937.672,-5.859,-32.227,-17.578,29.785,-124.512
1689846937.676,2.930,-36.133,-12.207,45.898,143.066
1689846937.680,-24.414,-32.227,-12.207,-13.184,156.738
1689846937.683,-31.250,-34.180,-16.113,-50.781,-69.336
1689846937.687,-33.691,-43.945,-16.602,-34.668,-125.000
1689846937.691,-6.348,-27.344,-21.973,5.371,221.680
1689846937.695,-1.953,-18.066,-31.738,-5.371,199.219
1689846937.699,-54.199,-28.320,-49.805,-36.621,-176.758
1689846937.701,-49.805,-24.414,-57.129,-51.758,-235.352
1689846937.705,-30.762,-28.320,-54.199,-34.180,-188.477
1689846937.709,-27.832,-38.574,-40.527,-1.953,-148.926
1689846937.713,-5.859,-35.156,-28.809,29.297,-99.121
1689846937.717,-4.883,-31.250,-27.832,4.395,-60.547
1689846937.721,-23.926,-28.809,-41.992,-44.922,-15.625
1689846937.725,-29.785,-24.414,-63.965,-47.363,-66.895
1689846937.728,-15.625,-30.273,-48.340,-9.766,-103.027
1689846937.732,2.930,-35.156,-33.691,19.531,95.703
1689846937.736,-30.273,-32.715,-40.527,-12.207,399.902
1689846937.740,-57.617,-28.809,-40.527,-69.824,128.906
1689846937.744,-11.230,-23.438,-37.598,-46.875,-182.617
1689846937.746,0.488,-21.484,-36.133,3.418,23.438
1689846937.750,-15.625,-22.461,-22.949,9.766,107.422
1689846937.754,-18.555,-28.320,-23.438,-5.371,-83.008
1689846937.758,-55.176,-33.691,-29.297,-35.645,-184.082
1689846937.762,-59.082,-28.320,-39.062,-51.758,-140.137
1689846937.766,-14.648,-26.367,-61.523,-24.902,-8.789
1689846937.770,12.695,-22.949,-40.039,3.906,65.918
1689846937.773,-23.926,-23.438,-22.461,-15.137,9.766
1689846937.777,-42.480,-33.203,-43.945,-41.504,172.363
1689846937.781,-44.434,-37.598,-58.105,-58.105,108.887
1689846937.785,-30.273,-34.668,-34.668,-44.434,-106.934
1689846937.789,-17.090,-30.273,-23.438,-7.812,-41.992
1689846937.792,-38.086,-33.203,-48.340,-10.742,15.137
1689846937.796,-47.363,-28.320,-41.504,-44.434,-91.797
1689846937.800,-38.574,-22.461,-34.180,-71.289,-167.969
1689846937.804,-32.227,-23.926,-38.574,-48.340,-106.445
1689846937.808,-35.645,-34.180,-34.180,-6.348,38.574
1689846937.812,-8.301,-34.180,-30.273,-17.090,61.523
1689846937.816,-30.762,-31.738,-28.320,-53.223,-19.043
1689846937.819,-64.941,-39.062,-29.785,-41.016,40.527
1689846937.823,-41.016,-39.062,-45.898,-22.461,421.875
1689846937.827,-12.695,-39.551,-51.758,-8.789,236.328
1689846937.831,24.414,-41.992,-42.480,21.973,-80.566
1689846937.835,0.000,-49.316,-37.598,8.301,-50.293
1689846937.836,-62.012,-45.410,-32.227,-36.621,-171.387
1689846937.840,-67.871,-34.668,-44.922,-67.383,-221.191
1689846937.844,-44.434,-33.203,-48.828,-46.387,-96.191
1689846937.848,-11.719,-38.086,-41.992,-5.371,-12.207
1689846937.852,-12.207,-35.156,-44.434,-21.973,-35.645
1689846937.856,-36.621,-30.762,-41.992,-60.059,-55.664
1689846937.860,-26.367,-33.691,-36.621,-47.852,-18.066
1689846937.863,-5.859,-33.203,-29.785,14.648,298.828
1689846937.867,-6.836,-32.227,-24.902,49.805,371.582
1689846937.871,-34.668,-33.691,-39.062,13.672,-32.227
1689846937.875,-3.906,-14.160,-49.316,-15.625,-151.367
1689846937.879,17.578,-12.207,-69.824,-16.113,-118.164
1689846937.881,-26.367,-39.062,-70.312,-2.930,-148.438
1689846937.885,-42.480,-47.363,-45.898,5.859,-114.746
1689846937.889,-42.480,-39.551,-43.945,-12.207,-90.820
1689846937.893,-36.133,-36.621,-48.828,-29.785,-145.508
1689846937.897,-38.086,-34.180,-48.340,-50.781,-159.180
1689846937.901,-32.227,-26.855,-53.711,-16.113,-1.953
1689846937.905,-5.859,-19.043,-54.688,32.715,176.758
1689846937.908,-10.254,-14.648,-37.109,5.371,417.969
1689846937.912,-43.457,-24.414,-39.551,-58.105,183.105
1689846937.916,-40.039,-38.574,-54.199,-66.406,-126.465
1689846937.920,-20.020,-37.109,-58.594,-16.113,44.922
1689846937.924,-27.344,-32.227,-39.062,1.953,229.980
1689846937.926,-47.363,-26.855,-21.484,-32.715,-10.742
1689846937.930,-57.617,-28.320,-36.133,-70.801,-178.711
1689846937.934,-57.617,-41.992,-49.805,-85.938,-108.398
1689846937.938,-56.641,-44.434,-40.527,-46.387,-73.730
1689846937.942,-36.133,-44.434,-39.551,-6.348,-128.418
1689846937.946,-38.086,-41.992,-41.016,-17.578,-104.492
1689846937.950,-53.223,-36.133,-39.551,-48.828,178.223
1689846937.953,-51.270,-34.668,-37.109,-63.477,128.418
1689846937.957,-45.410,-33.691,-25.879,-26.367,-162.109
1689846937.961,-20.020,-37.598,-26.367,9.277,-25.391
1689846937.965,-18.555,-42.969,-34.180,13.672,173.340
1689846937.969,-41.992,-42.480,-28.320,-25.391,-23.438
1689846937.971,-55.664,-39.062,-34.180,-79.590,-195.801
1689846937.975,-33.691,-35.156,-44.434,-56.152,-109.375
1689846937.979,-20.020,-40.039,-33.691,-24.902,-12.207
1689846937.983,-9.277,-40.039,-27.344,-15.625,-20.508
1689846937.987,7.324,-32.227,-35.156,-29.297,-132.812
1689846937.991,-15.137,-32.715,-53.223,-59.082,-64.941
1689846937.995,-15.137,-29.785,-46.875,-27.832,138.672
1689846937.998,-21.484,-28.320,-36.133,-8.789,105.957
1689846938.002,-32.227,-36.133,-42.969,3.418,62.500
1689846938.006,-16.113,-42.969,-38.574,8.789,18.555
1689846938.010,-48.828,-30.762,-28.809,-23.926,142.090
1689846938.014,-93.750,-20.996,-45.898,-77.637,-21.973
1689846938.046,-67.871,-27.832,-34.180,-82.520,-87.891
1689846938.050,-76.172,-40.527,-29.297,-54.688,111.328
1689846938.054,-127.441,-44.434,-48.340,-111.816,49.316
1689846938.058,-123.047,-38.086,-42.969,-130.859,-164.551
1689846938.062,-106.445,-38.574,-48.340,-110.352,-163.574
1689846938.066,-85.938,-38.574,-62.012,-113.281,27.344
1689846938.070,-83.984,-37.109,-39.551,-93.750,95.703
1689846938.073,-127.441,-41.504,-50.781,-137.695,-19.043
1689846938.077,-135.742,-35.156,-73.242,-154.785,-112.793
1689846938.081,-108.398,-29.297,-36.133,-101.074,96.680
1689846938.085,-78.125,-25.879,-21.484,-86.914,52.246
1689846938.089,-74.219,-33.691,-32.715,-77.637,-125.488
1689846938.077,-69.824,-36.621,-39.551,-95.703,-119.141
1689846938.081,-71.777,-32.227,-52.246,-113.281,-149.902
1689846938.085,-86.426,-32.227,-45.898,-103.027,-140.137
1689846938.089,-59.570,-31.738,-20.996,-59.082,-93.262
1689846938.093,-21.973,-31.250,-16.113,-13.672,41.992
1689846938.097,-38.574,-29.785,-22.461,-17.090,287.598
1689846938.101,-41.504,-22.461,-30.762,-74.219,161.133
1689846938.104,-42.969,-15.137,-50.781,-100.098,-48.828
1689846938.108,-47.363,-24.902,-55.664,-50.781,68.848
1689846938.112,-24.902,-39.062,-35.645,-14.648,108.398
1689846938.116,-26.367,-36.133,-21.484,-40.039,-37.109
1689846938.120,-55.664,-31.738,-25.879,-58.105,-181.641
1689846938.121,-70.801,-35.645,-51.270,-57.617,-72.754
1689846938.125,-61.035,-40.039,-45.410,-38.086,312.500
1689846938.129,-32.227,-36.621,-15.625,-7.324,123.047
1689846938.133,-24.902,-27.344,-26.855,-8.301,-120.605
1689846938.137,-58.105,-23.926,-74.219,-41.992,-16.602
1689846938.141,-70.312,-32.227,-70.801,-62.500,-4.395
1689846938.145,-55.664,-38.086,-32.715,-46.387,-29.297
1689846938.148,-21.484,-34.180,-28.320,-46.387,-40.527
1689846938.152,-7.812,-32.715,-27.344,-22.949,190.918
1689846938.156,-48.828,-31.250,-31.738,-30.762,257.324
1689846938.160,-83.008,-32.715,-41.504,-86.914,-141.113
1689846938.164,-63.477,-35.645,-34.668,-81.543,-190.918
1689846938.166,-26.367,-28.809,-47.363,-38.086,-45.410
1689846938.170,-8.301,-22.949,-49.316,-24.902,-84.961
1689846938.174,-14.648,-26.367,-27.344,-42.969,-151.855
1689846938.178,-22.461,-32.227,-37.598,-60.059,-128.418
1689846938.182,-29.297,-41.504,-42.480,-48.828,-55.664
1689846938.186,-31.250,-36.133,-41.016,1.465,62.012
1689846938.190,-16.602,-26.855,-60.059,24.414,112.793
1689846938.193,-13.184,-25.879,-45.898,-28.320,80.566
1689846938.197,-51.270,-20.996,-30.273,-83.008,368.652
1689846938.201,-58.594,-22.949,-41.016,-61.035,303.223
1689846938.205,-20.020,-29.297,-32.715,-5.371,-99.609
1689846938.209,7.812,-27.344,-29.785,9.277,-63.965
1689846938.211,-8.301,-21.484,-44.434,-21.973,-60.547
1689846938.215,-48.340,-17.090,-47.852,-30.762,-194.336
1689846938.219,-54.199,-19.043,-53.223,-45.410,-173.340
1689846938.223,-41.016,-33.691,-36.133,-44.434,-94.238
1689846938.227,-39.551,-42.480,-36.621,-13.184,-65.918
1689846938.231,-36.133,-28.320,-34.668,-26.855,-10.254
1689846938.235,-49.805,-22.949,-19.531,-71.777,-6.348
1689846938.238,-31.738,-31.250,-19.531,-64.941,126.953
1689846938.242,-5.371,-28.809,-33.691,-15.625,89.355
1689846938.246,-34.180,-30.273,-43.457,6.348,-127.930
1689846938.250,-21.973,-35.156,-56.152,-5.371,-98.145
1689846938.254,-20.996,-37.598,-56.152,-50.781,41.016
1689846938.256,-72.266,-38.086,-30.762,-100.098,-97.656
1689846938.260,-83.984,-41.016,-31.250,-70.801,-190.430
1689846938.264,-36.621,-28.320,-26.367,-0.977,-106.934
1689846938.268,-39.551,-20.508,-32.227,-20.996,-92.773
1689846938.272,-65.918,-27.344,-33.203,-92.285,-165.039
1689846938.276,-44.434,-26.855,-29.785,-101.562,-93.262
1689846938.280,-70.801,-33.203,-29.297,-57.617,108.887
1689846938.283,-64.453,-39.062,-24.414,-6.836,376.465
1689846938.287,-42.969,-33.203,-35.645,-18.066,256.836
1689846938.291,-43.945,-24.414,-52.246,-50.293,-94.238
1689846938.295,-47.363,-28.809,-55.176,-62.988,-84.473
1689846938.299,-56.152,-37.598,-48.340,-67.871,7.812
1689846938.302,-45.898,-37.598,-48.340,-29.785,-14.648
1689846938.306,-45.898,-39.062,-26.855,-23.438,-59.570
1689846938.310,-53.711,-31.250,-16.602,-66.895,-39.551
1689846938.314,-63.477,-23.926,-23.438,-72.266,-82.520
1689846938.318,-59.082,-32.227,-36.621,-72.754,-166.992
1689846938.322,-29.785,-38.086,-26.855,-32.227,58.594
1689846938.326,-33.691,-38.574,-26.367,-5.371,421.875
1689846938.329,-53.711,-42.480,-45.898,-54.199,230.469
1689846938.333,-53.711,-40.039,-45.898,-85.938,-211.426
1689846938.337,-46.387,-31.738,-45.898,-58.105,-203.613
1689846938.341,-49.316,-31.738,-55.176,-20.020,-46.875
1689846938.345,-46.875,-40.039,-61.035,-8.301,-3.906
1689846938.362,-48.828,-47.852,-47.363,-53.711,-88.867
1689846938.366,-54.688,-41.992,-37.598,-73.730,-178.711
1689846938.370,-27.344,-34.180,-33.691,-49.316,-89.355
1689846938.374,-18.066,-28.320,-24.414,-8.301,28.809
1689846938.378,-30.762,-23.438,-37.109,8.789,-25.879
1689846938.382,-10.742,-17.090,-40.527,-20.996,57.617
1689846938.386,-13.672,-25.879,-31.738,-46.875,314.941
1689846938.389,-40.527,-41.504,-42.969,-43.945,155.762
1689846938.393,-28.809,-42.969,-41.016,-38.574,-65.430
1689846938.397,-1.953,-36.133,-47.363,-21.973,29.785
1689846938.401,-41.016,-35.645,-48.828,-8.301,165.039
1689846938.405,-81.055,-27.344,-34.668,-49.316,-69.336
1689846938.406,-40.039,-29.297,-37.598,-73.242,-238.281
1689846938.410,-9.277,-36.133,-33.203,-42.480,-77.148
1689846938.414,-33.203,-35.645,-30.273,-6.348,0.000
1689846938.418,-48.340,-37.109,-52.734,-21.973,-66.406
1689846938.422,-34.668,-43.457,-62.012,-56.641,-113.281
1689846938.426,-21.973,-46.387,-50.781,-40.039,51.270
1689846938.430,-36.621,-28.809,-32.715,-17.090,77.148
1689846938.433,-23.438,-15.625,-30.273,3.906,-41.016
1689846938.437,-32.715,-16.113,-39.551,-14.160,-64.453
1689846938.441,-71.777,-20.996,-25.391,-85.449,167.480
1689846938.445,-55.176,-21.484,-32.715,-110.352,195.312
1689846938.449,-41.016,-29.785,-33.203,-57.617,-178.711
1689846938.451,-25.879,-28.320,-15.625,7.324,-180.664
1689846938.455,2.441,-17.090,-40.527,14.648,-39.062
1689846938.459,-25.879,-27.832,-55.176,-38.086,-82.031
1689846938.463,-84.961,-44.922,-39.551,-84.961,-178.223
1689846938.467,-80.566,-47.363,-22.949,-63.965,-133.789
1689846938.471,-24.414,-39.551,-19.043,-7.812,26.367
1689846938.475,-31.250,-37.598,-34.668,-17.090,128.906
1689846938.478,-51.758,-34.180,-35.645,-53.711,12.207
1689846938.482,-36.621,-30.273,-33.691,-59.570,21.973
1689846938.486,-21.973,-25.879,-46.875,-37.598,459.961
1689846938.490,-17.090,-24.414,-63.477,0.488,369.141
1689846938.494,-33.691,-34.668,-52.246,14.648,-27.344
1689846938.496,-33.203,-32.227,-13.672,-2.441,-46.875
1689846938.500,-29.785,-22.461,-7.324,-38.574,-116.699
1689846938.504,-42.969,-27.832,-34.180,-55.664,-199.219
1689846938.508,-29.785,-28.320,-38.086,-23.438,-134.277
1689846938.512,-17.090,-34.180,-42.969,-7.812,-10.742
1689846938.516,-13.184,-31.250,-36.133,-47.363,-8.301
1689846938.520,-42.969,-23.438,-31.738,-62.988,-24.414
1689846938.523,-63.965,-31.250,-55.664,-51.758,-63.477
1689846938.527,-36.621,-29.785,-49.316,-33.203,-3.418
1689846938.531,-30.273,-20.508,-38.574,-15.625,-17.090
1689846938.535,-35.645,-24.902,-41.016,-28.320,-65.918
1689846938.539,-38.086,-32.715,-22.949,-67.383,-133.301
1689846938.541,-42.969,-28.320,-30.762,-52.246,138.672
1689846938.545,-29.785,-24.902,-46.387,-7.812,203.125
1689846938.549,-9.277,-17.578,-26.367,17.578,-27.344
1689846938.553,-26.367,-27.832,-30.273,-24.414,-37.109
1689846938.557,-67.383,-40.527,-35.645,-71.289,-74.219
1689846938.561,-54.688,-33.203,-38.086,-58.594,-86.914
1689846938.565,-26.855,-26.855,-38.574,-21.973,-65.918
1689846938.568,-20.020,-26.367,-37.109,3.418,60.547
1689846938.572,-12.695,-29.297,-46.875,-12.695,452.148
1689846938.576,-54.688,-35.156,-43.457,-51.270,204.590
1689846938.580,-87.891,-36.621,-30.273,-67.871,-200.684
1689846938.584,-38.086,-35.156,-38.086,-46.387,-97.168
1689846938.586,-7.812,-29.297,-34.668,-17.090,-20.508
1689846938.590,-39.551,-31.738,-31.738,-38.574,-72.754
1689846938.594,-58.594,-34.180,-27.832,-74.707,-153.320
1689846938.598,-46.387,-31.738,-34.668,-63.965,-49.316
1689846938.602,-3.418,-27.832,-51.758,-33.203,-5.859
1689846938.606,-11.719,-28.809,-31.250,-20.020,-20.020
1689846938.610,-28.320,-31.738,-33.203,-26.367,9.766
1689846938.613,-20.020,-27.344,-36.621,-39.551,6.836
1689846938.617,-54.199,-38.574,-17.090,-72.754,-131.348
1689846938.621,-53.223,-49.805,-16.602,-41.504,-228.027
1689846938.625,-40.039,-43.945,-22.949,12.207,-104.980
1689846938.629,-32.715,-38.086,-17.578,-6.348,195.312
1689846938.631,-38.086,-37.109,-29.297,-69.824,47.363
1689846938.635,-71.289,-41.016,-32.715,-85.449,-243.164
1689846938.639,-61.035,-36.133,-33.691,-45.898,-113.770
1689846938.643,-30.762,-28.320,-39.062,-24.902,47.852
1689846938.647,-30.273,-32.715,-35.156,-7.324,14.648
1689846938.651,-39.551,-29.297,-13.184,-22.949,23.438
1689846938.655,-29.785,-21.973,5.371,-28.320,75.195
1689846938.658,-23.926,-24.902,-6.348,-18.066,291.504
1689846938.662,-13.672,-38.086,-32.227,-28.320,151.855
1689846938.666,-41.504,-47.363,-43.945,-40.039,-91.309
1689846938.670,-59.570,-39.062,-43.457,-50.293,-33.691
1689846938.674,-75.684,-28.809,-53.223,-66.406,-19.043
1689846938.676,-81.055,-34.180,-53.711,-52.734,-174.805
1689846938.680,-49.316,-36.621,-41.992,-16.602,-196.289
1689846938.684,-31.250,-28.320,-32.227,-4.395,-27.832
1689846938.688,-29.297,-31.250,-25.879,-41.016,-41.016
1689846938.692,-44.434,-42.969,-35.156,-83.984,-169.434
1689846938.696,-52.246,-46.387,-36.621,-62.988,-115.723
1689846938.700,-46.875,-42.969,-29.297,-36.133,288.086
1689846938.703,-37.109,-31.250,-52.246,-34.668,329.590
1689846938.707,-10.742,-18.066,-62.988,-42.969,-42.480
1689846938.711,-52.246,-28.809,-32.715,-60.547,-182.129
1689846938.715,-77.637,-39.062,-8.789,-49.805,37.598
1689846938.719,-25.879,-18.066,-30.273,-16.602,13.184
1689846938.721,22.461,-16.602,-45.410,33.203,-127.930
1689846938.725,5.371,-42.480,-38.574,16.113,-108.887
1689846938.729,-31.250,-36.133,-31.250,-58.105,-107.422
1689846938.733,-41.016,-32.715,-32.227,-88.867,-143.066
1689846938.737,-20.996,-38.574,-43.945,-43.945,-149.414
1689846938.741,5.859,-31.250,-44.922,14.160,77.637
1689846938.745,-27.832,-33.203,-38.086,9.766,412.109
1689846938.748,-43.457,-42.480,-39.551,-33.203,67.383
1689846938.752,-12.695,-30.762,-41.016,-35.156,-217.285
1689846938.756,-19.043,-18.555,-45.410,4.883,74.707
1689846938.760,3.418,-22.461,-37.109,57.617,364.258
1689846938.764,-7.812,-31.250,-31.738,21.973,72.754
1689846938.781,-32.715,-38.086,-39.551,-40.527,-203.613
1689846938.785,-29.297,-35.156,-35.645,-24.414,-148.438
1689846938.789,-8.301,-22.461,-38.086,0.977,-91.309
1689846938.793,29.297,-13.672,-50.781,37.598,-85.938
1689846938.797,39.551,-12.207,-61.523,39.062,-52.246
1689846938.801,12.695,-20.996,-60.059,-34.180,51.758
1689846938.805,-16.113,-26.367,-59.082,-44.922,-25.879
1689846938.808,-13.672,-21.973,-44.922,-8.789,-119.629
1689846938.812,-1.953,-24.414,-13.184,16.602,-51.758
1689846938.816,-13.672,-27.832,-12.207,27.832,193.359
1689846938.820,-26.855,-32.227,-25.391,3.418,137.207
1689846938.824,-26.367,-35.156,-36.621,-37.598,-111.328
1689846938.826,-9.277,-28.809,-54.688,-40.039,-118.652
1689846938.830,-9.277,-32.227,-44.922,31.250,83.008
1689846938.834,-20.508,-29.785,-33.691,16.113,53.711
1689846938.838,-20.020,-15.137,-33.203,-31.250,-136.230
1689846938.842,-6.836,-22.949,-38.574,-49.805,-128.906
1689846938.846,-34.180,-32.715,-57.129,-72.266,15.625
1689846938.850,-44.922,-35.156,-58.105,-35.645,-47.363
1689846938.853,-47.363,-35.645,-40.527,7.812,-172.363
1689846938.857,-68.848,-37.598,-33.691,-35.156,-103.027
1689846938.861,-63.477,-42.480,-31.250,-82.520,214.844
1689846938.865,-58.594,-35.156,-33.203,-56.152,116.699
1689846938.869,-35.645,-27.344,-59.082,-11.230,-121.094
1689846938.886,-6.836,-23.926,-81.543,-4.395,-41.504
1689846938.890,-25.879,-20.996,-55.176,-41.992,-55.664
1689846938.894,-57.617,-31.250,-14.160,-80.566,-196.289
1689846938.898,-71.777,-41.016,-5.371,-75.684,-225.098
1689846938.902,-30.273,-35.156,-22.949,-26.855,11.719
1689846938.906,-10.742,-30.273,-47.852,-28.320,171.875
1689846938.910,-48.340,-31.738,-52.734,-57.617,39.062
1689846938.913,-38.574,-19.531,-33.203,-46.875,-82.031
1689846938.917,-25.879,-22.949,-31.738,-48.340,93.750
1689846938.921,-58.105,-40.039,-41.016,-34.668,122.070
1689846938.925,-53.711,-44.922,-41.504,-40.527,-55.176
1689846938.929,-43.457,-36.133,-27.344,-40.039,-52.246
1689846938.916,-52.246,-31.250,-24.414,-43.457,-66.406
1689846938.920,-26.855,-30.273,-22.461,-66.895,-146.484
1689846938.924,-22.949,-26.855,-26.367,-23.926,-141.602
1689846938.928,-38.086,-24.902,-35.645,-4.395,63.477
1689846938.932,-19.531,-16.113,-15.625,-31.250,142.578
1689846938.936,-19.043,-8.789,-4.395,-44.922,-15.625
1689846938.940,-39.062,-22.461,-29.297,-61.523,-33.203
1689846938.943,-26.855,-32.227,-35.645,-38.086,51.270
1689846938.947,-19.043,-20.508,-34.180,11.719,163.086
1689846938.951,-14.160,-20.508,-24.414,-1.465,23.438
1689846938.955,-3.906,-31.738,-7.812,-15.137,-147.461
1689846938.959,-40.527,-30.762,-11.719,-31.250,-11.230
1689846938.961,-59.570,-24.902,-22.461,-36.133,313.477
1689846938.965,-15.625,-30.273,-26.367,15.625,119.629
1689846938.969,-9.766,-28.809,-18.555,21.484,-93.262
1689846938.973,-41.992,-22.949,-19.531,-25.879,-13.672
1689846938.977,-20.020,-26.367,-37.598,-33.691,-75.684
1689846938.981,-14.160,-26.367,-38.086,-37.109,-76.172
1689846938.985,-1.465,-24.902,-28.320,5.371,29.297
1689846938.988,32.227,-20.508,-35.156,25.879,285.645
1689846938.992,-10.742,-19.043,-38.086,-38.086,316.406
1689846938.996,-62.500,-26.855,-36.133,-82.520,-120.605
1689846939.000,-61.035,-25.879,-40.527,-41.504,-243.652
1689846939.004,-55.176,-28.809,-26.855,-5.859,-68.848
1689846939.006,-65.430,-32.227,-31.250,-19.531,-25.391
1689846939.010,-70.312,-37.109,-42.969,-57.129,-119.141
1689846939.014,-74.707,-41.016,-42.480,-73.242,-167.969
1689846939.018,-77.637,-27.832,-42.480,-64.941,-140.137
1689846939.022,-36.621,-16.602,-27.344,-23.438,-99.121
1689846939.026,-7.324,-20.020,-17.090,12.207,-14.648
1689846939.030,-17.578,-26.367,-28.320,-27.832,174.805
1689846939.033,-25.391,-17.090,-30.762,-69.824,320.801
1689846939.037,-54.688,-13.184,-36.133,-41.992,41.016
1689846939.041,-37.598,-19.043,-43.457,-6.836,-164.062
1689846939.045,-12.695,-25.391,-44.922,6.836,-7.324
1689846939.049,-55.176,-36.133,-56.641,-23.438,188.965
1689846939.051,-77.637,-35.645,-46.387,-97.656,-97.168
1689846939.055,-21.973,-33.203,-38.086,-108.887,-242.676
1689846939.059,-45.898,-30.273,-41.992,-59.082,-80.078
1689846939.063,-59.570,-28.809,-47.852,-16.113,-44.434
1689846939.067,-39.062,-28.320,-51.758,-12.695,-110.352
1689846939.071,-36.133,-25.879,-50.293,-45.410,-106.445
1689846939.075,-38.574,-25.879,-32.715,-48.340,141.113
1689846939.078,-39.551,-22.461,-27.832,17.090,139.648
1689846939.082,-4.395,-25.391,-46.875,3.906,-57.129
1689846939.086,-13.184,-33.203,-47.363,-34.668,-72.266
1689846939.090,-64.941,-35.645,-37.109,-65.430,-33.691
1689846939.094,-71.289,-37.109,-32.715,-88.379,-78.125
1689846939.097,-47.363,-34.668,-28.809,-53.223,-143.066
1689846939.101,-16.602,-34.180,-28.809,-8.789,-50.781
1689846939.105,-19.531,-33.203,-30.273,-5.859,71.289
1689846939.109,-38.574,-27.832,-23.438,-34.180,-63.477
1689846939.113,-28.320,-24.414,-38.086,-44.922,-183.105
1689846939.117,-17.578,-20.020,-31.250,-21.484,45.410
1689846939.121,-21.973,-23.926,-7.812,7.812,274.902
1689846939.124,-50.781,-32.715,-29.297,-4.395,67.383
1689846939.128,-57.129,-29.297,-35.156,-29.297,-134.277
1689846939.132,-45.898,-23.926,-20.020,-54.199,-47.363
1689846939.136,-0.977,-28.809,-35.156,-40.527,252.930
1689846939.140,0.488,-28.809,-46.875,-7.812,77.637
1689846939.156,-26.367,-20.508,-33.203,23.438,-98.145
1689846939.160,-21.484,-16.602,-34.668,-2.930,65.918
1689846939.164,-46.875,-26.367,-42.969,-82.520,-71.289
1689846939.168,-53.223,-39.062,-41.504,-64.453,-222.656
1689846939.172,-28.320,-40.039,-34.668,-2.441,-137.207
1689846939.176,-23.438,-36.621,-31.250,13.672,207.520
1689846939.180,-40.527,-30.273,-32.715,-21.484,354.980
1689846939.183,-22.461,-34.668,-38.086,-55.176,-77.148
1689846939.187,-3.418,-31.738,-41.016,-38.574,-185.547
1689846939.191,-15.625,-27.344,-33.691,13.672,29.785
1689846939.195,-14.648,-29.785,-50.781,-0.977,-17.578
1689846939.199,-29.297,-28.809,-63.965,-8.301,-157.227
1689846939.201,-61.523,-43.457,-23.438,-44.434,-139.160
1689846939.205,-76.660,-53.711,-4.883,-103.516,-105.469
1689846939.209,-54.199,-41.016,-13.672,-53.711,-95.703
1689846939.213,-26.855,-36.133,-20.996,-10.254,-47.852
1689846939.217,-19.531,-35.645,-30.273,-27.344,60.059
1689846939.221,-59.082,-34.180,-29.785,-48.828,155.273
1689846939.225,-74.707,-43.945,-15.625,-58.105,54.199
1689846939.228,-43.945,-42.969,-22.949,-30.762,-51.758
1689846939.232,-42.480,-42.969,-28.809,1.953,102.051
1689846939.236,-32.715,-41.992,-18.066,-0.488,395.508
1689846939.240,-30.273,-32.715,-21.973,-41.504,135.742
1689846939.244,-64.941,-36.621,-29.297,-70.312,-188.965
1689846939.246,-53.711,-36.621,-27.344,-50.781,-114.746
1689846939.250,-28.809,-39.551,-31.738,-28.809,-66.406
1689846939.254,-48.340,-43.945,-41.504,-41.504,-83.008
1689846939.258,-54.199,-42.969,-40.039,-65.430,-75.684
1689846939.262,-55.664,-38.574,-33.203,-60.547,-64.941
1689846939.266,-56.152,-43.945,-36.133,-21.973,-45.410
1689846939.270,-5.859,-36.133,-25.879,15.137,-20.508
1689846939.273,33.691,-26.367,-26.367,-2.441,-97.168
1689846939.277,-48.340,-35.645,-40.039,-56.152,80.078
1689846939.281,-72.754,-36.621,-36.621,-42.969,189.453
1689846939.285,-22.461,-42.969,-39.062,-11.230,-123.047
1689846939.289,-6.348,-41.504,-37.598,-19.043,-120.117
1689846939.291,-17.578,-37.109,-43.457,-32.715,-53.223
1689846939.295,-48.340,-41.992,-51.270,-64.453,-209.473
1689846939.299,-71.289,-42.480,-46.387,-79.590,-246.094
1689846939.303,-44.922,-40.527,-36.133,-49.316,-193.359
1689846939.307,-22.461,-42.480,-36.133,-14.648,-97.656
1689846939.311,-37.598,-30.762,-36.621,-6.836,58.105
1689846939.315,-44.922,-37.598,-48.828,-37.109,25.879
1689846939.318,-49.805,-44.922,-52.734,-47.852,1.953
1689846939.322,-75.684,-50.293,-35.156,-62.988,344.727
1689846939.326,-54.199,-36.133,-36.133,-40.039,208.008
1689846939.330,-23.438,-26.855,-50.781,-32.715,-171.387
1689846939.334,-28.809,-34.180,-46.387,-76.172,-64.941
1689846939.336,-56.152,-39.062,-57.129,-88.867,21.973
1689846939.340,-63.965,-41.504,-66.895,-66.895,-176.758
1689846939.344,-28.809,-23.926,-29.785,0.488,-155.273
1689846939.348,-22.461,-28.320,-29.297,21.484,-17.578
1689846939.352,-38.574,-36.133,-32.715,-28.809,-88.867
1689846939.356,-33.691,-19.531,-28.320,-51.758,-123.047
1689846939.360,-32.227,-29.785,-31.250,-63.477,-61.523
1689846939.363,-33.691,-52.734,-35.156,-18.555,177.246
1689846939.367,-39.551,-48.828,-30.762,13.184,229.492
1689846939.371,-55.664,-40.527,-50.781,-41.504,-46.387
1689846939.375,-40.039,-48.828,-47.852,-80.566,-116.211
1689846939.379,-48.828,-49.805,-33.691,-80.566,-36.621
1689846939.381,-51.758,-37.598,-40.527,-28.320,-92.773
1689846939.385,-27.344,-28.320,-48.828,-20.508,-112.305
1689846939.389,-50.293,-32.715,-49.316,-42.969,-69.336
1689846939.393,-86.426,-35.156,-46.387,-64.941,-102.051
1689846939.397,-54.688,-40.039,-41.016,-78.613,-92.285
1689846939.401,-14.648,-43.457,-43.457,-57.617,7.324
1689846939.405,-14.160,-34.180,-46.387,-19.531,117.676
1689846939.408,-49.316,-41.992,-41.016,-18.066,356.445
1689846939.412,-64.941,-38.574,-36.621,-74.707,148.438
1689846939.416,-57.129,-27.832,-44.922,-81.543,-212.891
1689846939.420,-53.223,-41.992,-61.035,-40.039,-74.707
1689846939.424,-18.555,-46.387,-48.828,-18.066,176.758
1689846939.427,-30.273,-32.227,-27.832,-12.695,-30.273
1689846939.431,-43.945,-29.297,-31.250,-30.273,-129.395
1689846939.435,-34.180,-27.344,-34.180,-60.059,39.551
1689846939.439,-15.625,-28.320,-27.344,-48.828,-41.016
1689846939.443,17.090,-44.434,-23.438,20.996,-78.613
1689846939.447,9.277,-49.805,-27.344,22.461,31.738
1689846939.451,-37.598,-41.016,-40.527,-66.406,192.383
1689846939.454,-45.410,-27.832,-52.246,-106.934,127.930
1689846939.458,-35.156,-17.090,-54.199,-64.941,-146.484
1689846939.462,-16.602,-16.113,-58.105,-2.441,-77.148
1689846939.466,-20.996,-19.531,-62.012,-15.137,12.695
1689846939.470,-67.871,-23.438,-61.523,-70.312,-157.227
1689846939.471,-62.012,-21.484,-54.199,-75.684,-253.418
1689846939.475,-29.785,-17.090,-56.152,-59.082,-168.457
1689846939.479,-17.578,-25.879,-68.848,-16.602,0.488
1689846939.483,-4.395,-28.809,-53.223,-15.625,1.465
1689846939.487,-20.020,-26.367,-52.246,-55.176,-112.305
1689846939.491,-40.527,-25.391,-58.105,-78.125,-70.801
1689846939.495,-20.996,-12.695,-35.156,-49.805,259.766
1689846939.498,-8.789,-4.395,-37.109,19.043,180.176
1689846939.502,-2.441,-7.812,-47.852,6.836,-19.043
1689846939.506,-16.113,-22.949,-35.645,-38.086,37.109
1689846939.510,-19.531,-27.832,-44.922,-62.012,36.621
1689846939.514,-48.828,-34.668,-56.152,-78.125,-123.047
1689846939.531,-47.852,-32.227,-21.484,-20.508,-166.504
1689846939.535,7.324,-8.789,-22.949,27.344,-66.895
1689846939.539,-1.953,-27.344,-39.062,-17.090,-70.801
1689846939.543,-46.387,-52.734,-19.043,-43.945,-140.137
1689846939.547,-61.035,-45.410,-40.527,-56.152,-111.328
1689846939.551,-42.969,-33.691,-60.547,-24.414,121.094
1689846939.555,-23.438,-28.809,-41.992,9.766,220.703
1689846939.558,-41.016,-35.645,-37.598,-30.273,72.266
1689846939.562,-62.500,-39.062,-33.691,-56.152,-38.086
1689846939.566,-27.344,-27.344,-30.762,-47.363,8.789
1689846939.570,-9.766,-26.367,-40.527,-22.949,-19.531
1689846939.574,-32.715,-30.762,-36.621,0.977,-67.383
1689846939.576,-31.250,-29.785,-40.527,-17.090,-10.254
1689846939.580,-9.766,-29.297,-47.852,-51.270,201.660
1689846939.584,-10.254,-27.832,-36.133,-56.641,48.340
1689846939.588,-20.996,-28.809,-27.344,-12.207,-164.062
1689846939.592,-32.715,-28.809,-23.438,25.391,-102.539
1689846939.596,-27.344,-27.832,-23.438,-7.324,18.066
1689846939.600,-11.719,-25.879,-29.785,-49.805,47.363
1689846939.603,-38.574,-22.949,-45.410,-25.391,-109.375
1689846939.607,-41.992,-31.738,-38.086,-19.043,-17.578
1689846939.611,-28.320,-34.180,-25.879,-15.625,413.574
1689846939.615,-28.320,-27.832,-39.551,-19.531,375.488
1689846939.619,-41.504,-25.879,-38.086,-50.293,-74.707
1689846939.621,-44.922,-36.133,-19.043,-54.688,-184.570
1689846939.625,-7.324,-41.016,-21.973,-31.250,-147.949
1689846939.629,-2.441,-38.086,-41.992,-1.465,-121.582
1689846939.633,-49.316,-37.598,-31.250,-20.020,-66.895
1689846939.637,-71.289,-39.062,-15.625,-35.645,-63.477
1689846939.641,-58.594,-34.180,-20.508,-35.156,-71.777
1689846939.645,-31.250,-25.879,-26.367,-61.035,-42.480
1689846939.648,-40.527,-29.785,-34.668,-21.484,-61.035
1689846939.652,-33.691,-27.832,-39.062,8.789,176.270
1689846939.656,-33.691,-21.973,-36.621,-28.809,135.742
1689846939.660,-48.340,-18.555,-38.574,-68.848,-198.242
1689846939.664,-6.836,-14.648,-20.996,-26.367,-130.371
1689846939.666,10.742,-20.508,-4.395,26.367,54.199
1689846939.670,-23.438,-25.879,-19.531,-15.625,-6.836
1689846939.674,-30.762,-23.438,-35.645,-53.711,-107.422
1689846939.678,-20.508,-22.949,-36.133,-51.758,-98.145
1689846939.682,-27.832,-24.414,-30.273,-34.668,-82.520
1689846939.686,-14.648,-34.668,-22.949,-0.488,-10.254
1689846939.690,-45.410,-50.781,-28.320,-5.859,23.926
1689846939.693,-79.590,-52.246,-32.715,-62.988,30.273
1689846939.697,-67.383,-47.363,-20.996,-74.707,376.953
1689846939.701,-64.941,-46.387,-10.254,-62.988,198.730
1689846939.705,-62.988,-52.246,-7.324,-50.293,-214.355
1689846939.709,-46.387,-49.805,-0.977,-34.668,-145.020
1689846939.712,-50.781,-46.875,-10.254,-39.062,-97.656
1689846939.716,-68.848,-52.734,-28.320,-64.453,-139.648
1689846939.720,-72.754,-53.223,-23.438,-73.242,-106.934
1689846939.724,-54.199,-52.734,-14.648,-20.996,42.969
1689846939.728,-14.160,-40.039,-29.297,8.301,97.656
1689846939.732,-20.996,-23.438,-13.672,21.484,8.301
1689846939.736,-40.039,-30.762,-3.418,-15.625,-25.879
1689846939.739,-60.547,-42.969,-25.879,-69.824,182.129
1689846939.743,-56.641,-44.922,-27.344,-58.594,158.691
1689846939.747,-23.438,-57.617,-14.160,-23.438,-47.363
1689846939.751,-23.926,-54.199,-9.277,-26.367,-32.227
1689846939.755,-41.992,-41.504,-17.578,-53.223,-52.734
1689846939.756,-46.387,-39.062,-14.648,-26.367,-182.129
1689846939.760,-43.945,-38.086,-15.625,-18.555,-169.922
1689846939.764,-39.551,-34.668,-26.367,-18.066,-15.625
1689846939.768,-25.879,-30.273,-15.137,-16.113,-63.477
1689846939.772,-14.648,-33.203,-12.695,-46.875,-99.121
1689846939.776,-47.852,-38.086,-30.273,-62.012,-42.480
1689846939.780,-73.242,-41.016,-16.602,-39.551,-19.531
1689846939.783,-60.059,-39.551,-11.230,4.395,399.414
1689846939.787,-32.715,-34.668,-26.855,4.395,411.133
1689846939.791,-54.199,-37.109,-28.320,-23.438,-102.539
1689846939.795,-56.641,-33.203,-22.949,-57.129,-189.941
1689846939.799,-38.086,-37.109,-25.391,-54.688,-95.215
1689846939.801,-45.410,-43.945,-39.062,-16.602,-111.328
1689846939.805,-11.230,-33.203,-50.293,-8.301,-83.984
1689846939.809,-6.348,-31.250,-41.992,-14.648,-116.211
1689846939.813,-59.570,-34.180,-18.066,-51.270,-167.969
1689846939.817,-69.336,-28.320,-28.809,-83.984,-155.762
1689846939.821,-5.371,-23.926,-42.969,-19.531,-29.297
1689846939.825,-12.695,-36.133,-22.461,0.000,387.207
1689846939.828,-59.082,-45.898,-18.555,-50.781,432.617
1689846939.832,-63.477,-36.133,-35.156,-70.801,2.930
1689846939.836,-48.340,-33.203,-33.691,-66.895,-25.879
1689846939.840,-19.043,-36.133,-25.879,-22.949,161.133
1689846939.844,-27.344,-32.227,-29.785,-9.766,64.453
1689846939.846,-48.340,-32.227,-41.992,-48.340,-59.570
1689846939.850,-34.180,-25.391,-32.227,-59.570,-80.566
1689846939.854,-10.254,-4.883,-14.648,-42.969,-50.293
1689846939.858,17.578,2.930,-0.488,29.297,-10.254
1689846939.862,15.625,-15.625,-1.953,50.781,-25.391
1689846939.866,15.137,-33.203,-56.641,3.418,94.727
1689846939.870,10.254,-44.434,-83.984,-7.812,174.805
1689846939.873,-34.180,-34.668,-41.016,-32.227,-33.203
1689846939.877,-71.777,-33.691,-39.551,-60.547,-113.770
1689846939.881,-49.805,-36.621,-38.086,-35.156,79.590
1689846939.885,-41.992,-37.598,-51.758,-49.316,409.668
1689846939.889,-85.938,-55.176,-82.031,-95.215,112.305
1689846939.906,-86.914,-52.246,-47.852,-94.727,-242.188
1689846939.910,-40.527,-14.648,-4.883,-1.465,-149.414
1689846939.914,-9.766,-20.996,-34.180,34.180,-66.895
1689846939.918,-52.246,-44.434,-62.988,-44.922,-161.621
1689846939.922,-64.941,-41.992,-56.152,-82.520,-186.523
1689846939.926,-49.316,-37.598,-46.875,-84.961,29.297
1689846939.930,-33.691,-29.297,-26.367,-34.180,36.621
1689846939.933,-14.648,-31.738,-19.043,-7.324,-94.238
1689846939.937,-42.480,-43.457,-36.133,-36.133,-113.281
1689846939.941,-55.664,-43.945,-50.781,-60.059,90.332
1689846939.945,-62.988,-41.016,-52.734,-83.008,0.488
1689846939.949,-57.617,-41.992,-44.434,-60.059,-147.461
1689846939.951,-10.254,-43.457,-33.691,-24.902,50.781
1689846939.955,-12.695,-47.852,-31.738,30.762,149.902
1689846939.959,-38.574,-45.898,-19.043,19.043,-5.859
1689846939.963,-54.688,-27.832,-11.230,-48.340,-176.270
1689846939.967,-32.227,-16.602,-31.250,-47.363,-102.539
1689846939.971,16.602,-23.438,-48.340,-20.508,120.605
1689846939.975,-13.672,-28.320,-52.734,-8.789,54.688
1689846939.978,-49.805,-25.391,-52.734,-26.367,-111.816
1689846939.982,-59.570,-20.996,-52.734,-69.336,-17.090
1689846939.986,-52.246,-17.090,-54.688,-51.758,295.410
1689846939.990,-18.066,-18.066,-46.875,-13.184,192.383
1689846939.994,12.695,-19.043,-38.086,-0.488,-85.938
1689846939.997,-4.883,-20.020,-45.410,6.348,-62.012
1689846940.001,-37.109,-25.879,-47.363,-28.809,-104.980
1689846940.005,-1.953,-19.531,-38.574,-49.805,-108.398
1689846940.009,6.836,-20.020,-52.246,-16.113,-73.242
1689846940.013,-38.086,-40.527,-55.176,-7.812,51.758
1689846940.017,-55.664,-38.574,-33.691,-15.625,116.211
1689846940.021,-52.246,-21.484,-32.715,-47.363,-27.832
1689846940.024,-32.715,-20.996,-43.945,-55.664,-142.090
1689846940.028,-11.230,-18.555,-25.879,-14.648,170.898
1689846940.032,-15.137,-22.461,-13.672,-16.602,283.691
1689846940.036,-30.273,-33.203,-19.531,-37.598,-52.246
1689846940.040,-34.180,-33.691,-18.555,-50.293,-151.367
1689846940.041,-45.410,-30.273,-29.297,-65.430,-112.305
1689846940.045,-41.992,-32.227,-33.203,-42.969,-141.602
1689846940.049,-18.555,-30.273,-22.949,11.719,-112.305
1689846940.053,-22.461,-23.926,-27.344,-4.395,-74.219
1689846940.057,-39.551,-27.344,-32.715,-61.523,-93.750
1689846940.061,-18.555,-29.297,-30.273,-60.547,-61.523
1689846940.065,-0.488,-18.066,-29.785,-5.371,-6.348
1689846940.068,-12.207,-29.785,-40.039,12.695,130.859
1689846940.072,-33.203,-39.062,-38.086,-13.672,541.016
1689846940.076,-52.734,-29.785,-47.852,-50.781,385.742
1689846940.080,-42.969,-19.531,-77.148,-68.359,-149.414
1689846940.084,-11.719,-13.672,-64.453,-5.859,-166.016
1689846940.086,-8.301,-18.066,-30.273,26.367,-53.711
1689846940.090,0.488,-22.461,-19.043,-17.090,-113.281
1689846940.094,-20.020,-20.508,-10.742,-48.340,-133.301
1689846940.098,-55.664,-28.320,-19.531,-70.801,-90.820
1689846940.102,-46.875,-43.945,-37.109,-63.477,-125.977
1689846940.106,-31.738,-48.828,-43.457,-13.184,-47.852
1689846940.110,-45.898,-44.922,-39.062,-7.812,-4.883
1689846940.113,-45.898,-33.203,-36.133,-33.691,154.785
1689846940.117,-40.039,-34.180,-42.969,-65.430,260.742
1689846940.121,-38.086,-41.992,-33.691,-62.500,-65.430
1689846940.125,-28.320,-41.504,-33.203,-16.113,-94.727
1689846940.129,-43.457,-41.016,-40.527,-22.949,19.531
1689846940.131,-34.180,-41.504,-41.992,-50.781,-99.609
1689846940.135,-47.363,-31.250,-36.621,-67.383,-167.969
1689846940.139,-40.527,-24.902,-35.156,-57.617,-126.953
1689846940.143,-26.367,-29.297,-52.734,-24.902,-46.875
1689846940.147,-21.484,-27.832,-57.617,-19.043,-34.180
1689846940.151,-25.879,-22.949,-47.363,-17.578,-18.066
1689846940.155,-43.457,-20.020,-29.785,-25.879,30.273
1689846940.158,-23.926,-25.879,-23.926,-32.227,268.066
1689846940.162,-11.719,-33.691,-44.434,-20.020,172.852
1689846940.166,-17.578,-22.949,-37.598,-12.207,-48.828
1689846940.170,-35.645,-20.020,-17.578,-48.828,69.336
1689846940.174,-50.781,-33.203,-24.414,-66.406,162.109
1689846940.176,-48.340,-43.457,-39.551,-71.777,-105.469
1689846940.180,-28.320,-31.738,-31.250,-29.297,-187.988
1689846940.184,3.906,-18.555,-25.391,41.016,29.297
1689846940.188,-21.484,-28.809,-23.926,-2.930,-2.930
1689846940.192,-52.734,-25.391,-20.508,-63.965,-180.664
1689846940.196,-32.227,-19.531,-47.363,-62.988,-155.273
1689846940.200,-29.297,-28.320,-42.969,-39.551,156.738
1689846940.203,-37.109,-25.391,-33.203,-14.648,196.289
1689846940.207,-41.992,-33.203,-35.645,-34.180,-58.105
1689846940.211,-34.180,-35.645,-32.715,-53.711,-99.609
1689846940.215,-23.438,-20.508,-38.574,-30.762,-123.047
1689846940.219,-5.371,-23.438,-33.203,-12.695,-131.348
1689846940.237,-21.973,-26.367,-20.996,-7.812,-46.387
1689846940.241,-33.691,-24.902,-24.414,-16.113,26.367
1689846940.245,-38.086,-25.391,-43.945,-50.781,72.754
1689846940.249,-61.035,-26.855,-44.434,-41.016,-100.098
1689846940.253,-31.250,-14.648,-26.855,-23.438,-171.387
1689846940.257,13.184,-11.230,-26.367,-3.418,14.648
1689846940.261,-12.695,-30.273,-47.363,-24.902,171.387
1689846940.264,-47.852,-34.180,-53.223,-58.105,3.906
1689846940.268,-46.387,-30.273,-36.621,-62.012,-130.859
1689846940.272,-35.156,-27.344,-21.484,-65.430,-18.066
1689846940.276,-27.832,-28.320,-24.414,-20.508,326.172
1689846940.280,-32.715,-26.855,-43.457,-17.090,152.832
1689846940.281,-33.691,-22.461,-50.781,-58.105,-196.289
1689846940.285,-43.457,-25.879,-44.434,-63.477,-170.410
1689846940.289,-45.410,-29.297,-31.250,-21.973,-78.125
1689846940.293,-16.602,-29.297,-17.578,-23.438,-5.371
1689846940.297,-12.695,-29.297,-24.414,-46.875,15.625
1689846940.301,-47.852,-27.832,-21.484,-38.086,215.332
1689846940.305,-50.781,-27.344,-3.418,-26.367,151.855
1689846940.308,-42.480,-21.973,-19.043,-25.879,-89.844
1689846940.312,-37.109,-20.996,-41.016,-25.879,-93.262
1689846940.316,-21.484,-26.855,-23.438,-27.344,244.629
1689846940.320,12.207,-22.461,-34.668,-18.555,326.172
1689846940.324,-26.855,-20.508,-51.270,-22.461,-124.023
1689846940.326,-71.289,-30.762,-28.320,-42.480,-224.121
1689846940.330,-64.941,-39.551,-23.438,-42.969,-92.285
1689846940.334,-61.035,-44.434,-36.621,-28.320,-86.426
1689846940.338,-60.547,-46.875,-33.203,-41.992,-117.188
1689846940.342,-61.035,-48.340,-29.297,-65.918,-109.375
1689846940.346,-60.547,-41.504,-33.203,-55.176,-32.715
1689846940.350,-47.852,-40.039,-24.414,-27.344,32.715
1689846940.353,-40.039,-48.340,-20.508,-12.695,73.242
1689846940.357,-54.688,-41.504,-28.809,-14.648,113.281
1689846940.361,-68.848,-31.738,-25.879,-52.246,341.309
1689846940.365,-57.617,-32.715,-19.531,-85.449,246.582
1689846940.369,-54.688,-30.273,-33.203,-57.617,-59.082
1689846940.371,-40.039,-22.461,-34.180,-12.207,-17.578
1689846940.375,-20.020,-30.762,-9.766,-20.020,-56.641
1689846940.379,-43.945,-39.062,-21.973,-64.453,-199.707
1689846940.383,-44.434,-24.902,-32.227,-56.641,-196.289
1689846940.387,-34.180,-21.484,-14.648,-21.484,-55.176
1689846940.391,-31.738,-28.809,-21.484,20.020,-11.230
1689846940.395,-26.855,-31.738,-26.367,-2.930,-48.828
1689846940.398,-41.504,-36.621,-25.879,-87.402,-59.082
1689846940.402,-51.270,-22.461,-19.531,-87.402,123.535
1689846940.406,-30.762,-15.625,-13.672,-19.531,229.004
1689846940.410,-16.113,-26.367,-33.691,3.418,14.648
1689846940.414,-34.668,-33.203,-41.504,-33.203,13.672
1689846940.416,-64.453,-33.691,-37.598,-71.777,147.461
1689846940.420,-56.641,-36.621,-33.203,-74.707,-47.852
1689846940.424,-49.316,-40.527,-37.598,-39.062,-194.824
1689846940.428,-37.598,-41.016,-42.969,-6.348,-124.023
1689846940.432,-9.766,-29.785,-33.203,-9.766,-33.691
1689846940.436,-25.879,-30.762,-27.832,-33.203,-18.555
1689846940.440,-49.316,-34.180,-24.902,-51.270,-59.570
1689846940.443,-14.160,-18.066,-1.953,-9.277,18.555
1689846940.447,-0.977,-26.367,-7.812,31.738,469.238
1689846940.451,-54.199,-39.551,-40.039,-11.230,339.844
1689846940.455,-60.059,-31.250,-33.691,-70.801,-105.469
1689846940.459,-56.641,-29.785,-25.391,-67.871,-130.371
1689846940.461,-43.945,-33.691,-43.945,-62.012,-98.633
1689846940.465,-20.996,-30.762,-46.875,-39.062,-126.465
1689846940.469,-33.203,-23.926,-46.875,2.930,-132.812
1689846940.473,-21.973,-22.461,-49.316,-41.992,-125.977
1689846940.477,-24.902,-28.809,-32.227,-87.402,-139.160
1689846940.481,-43.945,-31.250,-17.578,-64.941,-86.426
1689846940.485,-32.715,-34.180,-17.090,-14.648,28.809
1689846940.488,-31.250,-36.621,-18.066,4.395,209.473
1689846940.492,-41.992,-34.180,-22.949,-32.227,141.113
1689846940.496,-39.062,-30.273,-23.926,-64.453,-176.758
1689846940.500,-30.762,-26.855,-15.625,-62.988,-241.211
1689846940.504,-35.645,-30.273,-17.090,-18.555,-88.867
1689846940.507,-12.695,-31.250,-31.250,14.648,15.137
1689846940.511,-7.812,-28.809,-34.180,-15.625,-56.641
1689846940.515,-54.688,-27.344,-26.367,-62.012,-93.262
1689846940.519,-54.688,-33.691,-22.461,-41.016,-13.184
1689846940.523,-28.320,-33.203,-26.367,-14.160,-57.617
1689846940.527,-17.090,-25.879,-34.668,-0.977,-14.160
1689846940.531,-28.320,-22.461,-35.156,-13.672,140.625
1689846940.534,-40.527,-34.180,-34.668,-48.340,282.715
1689846940.538,-51.270,-39.551,-33.691,-56.152,66.406
1689846940.542,-35.156,-25.879,-25.879,-30.762,-152.344
1689846940.546,-13.184,-32.715,-28.809,-10.254,-50.293
1689846940.550,-33.691,-41.992,-34.180,-33.691,48.828
1689846940.551,-51.758,-43.457,-43.457,-63.965,-112.793
1689846940.555,-50.293,-44.434,-41.016,-52.734,-172.852
1689846940.559,-48.340,-42.480,-32.715,-24.902,-32.715
1689846940.563,-50.781,-41.016,-32.227,-1.465,85.449
1689846940.567,-53.223,-34.668,-28.809,-28.809,7.324
1689846940.571,-49.316,-28.809,-30.273,-63.477,-77.637
1689846940.575,-34.180,-34.180,-37.109,-62.012,139.160
1689846940.578,-43.457,-36.621,-31.250,-37.598,299.805
1689846940.582,-54.199,-41.504,-31.738,-24.902,-36.621
1689846940.586,-35.156,-39.062,-38.086,-34.668,-146.484
1689846940.590,-62.500,-31.250,-30.762,-61.523,-111.816
1689846940.594,-79.102,-32.715,-27.832,-67.383,-210.938
1689846940.596,-30.762,-36.133,-22.461,-25.879,-194.824
1689846940.600,12.695,-47.852,-22.949,14.160,-73.242
1689846940.604,-6.836,-46.387,-23.926,18.555,30.762
1689846940.608,-48.828,-26.367,-30.273,-51.758,-43.945
1689846940.612,-76.660,-13.672,-50.293,-116.699,-174.805
1689846940.616,-76.172,-21.484,-61.035,-88.867,-71.777
1689846940.620,-23.926,-24.414,-64.453,-20.020,180.176
1689846940.623,-18.555,-21.973,-63.477,-36.133,119.629
1689846940.627,-68.848,-24.414,-64.941,-85.449,-46.387
1689846940.631,-70.312,-20.508,-71.289,-96.191,-71.777
1689846940.635,-75.195,-21.973,-60.059,-82.520,219.238
1689846940.639,-59.082,-28.320,-49.805,-44.922,207.031
1689846940.656,-49.805,-29.785,-52.246,-32.227,-48.340
1689846940.660,-49.805,-26.855,-51.758,-47.363,-77.637
1689846940.664,-33.691,-31.738,-49.805,-57.129,-125.000
1689846940.668,-61.035,-33.691,-44.922,-82.520,-199.707
1689846940.672,-48.340,-24.414,-41.016,-61.523,-100.098
1689846940.676,-32.227,-28.320,-42.969,-43.457,148.926
1689846940.680,-66.895,-29.785,-41.992,-65.918,104.492
1689846940.683,-45.898,-25.391,-39.062,-83.984,-146.973
1689846940.687,-6.348,-22.949,-32.227,-63.477,-124.512
1689846940.691,-32.715,-26.367,-28.320,-11.230,216.309
1689846940.695,-57.129,-33.691,-20.996,-14.648,267.090
1689846940.699,-37.598,-23.438,-34.180,-34.668,-94.727
1689846940.701,-18.066,-12.695,-43.457,-29.297,-175.293
1689846940.705,-39.062,-23.926,-26.367,-31.250,-77.637
1689846940.709,-26.855,-25.391,-19.043,-38.574,-74.219
1689846940.713,0.000,-25.391,-20.996,-12.207,-68.848
1689846940.717,-33.691,-33.691,-20.508,-11.230,-49.316
1689846940.721,-59.570,-26.855,-16.602,-42.969,12.695
1689846940.725,-73.730,-24.414,-24.902,-68.359,-32.715
1689846940.728,-52.734,-33.691,-50.293,-58.594,-77.637
1689846940.732,14.160,-32.227,-46.875,-32.227,104.004
1689846940.736,-4.395,-33.203,-22.461,-13.672,406.738
1689846940.740,-60.547,-35.156,-23.926,-27.344,196.777
1689846940.744,-78.125,-34.668,-42.969,-70.312,-133.301
1689846940.746,-67.383,-40.039,-41.016,-69.336,-62.012
1689846940.750,-41.016,-37.109,-34.668,-36.133,-46.387
1689846940.754,-54.688,-40.039,-40.039,-58.594,-97.656
1689846940.758,-48.340,-37.109,-35.645,-85.938,-113.770
1689846940.762,-34.668,-36.621,-36.133,-79.590,-62.012
1689846940.766,-45.410,-41.016,-33.203,-62.500,-66.406
1689846940.770,-31.738,-34.668,-42.969,-22.949,8.301
1689846940.773,-38.574,-29.785,-41.504,-30.762,19.043
1689846940.777,-74.707,-34.668,-29.297,-72.754,76.660
1689846940.781,-58.594,-35.645,-43.457,-69.336,78.613
1689846940.785,-39.551,-36.621,-49.316,-42.480,-200.684
1689846940.789,-26.855,-37.598,-48.828,-25.391,-70.801
1689846940.792,-27.344,-35.645,-48.828,-4.883,65.430
1689846940.796,-34.180,-34.180,-40.039,-38.574,-68.359
1689846940.800,-24.414,-34.180,-41.992,-71.289,-145.508
1689846940.804,-35.156,-32.227,-41.504,-48.340,-116.699
1689846940.808,-33.203,-32.227,-36.133,8.301,-3.906
1689846940.812,-43.945,-37.598,-27.344,13.672,20.020
1689846940.816,-50.781,-32.715,-25.879,-34.668,-8.301
1689846940.819,-21.973,-27.832,-39.551,-54.199,-25.879
1689846940.823,-26.367,-36.133,-40.527,-54.688,291.992
1689846940.827,7.324,-36.133,-39.062,-31.250,243.164
1689846940.831,26.367,-27.832,-52.246,8.789,-95.703
1689846940.835,-64.453,-32.227,-52.246,-19.043,-86.426
1689846940.836,-101.074,-36.621,-36.133,-93.262,-65.918
1689846940.840,-58.594,-26.855,-36.133,-79.102,-150.879
1689846940.844,-20.508,-24.902,-34.180,-5.371,-169.434
1689846940.848,-6.836,-29.785,-34.668,26.855,1.953
1689846940.852,-8.789,-30.762,-33.691,-20.020,25.391
1689846940.856,-33.691,-32.715,-27.832,-72.754,-72.754
1689846940.860,-46.875,-35.645,-28.809,-41.504,-106.445
1689846940.863,-4.883,-35.156,-26.855,21.484,162.109
1689846940.867,-1.465,-33.203,-21.973,30.273,379.395
1689846940.871,-42.969,-27.344,-26.367,-21.484,40.039
1689846940.875,-53.711,-18.066,-35.156,-62.988,-116.699
1689846940.879,-41.992,-17.090,-30.273,-54.688,-103.516
1689846940.881,-27.344,-21.973,-23.438,-11.230,-89.355
1689846940.885,-12.695,-21.484,-27.344,20.020,-38.574
1689846940.889,-7.812,-19.531,-28.809,4.395,-41.504
1689846940.893,1.465,-22.461,-32.227,-23.926,-56.152
1689846940.897,-40.039,-27.344,-31.738,-51.270,-106.934
1689846940.901,-68.359,-36.621,-26.855,-37.598,-87.402
1689846940.905,-30.762,-42.969,-37.109,6.348,95.215
1689846940.908,-12.207,-31.738,-31.250,6.836,402.832
1689846940.912,-19.043,-16.602,-21.973,-33.691,214.844
1689846940.916,-21.484,-26.855,-22.461,-65.430,-156.250
1689846940.920,15.137,-25.879,-30.273,-38.086,-83.496
1689846940.924,7.812,-14.160,-32.227,7.812,83.496
1689846940.926,-33.691,-3.418,-24.414,15.625,-95.703
1689846940.930,-42.969,-1.465,-24.902,-9.277,-224.609
1689846940.934,-52.246,-17.090,-25.391,-57.617,-191.406
1689846940.938,-31.250,-29.785,-20.508,-62.012,-172.363
1689846940.942,-3.906,-29.297,-25.879,-22.949,-103.516
1689846940.946,-24.414,-29.785,-29.297,-16.113,-2.441
1689846940.950,-66.895,-37.109,-20.996,-17.578,247.070
1689846940.953,-63.477,-33.691,-22.949,-28.809,192.871
1689846940.957,-27.344,-35.645,-41.504,-37.109,-114.746
1689846940.961,-3.906,-43.457,-51.758,-9.277,-22.461
1689846940.965,-23.926,-41.504,-40.527,-10.254,165.039
1689846940.969,-53.711,-38.574,-22.461,-38.086,11.719
1689846940.971,-54.688,-40.527,-27.832,-41.992,-147.461
1689846940.975,-11.719,-29.785,-21.484,-17.090,-89.844
1689846940.979,-4.883,-23.438,-16.113,8.301,17.090
1689846940.983,-36.133,-30.273,-32.715,-19.043,-8.301
1689846940.987,-49.805,-24.414,-40.527,-62.988,-129.883
1689846940.991,-58.594,-28.320,-42.969,-63.477,-54.199
1689846940.995,-41.992,-34.180,-49.316,-74.219,159.668
1689846940.998,-3.418,-29.297,-47.363,-35.645,92.285
1689846941.002,-10.254,-33.203,-37.598,-6.348,-6.836
1689846941.006,-48.340,-39.551,-34.668,-37.109,35.156
1689846941.010,-75.684,-33.691,-30.762,-42.480,182.617
1689846941.014,-56.152,-29.785,-26.367,-29.785,-9.277
1689846941.017,-24.414,-26.367,-22.461,-19.043,-152.344
1689846941.021,-13.672,-30.273,-34.668,-16.602,-5.859
1689846941.025,-29.785,-37.598,-39.062,-27.344,-12.695
1689846941.029,-52.246,-37.109,-21.484,-56.641,-198.730
1689846941.033,-47.363,-32.715,-11.719,-70.312,-208.496
1689846941.037,-25.879,-25.879,-26.855,-29.785,84.473
1689846941.041,-15.137,-27.344,-33.203,32.227,197.266
1689846941.044,-31.738,-30.762,-23.926,12.207,-26.855
1689846941.048,-35.645,-32.715,-23.438,-47.852,-169.434
1689846941.052,-38.574,-34.180,-32.227,-75.195,16.602
1689846941.056,-61.523,-35.156,-35.156,-51.270,38.574
1689846941.060,-10.742,-30.762,-26.855,10.254,-68.359
1689846941.076,10.254,-26.855,-22.949,-1.953,-21.973
1689846941.080,-38.086,-27.344,-35.645,-35.156,-4.883
1689846941.084,-42.969,-21.973,-34.180,-52.734,-49.805
1689846941.088,-24.414,-17.090,-14.160,-31.738,-135.742
1689846941.092,-25.879,-21.973,-11.230,4.883,48.340
1689846941.096,-21.484,-21.973,-22.461,-17.578,376.953
1689846941.100,14.648,-15.625,-39.062,-18.555,112.305
1689846941.103,9.766,-20.508,-42.480,-26.367,-204.102
1689846941.107,-54.688,-29.297,-33.203,-51.270,-72.754
1689846941.111,-60.059,-29.297,-21.973,-19.043,328.125
1689846941.115,-54.688,-36.621,-15.625,-7.324,186.523
1689846941.119,-74.707,-46.875,-10.254,-62.500,-139.648
1689846941.121,-59.570,-48.340,-20.020,-91.797,-105.469
1689846941.125,-51.758,-43.457,-29.297,-61.035,-104.980
1689846941.129,-57.617,-41.504,-29.785,-32.227,-119.141
1689846941.133,-54.199,-45.410,-34.180,-17.090,-71.289
1689846941.137,-48.340,-41.992,-36.133,3.418,-1.953
1689846941.141,-40.527,-32.715,-28.320,-24.414,41.504
1689846941.145,-40.039,-32.715,-27.832,-52.246,30.762
1689846941.148,-29.297,-35.156,-29.297,-39.551,-30.762
1689846941.152,-28.809,-36.133,-22.461,-11.230,194.824
1689846941.156,-45.410,-36.133,-46.875,-30.273,200.684
1689846941.160,-52.734,-33.203,-51.270,-60.059,-166.504
1689846941.164,-45.898,-33.691,-26.367,-40.527,-185.547
1689846941.166,-12.695,-41.992,-25.391,0.977,-53.223
1689846941.170,-10.254,-40.527,-25.391,31.250,-72.266
1689846941.174,-51.270,-38.574,-29.297,6.836,-131.348
1689846941.178,-49.805,-35.156,-46.875,-43.457,-136.230
1689846941.182,-41.016,-29.297,-46.387,-58.105,-125.488
1689846941.186,-28.809,-28.320,-29.297,-13.672,-21.484
1689846941.190,-11.230,-30.273,-22.461,12.207,22.949
1689846941.193,-20.996,-28.320,-21.973,1.953,16.113
1689846941.197,-41.504,-26.367,-20.508,-21.973,385.742
1689846941.201,-42.969,-31.250,-33.203,-59.570,348.145
1689846941.205,-27.344,-32.715,-36.621,-50.781,-134.277
1689846941.209,-24.902,-26.367,-24.902,0.977,-108.887
1689846941.211,-31.250,-21.973,-17.090,-18.555,-76.172
1689846941.215,-50.293,-23.926,-25.879,-51.270,-227.539
1689846941.219,-30.273,-30.273,-40.039,-38.086,-218.262
1689846941.223,-14.648,-33.203,-46.875,-30.273,-76.660
1689846941.227,-37.109,-35.645,-50.293,0.488,-15.625
1689846941.231,-40.527,-35.156,-38.086,-14.160,2.441
1689846941.235,-51.758,-37.598,-28.809,-57.617,40.527
1689846941.238,-39.551,-41.016,-31.250,-55.664,150.391
1689846941.242,-9.766,-36.133,-37.598,-18.555,168.457
1689846941.246,-16.602,-25.391,-53.223,10.742,-20.508
1689846941.250,-15.625,-36.133,-54.688,-21.484,-84.961
1689846941.254,-36.133,-48.340,-31.738,-67.383,34.180
1689846941.256,-58.105,-46.875,-27.832,-67.383,-41.992
1689846941.260,-44.922,-49.805,-28.809,-24.414,-162.598
1689846941.264,-20.996,-42.480,-32.227,0.977,-58.105
1689846941.268,0.000,-37.598,-39.551,-15.625,-5.371
1689846941.272,-20.508,-43.945,-39.551,-37.109,-118.164
1689846941.276,-63.477,-42.969,-45.898,-56.641,-111.816
1689846941.280,-50.293,-33.691,-47.852,-52.734,59.082
1689846941.283,-33.203,-32.715,-44.434,11.230,326.660
1689846941.287,-37.598,-33.691,-39.062,-6.348,216.797
1689846941.291,-53.711,-38.086,-42.969,-43.945,-71.289
1689846941.295,-69.824,-41.504,-50.781,-61.035,-46.387
1689846941.299,-40.039,-40.039,-44.922,-55.176,71.777
1689846941.302,-4.395,-32.715,-36.621,-3.418,-55.664
1689846941.306,-1.953,-26.367,-35.156,9.766,-160.645
1689846941.310,-7.812,-27.832,-37.598,-42.480,-62.012
1689846941.314,-48.340,-22.461,-34.668,-60.547,-35.156
1689846941.318,-58.594,-22.461,-31.250,-29.785,-113.281
1689846941.322,-40.527,-33.203,-36.621,-9.277,-0.977
1689846941.326,-27.832,-34.180,-41.504,0.977,269.043
1689846941.329,-26.855,-38.086,-57.617,-31.738,189.941
1689846941.333,-46.387,-44.434,-56.641,-72.266,-139.160
1689846941.337,-53.223,-37.598,-39.551,-68.848,-175.781
1689846941.341,-12.207,-33.203,-40.527,-24.414,29.297
1689846941.345,-31.250,-40.527,-37.109,-2.930,-14.160
1689846941.347,-51.758,-41.504,-39.062,-20.996,-151.855
1689846941.351,-23.926,-31.738,-40.039,-27.832,-131.348
1689846941.355,-12.207,-23.438,-22.461,-20.508,14.648
1689846941.359,-25.391,-30.762,-22.949,-14.160,-3.906
1689846941.363,-24.902,-28.809,-34.180,-2.930,-81.055
1689846941.367,-25.879,-25.879,-42.969,-27.832,23.438
1689846941.371,-59.570,-29.297,-41.504,-62.500,323.242
1689846941.374,-70.801,-30.273,-42.969,-67.383,77.148
1689846941.378,-41.016,-34.668,-49.805,-37.598,-171.875
1689846941.382,-12.207,-34.668,-41.504,3.418,3.418
1689846941.386,-51.270,-37.109,-39.551,-3.418,172.363
1689846941.390,-45.410,-35.156,-38.086,-50.293,-51.270
1689846941.406,-32.715,-29.785,-40.039,-61.523,-235.352
1689846941.410,-28.320,-30.273,-37.598,-39.551,-119.629
1689846941.414,11.230,-28.809,-38.574,-10.742,-45.898
1689846941.418,-4.395,-27.344,-42.969,-20.020,-49.805
1689846941.422,-51.270,-24.902,-28.809,-43.945,-58.105
1689846941.426,-66.406,-21.484,-20.020,-45.898,185.059
1689846941.430,-35.156,-26.855,-25.879,-15.625,287.109
1689846941.433,-20.508,-31.250,-33.203,0.488,83.496
1689846941.437,-39.062,-28.809,-40.039,-6.348,-40.527
1689846941.441,-47.852,-32.227,-40.527,-30.762,41.992
1689846941.445,-63.965,-41.016,-46.387,-62.012,-83.984
1689846941.449,-41.992,-36.621,-53.223,-41.992,-240.723
1689846941.451,-15.625,-34.668,-41.504,-10.254,-117.188
1689846941.455,-18.555,-32.715,-31.250,-17.578,-49.316
1689846941.459,-39.551,-28.809,-29.785,-40.527,-140.625
1689846941.463,-62.988,-34.668,-36.133,-63.965,-186.523
1689846941.467,-48.340,-31.738,-41.016,-35.645,-115.723
1689846941.471,-15.625,-31.250,-33.691,4.883,78.613
1689846941.475,-12.207,-35.156,-40.039,-13.184,132.812
1689846941.478,-9.277,-37.109,-47.852,-23.926,9.766
1689846941.482,-26.367,-36.133,-41.016,-26.367,-23.438
1689846941.486,-38.086,-39.062,-35.156,-41.992,332.031
1689846941.490,-14.648,-41.016,-33.203,-6.348,396.973
1689846941.494,-32.227,-38.086,-36.133,24.414,8.789
1689846941.511,-45.410,-40.039,-55.176,-16.602,-121.094
1689846941.515,5.859,-26.367,-58.594,-60.059,-133.301
1689846941.519,6.348,-9.766,-43.945,-21.484,-198.242
1689846941.523,-41.016,-26.367,-39.062,0.000,-165.527
1689846941.527,-48.340,-30.273,-33.203,-12.207,20.996
1689846941.531,-46.387,-21.484,-24.902,-31.738,60.059
1689846941.535,-40.527,-28.320,-24.414,-54.688,-78.125
1689846941.538,-29.297,-33.691,-32.227,-41.992,-158.203
1689846941.542,-24.414,-31.250,-30.762,-11.230,145.996
1689846941.546,-18.555,-30.273,-41.504,-26.855,300.293
1689846941.550,-41.992,-35.156,-41.504,-62.500,-46.875
1689846941.554,-59.570,-34.180,-38.086,-80.566,-192.871
1689846941.541,-51.270,-31.738,-41.016,-69.824,-26.855
1689846941.545,-24.902,-35.645,-36.621,-41.504,-57.617
1689846941.549,5.859,-36.133,-49.805,15.137,-108.887
1689846941.553,15.625,-32.715,-57.617,3.906,-32.715
1689846941.557,-40.039,-27.832,-38.574,-62.500,-20.020
1689846941.561,-65.918,-20.508,-34.180,-84.473,-13.184
1689846941.565,-24.414,-26.367,-41.016,-38.086,-22.949
1689846941.568,-15.137,-36.621,-32.715,9.277,33.203
1689846941.572,-15.625,-35.645,-28.809,15.625,148.926
1689846941.576,-36.133,-26.855,-33.691,-14.648,-32.227
1689846941.580,-39.062,-18.066,-33.203,-44.922,-228.516
1689846941.584,-14.160,-23.438,-31.250,-0.977,-144.043
1689846941.586,24.414,-21.973,-37.109,44.922,378.418
1689846941.590,2.930,-19.043,-36.133,24.414,335.938
1689846941.594,-38.086,-20.020,-32.227,-12.207,-132.324
1689846941.598,-20.020,-16.602,-47.363,-36.621,-164.551
1689846941.602,-17.578,-21.973,-45.410,-24.902,-161.621
1689846941.606,-15.137,-31.250,-21.484,36.621,-62.500
1689846941.610,11.230,-28.320,-23.438,32.715,75.195
1689846941.613,14.160,-17.578,-28.320,-12.207,192.871
1689846941.617,-24.414,-19.043,-41.504,-38.086,133.789
1689846941.621,-44.434,-31.250,-40.039,-39.062,-119.629
1689846941.625,-35.645,-31.738,-23.438,-20.020,-74.707
1689846941.629,-30.273,-32.227,-20.020,3.906,72.266
1689846941.632,-55.664,-32.227,-21.484,4.395,-54.688
1689846941.636,-54.688,-26.367,-18.555,-18.066,-210.938
1689846941.640,-24.902,-24.414,-16.113,-21.973,-76.172
1689846941.644,16.602,-21.973,-20.020,-1.953,147.461
1689846941.648,7.324,-26.367,-20.996,14.648,-8.301
1689846941.652,-27.832,-21.973,-24.902,0.000,-74.219
1689846941.656,-19.531,-7.324,-28.809,-36.621,-25.391
1689846941.659,-17.578,-14.648,-40.039,-43.945,158.203
1689846941.663,-14.648,-25.391,-35.156,0.488,131.348
1689846941.667,-13.672,-20.020,-39.551,25.391,-83.984
1689846941.671,-20.020,-20.508,-55.664,-5.859,-59.082
1689846941.675,-28.320,-28.320,-45.898,-29.297,17.090
1689846941.676,-39.062,-28.809,-33.203,-38.086,-154.785
1689846941.680,-21.484,-19.531,-28.809,-23.438,-183.105
1689846941.684,-5.371,-21.973,-31.250,15.625,-31.250
1689846941.688,-18.066,-25.391,-36.621,17.090,-70.312
1689846941.692,-24.902,-11.230,-27.344,-15.625,-120.117
1689846941.696,-15.137,-11.719,-28.809,-34.180,-91.309
1689846941.700,5.859,-19.043,-28.320,-22.461,143.555
1689846941.703,-8.789,-14.160,-20.996,8.301,378.418
1689846941.707,-35.156,-14.648,-27.832,-25.391,1.465
1689846941.711,-55.176,-24.902,-34.668,-60.547,-178.711
1689846941.715,-33.203,-25.879,-31.738,-52.246,-70.312
1689846941.719,-15.625,-25.879,-29.785,-12.695,-86.426
1689846941.721,-23.926,-28.809,-36.133,22.949,-70.312
1689846941.725,3.906,-25.391,-38.574,-20.508,3.906
1689846941.729,-33.691,-26.855,-32.227,-72.754,-29.297
1689846941.733,-65.918,-34.180,-37.598,-52.246,-156.250
1689846941.737,-38.086,-36.133,-50.781,-32.227,-220.703
1689846941.741,-25.391,-39.062,-42.480,-0.488,34.668
1689846941.745,-29.297,-41.992,-35.156,22.949,446.777
1689846941.748,-36.621,-33.203,-46.875,-56.641,145.996
1689846941.752,-33.691,-30.762,-40.039,-80.566,-175.781
1689846941.756,-29.297,-22.949,-33.691,-29.785,-35.645
1689846941.760,6.348,-10.742,-40.039,-6.348,280.273
1689846941.764,-0.977,-26.367,-43.457,-17.090,79.590
1689846941.781,-36.133,-41.992,-41.016,-37.109,-189.941
1689846941.785,-31.738,-46.387,-43.457,-46.875,-113.770
1689846941.789,-22.949,-34.668,-40.039,-36.621,-102.539
1689846941.793,-32.715,-27.344,-31.738,-13.672,-101.074
1689846941.797,-29.785,-26.855,-34.180,0.000,-37.598
1689846941.801,-39.551,-25.879,-26.367,-31.250,85.449
1689846941.805,-38.086,-28.809,-20.020,-61.523,36.133
1689846941.808,0.000,-23.926,-20.508,-56.152,-110.840
1689846941.812,-4.395,-18.555,-21.484,-14.160,-83.984
1689846941.816,-20.996,-15.625,-25.391,34.180,205.566
1689846941.820,-46.875,-24.902,-30.273,-18.066,226.074
1689846941.824,-60.547,-32.227,-36.133,-67.871,-85.938
1689846941.826,-38.574,-34.668,-36.133,-46.875,-125.000
1689846941.830,-45.410,-43.457,-24.414,-15.625,-0.977
1689846941.834,3.906,-43.945,-10.742,36.133,-8.789
1689846941.838,13.672,-28.809,-14.648,14.160,-104.004
1689846941.842,-47.852,-10.254,-46.875,-69.824,-137.207
1689846941.846,-57.129,-14.648,-49.316,-88.379,-6.348
1689846941.850,-32.227,-18.066,-38.574,-38.574,81.055
1689846941.853,-14.160,-20.996,-49.805,-26.855,68.359
1689846941.857,-47.363,-22.949,-55.664,-56.641,89.844
1689846941.861,-54.688,-8.789,-51.270,-77.637,318.359
1689846941.865,-49.805,1.953,-57.129,-89.355,113.281
1689846941.869,-43.945,6.348,-69.336,-72.266,-157.227
1689846941.871,-2.441,23.438,-46.875,-33.691,5.859
1689846941.875,-38.574,16.113,-44.434,-63.477,-21.484
1689846941.879,-69.336,-12.207,-67.871,-113.281,-202.148
1689846941.883,-62.012,-20.996,-75.195,-105.469,-210.449
1689846941.887,-60.059,-19.043,-74.707,-56.152,-28.320
1689846941.891,-19.043,-11.230,-68.359,-16.113,51.270
1689846941.895,-36.133,-2.930,-71.289,-63.477,47.363
1689846941.898,-59.570,-6.348,-68.359,-101.074,-29.785
1689846941.902,-41.016,-11.230,-63.965,-77.637,102.539
1689846941.906,-29.785,-5.371,-64.941,-47.363,156.738
1689846941.910,-31.738,-14.648,-65.430,-31.738,-33.203
1689846941.914,-46.387,-16.602,-59.570,-36.621,-43.945
1689846941.916,-44.922,-7.324,-48.340,-63.965,-59.570
1689846941.920,-41.504,-1.953,-40.039,-71.289,-125.000
1689846941.924,-29.297,-3.418,-43.945,-52.734,-99.609
1689846941.928,-8.789,-3.906,-50.293,-17.578,107.422
1689846941.932,-27.344,-9.277,-41.504,-22.949,177.246
1689846941.936,-44.434,-21.484,-30.762,-43.457,35.645
1689846941.940,-30.273,-28.320,-39.062,-28.320,-90.820
1689846941.943,-14.160,-30.762,-52.246,-47.852,-73.242
1689846941.947,-29.785,-20.508,-44.434,-41.016,413.574
1689846941.951,-16.113,-16.602,-38.086,-14.648,387.207
1689846941.955,-9.277,-25.391,-25.879,-37.598,-142.090
1689846941.959,-53.223,-30.273,-26.855,-52.246,-231.445
1689846941.961,-64.941,-41.016,-38.574,-67.871,-146.973
1689846941.965,-46.875,-31.250,-39.551,-58.105,-119.629
1689846941.969,-30.273,-19.043,-35.156,-29.785,-102.051
1689846941.973,-28.809,-17.578,-32.715,-43.945,-68.848
1689846941.977,-43.457,-19.043,-32.227,-69.824,-125.000
1689846941.981,-33.203,-20.996,-35.645,-44.434,-73.730
1689846941.985,-9.766,-17.090,-35.156,10.742,40.527
1689846941.988,23.438,-14.648,-40.527,12.207,270.020
1689846941.992,6.348,-14.648,-45.410,-20.996,386.719
1689846941.996,-38.086,-22.949,-29.785,-51.758,-40.039
1689846942.000,-29.785,-35.645,-23.438,-49.805,-205.566
1689846942.004,-33.203,-34.180,-30.762,-38.574,-120.117
1689846942.006,-17.090,-23.438,-36.133,-33.203,-79.102
1689846942.010,-26.367,-21.484,-35.645,-62.500,-68.359
1689846942.014,-66.406,-26.367,-33.203,-80.566,-129.395
1689846942.018,-52.734,-14.648,-26.855,-25.879,-106.445
1689846942.022,-18.555,-8.301,-30.273,-1.465,-78.613
1689846942.026,5.371,-4.883,-41.504,-6.348,20.996
1689846942.030,-2.441,-12.695,-37.109,-24.414,69.824
1689846942.033,-11.230,-25.391,-26.855,-43.457,235.352
1689846942.037,-20.020,-21.973,-31.250,-49.316,153.809
1689846942.041,-17.090,-13.184,-32.715,-22.949,-35.156
1689846942.045,5.859,-16.602,-26.367,16.113,48.828
1689846942.049,-16.113,-20.996,-23.926,11.719,284.180
1689846942.051,-45.410,-12.695,-20.020,-45.410,-29.785
1689846942.055,-48.828,-22.461,-24.414,-79.102,-295.410
1689846942.059,-35.156,-36.621,-34.668,-42.480,-128.418
1689846942.063,3.418,-36.133,-47.363,3.906,-75.195
1689846942.067,-23.926,-39.062,-45.410,-7.812,-133.789
1689846942.071,-61.035,-38.086,-24.414,-51.270,-107.422
1689846942.075,-41.992,-19.043,-14.648,-51.270,160.156
1689846942.078,-22.949,-18.555,-26.367,-42.969,172.852
1689846942.082,-34.668,-40.039,-33.203,-1.953,-81.543
1689846942.086,-37.109,-41.504,-40.039,13.672,-115.234
1689846942.090,-33.203,-36.621,-49.316,-53.711,-6.348
1689846942.094,-57.129,-31.738,-42.480,-82.520,-103.516
1689846942.096,-55.176,-27.832,-40.527,-37.109,-253.906
1689846942.100,-34.668,-42.480,-36.621,-8.301,-74.707
1689846942.104,-34.668,-42.480,-31.738,-25.391,141.602
1689846942.108,-40.039,-26.855,-37.598,-55.664,-66.406
1689846942.112,-25.879,-15.625,-37.598,-57.129,-272.461
1689846942.116,-9.277,-21.973,-29.297,-28.320,-25.391
1689846942.120,-12.695,-28.809,-28.809,12.207,325.684
1689846942.123,-34.668,-26.855,-45.410,-12.207,102.051
1689846942.127,-52.246,-34.668,-42.969,-62.988,-74.219
1689846942.131,-39.551,-36.621,-33.203,-78.125,-7.324
1689846942.135,-44.434,-29.785,-35.645,-68.359,159.180
1689846942.139,-38.086,-28.320,-27.832,-26.855,-22.949
1689846942.142,-26.367,-30.762,-25.391,-2.441,-122.559
1689846942.146,-59.570,-28.809,-35.156,-45.898,39.062
1689846942.150,-79.102,-30.762,-35.645,-77.148,-62.500
1689846942.154,-48.828,-28.320,-25.879,-54.199,-227.539
1689846942.158,-21.484,-28.809,-21.484,-28.320,-87.891
1689846942.162,-20.020,-23.926,-34.180,-12.695,171.387
1689846942.166,-32.715,-18.555,-41.504,-30.273,75.195
1689846942.169,-33.203,-13.184,-33.203,-64.941,-134.766
1689846942.173,-43.945,-16.602,-19.531,-37.109,-172.363
1689846942.177,-43.457,-32.715,-16.602,-10.254,81.543
1689846942.181,-35.156,-41.504,-27.832,-36.621,121.582
1689846942.185,-39.551,-42.969,-24.902,-69.824,-68.359
1689846942.201,-33.691,-29.297,-20.996,-55.176,-74.707
1689846942.205,-46.387,-32.227,-40.039,-42.480,-70.801
1689846942.209,-50.293,-49.805,-47.852,-28.320,-73.242
1689846942.213,-43.457,-50.293,-40.039,-6.348,-70.801
1689846942.217,-54.688,-46.387,-37.598,-21.484,5.371
1689846942.221,-71.777,-30.762,-50.781,-38.574,274.902
1689846942.225,-50.293,-34.668,-57.129,-57.129,31.250
1689846942.228,-18.066,-48.340,-42.480,-28.809,-168.457
1689846942.232,-10.742,-33.691,-33.691,7.812,69.336
1689846942.236,-41.016,-28.809,-45.898,-8.301,314.941
1689846942.240,-76.172,-43.945,-40.527,-66.895,120.117
1689846942.244,-66.406,-40.527,-28.809,-81.543,-167.480
1689846942.246,-40.527,-36.621,-32.715,-25.391,-92.285
1689846942.250,-24.902,-41.016,-33.691,-18.555,-26.367
1689846942.254,-28.320,-26.855,-31.250,-33.203,-46.387
1689846942.258,-39.551,-25.391,-26.855,-47.363,-94.727
1689846942.262,-45.410,-25.391,-31.250,-77.148,-77.148
1689846942.266,-27.832,-21.973,-42.969,-57.617,33.691
1689846942.270,-23.438,-36.133,-35.645,-16.602,98.145
1689846942.273,-32.227,-37.109,-22.461,-3.906,105.957
1689846942.277,-22.949,-28.809,-26.855,-39.551,162.109
1689846942.281,-46.875,-28.809,-29.297,-75.684,41.016
1689846942.285,-58.105,-33.691,-31.250,-46.387,-204.590
1689846942.289,-24.414,-31.738,-37.598,-21.973,-145.020
1689846942.291,-23.926,-25.879,-32.715,-11.719,146.973
1689846942.295,-52.246,-24.902,-32.715,-48.828,44.434
1689846942.299,-24.414,-4.883,-24.414,-80.566,-195.801
1689846942.303,-12.207,-3.906,-17.090,-32.227,-128.906
1689846942.307,-32.715,-36.621,-51.270,5.371,-24.414
1689846942.311,-28.320,-52.246,-68.359,-25.391,61.035
1689846942.315,-49.805,-43.945,-46.875,-53.711,39.062
1689846942.318,-65.918,-43.945,-39.062,-48.828,-73.242
1689846942.322,-44.922,-45.410,-40.039,-46.387,282.715
1689846942.326,-17.578,-30.273,-35.645,-28.320,418.457
1689846942.330,-32.715,-23.438,-39.062,-25.879,-23.438
1689846942.334,-38.574,-20.508,-42.480,-58.105,-123.535
1689846942.336,-40.527,-18.066,-34.180,-69.824,-136.719
1689846942.340,-37.109,-12.695,-23.438,-47.363,-226.074
1689846942.344,-32.715,-20.508,-36.621,-25.391,-163.574
1689846942.348,-18.066,-35.645,-52.734,-4.395,-64.941
1689846942.352,-29.785,-30.762,-51.758,-32.227,-73.730
1689846942.356,-64.453,-20.996,-50.293,-77.148,-43.945
1689846942.360,-54.199,-19.531,-41.016,-88.867,-41.504
1689846942.363,-31.250,-19.043,-41.016,-35.156,145.020
1689846942.367,-18.066,-18.555,-48.828,0.977,257.324
1689846942.371,-27.344,-23.438,-36.133,-15.625,-70.801
1689846942.375,-34.180,-15.137,-25.391,-27.832,-140.137
1689846942.379,-1.465,-1.953,-8.789,-22.949,26.855
1689846942.381,10.742,-8.301,-16.602,-2.441,-56.152
1689846942.385,-20.020,-22.949,-53.223,13.672,-106.445
1689846942.389,-31.250,-31.250,-50.781,-6.836,-64.941
1689846942.393,-33.691,-21.484,-17.578,-56.152,-63.965
1689846942.397,-33.691,-7.324,-4.883,-32.715,-140.625
1689846942.401,-19.043,-22.949,-27.832,-6.836,-77.148
1689846942.405,-20.020,-36.621,-41.992,5.371,155.273
1689846942.408,-31.738,-30.762,-37.109,-7.324,397.461
1689846942.412,-35.645,-13.672,-34.668,-47.852,128.418
1689846942.416,-50.781,-15.137,-36.133,-50.781,-208.984
1689846942.420,-40.039,-22.461,-41.504,-20.020,-84.961
1689846942.424,-19.043,-23.926,-33.203,6.348,75.195
1689846942.427,-24.902,-37.109,-23.438,-23.438,-62.012
1689846942.431,-11.230,-39.062,-36.133,-58.105,-65.430
1689846942.435,-36.621,-31.738,-34.668,-77.637,-5.371
1689846942.439,-58.594,-25.879,-33.691,-55.176,-62.988
1689846942.443,-13.672,-17.090,-32.715,-4.395,-125.977
1689846942.447,10.254,-13.184,-35.156,-7.812,-33.203
1689846942.451,-38.086,-15.137,-46.875,-46.387,186.523
1689846942.454,-61.523,-28.809,-42.969,-53.711,180.176
1689846942.458,-19.531,-29.297,-40.527,-62.988,-109.863
1689846942.462,-15.625,-18.066,-47.363,-28.320,-121.582
1689846942.466,-50.293,-24.414,-44.434,0.488,-20.020
1689846942.470,-49.805,-29.297,-52.246,-49.805,-72.754
1689846942.471,-31.250,-18.555,-62.012,-72.754,-160.156
1689846942.475,-23.438,-15.625,-60.059,-35.156,-152.832
1689846942.479,-26.367,-21.484,-46.387,16.113,-45.898
1689846942.483,-28.809,-27.832,-28.809,0.488,0.977
1689846942.487,-43.457,-32.715,-25.879,-56.152,-81.055
1689846942.491,-68.848,-33.203,-43.457,-81.543,-11.230
1689846942.495,-50.781,-33.691,-55.176,-64.453,324.219
1689846942.498,-27.832,-32.715,-50.781,-32.227,135.254
1689846942.502,-22.949,-27.832,-48.828,-0.488,-59.570
1689846942.506,-14.648,-25.391,-43.457,17.090,12.207
1689846942.510,-12.207,-39.062,-34.668,-15.625,218.262
1689846942.514,-65.430,-44.922,-28.809,-59.082,44.434
1689846942.531,-83.496,-41.504,-27.344,-31.250,-184.082
1689846942.535,-34.668,-36.133,-27.344,0.488,8.789
1689846942.539,-22.461,-26.855,-31.738,-18.066,23.438
1689846942.543,-26.855,-27.344,-41.504,-83.984,-176.758
1689846942.547,-19.043,-23.926,-29.297,-99.609,-214.355
1689846942.551,-3.906,-17.578,-22.949,0.977,72.266
1689846942.555,20.508,-22.461,-37.109,34.668,130.859
1689846942.558,1.465,-23.438,-39.062,-20.020,31.250
1689846942.562,-49.316,-24.902,-30.762,-48.828,-65.430
1689846942.566,-52.734,-30.762,-32.715,-35.156,96.680
1689846942.570,-29.785,-27.344,-40.527,-27.344,214.355
1689846942.574,-22.461,-27.832,-45.898,-24.902,-61.035
1689846942.576,-20.508,-29.297,-40.527,-32.715,-125.000
1689846942.580,-29.297,-22.461,-28.320,-45.898,-122.070
1689846942.584,-20.508,-27.832,-33.203,-54.199,-166.016
1689846942.588,-39.551,-38.086,-31.738,-46.875,-128.418
1689846942.592,-53.223,-42.969,-27.832,-5.859,-62.988
1689846942.596,-37.109,-37.109,-50.293,-5.371,28.320
1689846942.600,-31.250,-23.438,-45.898,-42.480,52.246
1689846942.603,-38.086,-34.668,-25.879,-71.289,-87.891
1689846942.607,-49.805,-50.781,-22.461,-29.785,-49.805
1689846942.611,-41.504,-41.504,-9.766,38.086,330.566
1689846942.615,-37.109,-37.109,-4.883,7.812,165.039
1689846942.619,-51.758,-41.016,-14.160,-55.664,-154.297
1689846942.621,-53.711,-35.156,-13.672,-71.777,-64.453
1689846942.625,-44.922,-24.414,-14.160,-61.035,251.465
1689846942.629,-20.996,-15.137,-18.066,-11.230,101.562
1689846942.633,-17.578,-21.484,-19.531,8.301,-109.375
1689846942.637,-33.203,-32.715,-25.879,-37.109,-23.438
1689846942.641,-46.875,-39.551,-21.484,-66.895,-51.270
1689846942.645,-40.039,-41.504,-22.949,-56.152,-162.109
1689846942.648,-25.879,-37.109,-28.809,-11.230,-124.512
1689846942.652,-12.207,-34.180,-25.879,20.508,166.504
1689846942.656,-45.410,-31.250,-29.297,-27.832,159.668
1689846942.660,-55.664,-32.715,-31.250,-68.848,-222.168
1689846942.664,-17.090,-33.691,-30.762,-36.133,-224.609
1689846942.666,-22.949,-35.156,-37.598,0.977,38.086
1689846942.670,-40.039,-35.645,-37.598,-0.488,3.418
1689846942.674,-41.992,-37.109,-31.738,-34.180,-138.672
1689846942.678,-51.270,-39.062,-40.527,-59.570,-204.590
1689846942.682,-59.570,-31.738,-52.734,-76.660,-207.520
1689846942.686,-34.668,-31.738,-50.781,-23.438,-21.484
1689846942.690,2.930,-27.832,-40.039,10.254,121.582
1689846942.693,-22.949,-26.367,-30.273,-26.367,109.863
1689846942.697,-60.059,-33.203,-20.996,-43.945,353.027
1689846942.701,-42.480,-16.602,-15.137,-43.945,191.406
1689846942.705,-31.250,-26.855,-34.180,-36.621,-150.879
1689846942.709,-70.801,-47.363,-53.223,-21.484,-64.453
1689846942.712,-62.500,-46.875,-63.965,-38.574,-33.691
1689846942.716,-41.504,-51.270,-57.129,-76.660,-66.895
1689846942.720,-65.430,-43.945,-39.062,-68.359,-115.723
1689846942.724,-44.434,-31.250,-28.809,-20.020,-46.387
1689846942.728,-13.672,-28.809,-34.180,0.977,70.801
1689846942.732,-19.043,-33.691,-47.363,-19.531,60.547
1689846942.736,-35.156,-32.227,-42.480,-47.363,-7.324
1689846942.739,-22.949,-28.320,-36.621,-70.312,53.711
1689846942.743,-32.227,-31.250,-32.227,-34.668,143.066
1689846942.747,-48.340,-33.691,-29.785,-19.531,-67.871
1689846942.751,-28.809,-23.438,-22.461,-26.855,-137.695
1689846942.755,-21.973,-12.695,-20.020,-26.855,-123.047
1689846942.756,-31.250,-21.484,-43.457,-57.617,-207.520
1689846942.760,-23.438,-31.250,-49.316,-44.434,-160.645
1689846942.764,7.324,-30.273,-27.832,-9.766,-69.336
1689846942.768,-25.879,-39.062,-28.320,-20.020,15.625
1689846942.772,-57.617,-38.086,-40.039,-37.598,98.633
1689846942.776,-44.434,-30.273,-45.410,-35.156,67.383
1689846942.780,-48.828,-31.250,-49.805,-33.691,8.789
1689846942.783,-37.598,-28.809,-51.270,-7.324,359.863
1689846942.787,-22.949,-24.414,-61.035,1.953,426.270
1689846942.791,-41.992,-25.879,-61.035,-29.297,-95.215
