timestamps,TP9,AF7,AF8,TP10,Right AUX
1692123096.735,-22.461,-29.297,-43.457,-16.602,-112.793
1692123096.739,-21.973,-36.621,-34.180,-20.508,-64.453
1692123096.743,-22.461,-26.367,-29.297,-22.949,-141.113
1692123096.747,-32.715,-31.738,-29.785,-40.527,-166.504
1692123096.751,-41.016,-44.434,-39.062,-42.480,12.695
1692123096.755,-35.156,-45.898,-41.016,-41.504,169.434
1692123096.759,-31.250,-37.598,-38.086,-48.340,64.453
1692123096.762,-30.273,-26.855,-37.598,-43.457,-75.195
1692123096.766,-36.133,-36.133,-31.738,-34.180,6.348
1692123096.770,-25.391,-33.203,-30.273,-18.066,212.402
1692123096.774,-21.484,-23.438,-31.738,-16.113,-5.859
1692123096.778,-36.133,-35.645,-34.180,-29.297,-107.422
1692123096.781,-36.621,-48.340,-36.133,-47.852,-10.742
1692123096.785,-38.574,-35.156,-35.156,-54.199,-76.172
1692123096.789,-37.109,-28.320,-32.227,-31.250,-193.359
1692123096.793,-27.344,-37.109,-25.391,-17.578,-129.395
1692123096.797,-25.879,-32.715,-28.809,-19.531,-46.875
1692123096.801,-31.738,-33.203,-37.598,-19.531,-26.367
1692123096.805,-36.621,-38.574,-41.992,-22.949,-50.781
1692123096.808,-31.738,-34.668,-38.086,-24.414,-71.777
1692123096.812,-21.973,-33.691,-30.762,-20.996,-28.809
1692123096.816,-25.391,-32.227,-33.691,-27.344,-75.684
1692123096.820,-30.762,-26.367,-41.504,-35.645,-158.691
1692123096.824,-27.832,-24.902,-35.645,-35.156,-70.312
1692123096.811,-28.320,-22.461,-30.762,-24.902,224.609
1692123096.815,-27.344,-22.949,-41.992,-30.762,174.805
1692123096.819,-26.855,-37.109,-43.945,-39.062,-48.828
1692123096.823,-34.180,-48.828,-42.480,-39.062,18.555
1692123096.827,-34.668,-39.062,-41.016,-36.621,88.379
1692123096.831,-29.785,-36.133,-40.039,-35.645,-55.176
1692123096.835,-31.250,-35.645,-38.574,-27.832,1.953
1692123096.838,-29.785,-32.227,-32.715,-15.137,154.297
1692123096.842,-30.762,-34.180,-28.809,-22.949,87.891
1692123096.846,-37.598,-38.574,-33.691,-41.504,-114.258
1692123096.850,-29.297,-42.480,-29.785,-35.156,-216.797
1692123096.854,-17.090,-41.016,-30.273,-24.414,-3.906
1692123096.857,-27.344,-34.668,-45.410,-37.109,283.203
1692123096.861,-40.527,-25.879,-41.504,-44.922,-29.297
1692123096.865,-38.574,-18.066,-29.785,-37.109,-256.348
1692123096.869,-40.527,-34.668,-30.273,-41.016,-154.297
1692123096.873,-38.574,-47.363,-39.551,-41.016,-61.523
1692123096.877,-27.832,-44.922,-41.504,-22.949,1.953
1692123096.881,-27.832,-37.598,-34.180,-17.578,-39.551
1692123096.884,-27.832,-29.297,-35.645,-26.367,169.434
1692123096.888,-26.855,-40.039,-39.062,-31.738,254.395
1692123096.892,-21.484,-42.969,-37.598,-18.066,-126.953
1692123096.896,-14.648,-38.086,-30.762,-6.836,-126.465
1692123096.900,-9.766,-31.738,-30.273,-7.324,-81.543
1692123096.900,-21.973,-31.738,-35.156,-17.578,-163.574
1692123096.904,-36.133,-33.203,-34.180,-24.414,-148.438
1692123096.908,-26.855,-23.438,-28.809,-16.113,-73.730
1692123096.912,-16.113,-16.602,-29.785,-12.207,-35.645
1692123096.916,-15.137,-26.367,-32.227,-16.113,-54.199
1692123096.920,-17.090,-34.180,-29.785,-22.461,-62.988
1692123096.924,-22.949,-32.715,-31.250,-30.762,114.258
1692123096.927,-34.668,-26.855,-37.109,-26.367,570.801
1692123096.931,-31.738,-18.066,-37.598,-19.043,452.148
1692123096.935,-20.508,-17.578,-38.574,-27.832,-96.680
1692123096.939,-31.250,-27.832,-37.109,-43.457,-170.898
1692123096.943,-41.016,-37.109,-32.227,-43.945,-158.691
1692123096.947,-28.809,-40.039,-28.809,-30.762,-187.500
1692123096.951,-22.949,-36.133,-32.227,-25.391,-190.430
1692123096.955,-37.598,-36.621,-38.086,-30.273,-145.508
1692123096.959,-39.551,-42.480,-33.691,-38.574,-152.832
1692123096.963,-39.551,-39.551,-33.203,-41.016,-177.246
1692123096.967,-46.875,-31.250,-36.621,-41.992,-130.859
1692123096.971,-39.551,-35.156,-34.668,-29.297,239.746
1692123096.974,-34.180,-32.227,-36.133,-29.297,279.785
1692123096.978,-39.062,-26.855,-37.598,-42.969,-120.117
1692123096.982,-39.062,-28.320,-35.156,-40.527,-96.680
1692123096.986,-27.344,-10.742,-29.785,-25.391,-23.438
1692123096.990,-25.391,-14.160,-27.832,-18.066,-119.629
1692123096.990,-24.414,-34.668,-33.691,-22.461,-193.359
1692123096.994,-22.461,-36.621,-36.621,-19.531,-111.328
1692123096.998,-31.738,-34.180,-41.504,-26.367,-66.895
1692123097.002,-30.273,-31.738,-35.645,-34.180,-81.543
1692123097.006,-20.996,-31.250,-27.344,-24.902,-50.781
1692123097.010,-23.926,-30.273,-25.879,-17.578,162.109
1692123097.014,-20.508,-33.691,-32.227,-14.160,448.242
1692123097.017,-25.879,-44.434,-38.574,-24.902,145.508
1692123097.021,-39.551,-45.898,-35.645,-30.273,-199.707
1692123097.025,-36.133,-42.969,-35.645,-20.508,-57.129
1692123097.029,-22.461,-37.109,-34.180,-20.020,-28.320
1692123097.033,-22.461,-25.879,-29.785,-30.273,-143.555
1692123097.038,-27.832,-30.762,-27.344,-29.297,-140.625
1692123097.042,-32.227,-33.691,-29.785,-20.508,-68.359
1692123097.046,-28.320,-26.855,-34.668,-16.113,-57.129
1692123097.050,-23.438,-36.621,-33.691,-12.207,-137.207
1692123097.054,-26.855,-37.598,-30.762,-18.555,-61.523
1692123097.058,-30.273,-36.133,-29.297,-22.949,41.992
1692123097.062,-29.297,-45.898,-31.250,-24.902,-5.371
1692123097.065,-20.020,-32.715,-35.156,-20.996,-104.492
1692123097.069,-18.066,-35.156,-30.762,-20.020,-72.266
1692123097.073,-20.508,-44.434,-25.391,-26.367,-19.531
1692123097.077,-30.273,-34.180,-25.391,-37.598,-64.941
1692123097.081,-38.086,-37.109,-35.645,-38.574,-116.699
1692123097.096,-30.762,-41.504,-37.598,-23.438,-75.195
1692123097.100,-24.414,-35.156,-33.691,-14.648,134.766
1692123097.104,-21.973,-27.344,-34.668,-24.414,121.094
1692123097.108,-25.879,-24.414,-30.762,-35.156,-102.539
1692123097.112,-35.645,-36.621,-31.738,-44.922,19.531
1692123097.116,-42.969,-45.410,-36.621,-38.574,414.062
1692123097.120,-30.762,-34.180,-36.621,-25.879,210.449
1692123097.123,-17.090,-28.320,-34.180,-28.320,-113.281
1692123097.127,-26.367,-29.297,-32.227,-31.250,26.367
1692123097.131,-35.156,-34.180,-32.227,-31.738,52.246
1692123097.135,-32.227,-36.133,-25.391,-33.203,-189.453
1692123097.139,-27.832,-37.109,-14.648,-23.926,-159.668
1692123097.155,-26.367,-39.551,-21.484,-30.273,-92.773
1692123097.159,-44.922,-33.203,-32.227,-48.340,-148.438
1692123097.163,-59.082,-31.250,-31.738,-59.570,-191.406
1692123097.167,-59.082,-24.414,-26.367,-53.223,-177.246
1692123097.171,-56.152,-27.832,-20.996,-42.969,-58.594
1692123097.175,-56.641,-47.363,-17.578,-56.641,23.438
1692123097.179,-54.688,-51.758,-20.020,-62.988,51.758
1692123097.182,-64.453,-27.344,-29.785,-78.613,-31.738
1692123097.186,-83.984,-5.859,-31.250,-102.051,161.133
1692123097.190,-90.332,-5.371,-32.715,-100.586,263.184
1692123097.194,-80.078,-11.719,-36.621,-94.238,-117.188
1692123097.198,-95.703,-25.391,-39.551,-115.723,-131.348
1692123097.185,-119.141,-14.160,-47.852,-138.184,-141.113
1692123097.189,-109.375,-5.371,-53.223,-130.859,-178.711
1692123097.193,-88.867,-11.230,-57.129,-115.723,-176.270
1692123097.197,-78.125,-8.301,-53.223,-107.910,-41.504
1692123097.201,-84.473,-14.648,-52.246,-116.699,129.883
1692123097.205,-83.984,-22.461,-65.430,-118.164,58.594
1692123097.209,-73.242,-24.414,-65.918,-97.168,-90.820
1692123097.212,-58.105,-20.508,-54.688,-68.848,91.797
1692123097.216,-43.945,-21.973,-56.641,-53.223,290.527
1692123097.220,-49.316,-22.949,-60.059,-59.082,-44.922
1692123097.224,-53.223,-22.949,-56.641,-62.012,-229.004
1692123097.228,-47.363,-30.273,-54.688,-46.875,8.301
1692123097.232,-44.434,-47.852,-48.828,-30.762,348.633
1692123097.236,-27.832,-35.156,-46.387,-22.949,86.426
1692123097.240,-20.996,-29.297,-41.504,-25.391,-150.879
1692123097.244,-32.227,-46.875,-40.527,-41.504,-108.887
1692123097.248,-25.391,-42.480,-42.480,-28.320,-148.438
1692123097.252,-12.207,-37.109,-43.457,-11.230,-92.773
1692123097.256,-4.883,-23.438,-43.457,-11.230,-10.742
1692123097.259,-7.812,-23.438,-42.480,-1.953,181.152
1692123097.263,-12.207,-36.133,-35.156,-2.930,132.812
1692123097.267,-15.625,-42.969,-34.180,-15.137,-217.285
1692123097.271,-10.742,-52.734,-40.527,-9.766,-191.895
1692123097.275,0.000,-46.875,-33.203,-4.395,-46.875
1692123097.275,-1.953,-39.062,-36.133,-11.230,-98.633
1692123097.279,-6.348,-39.062,-47.852,-17.090,-142.578
1692123097.283,-0.977,-28.320,-43.945,-16.602,-80.078
1692123097.287,-1.465,-28.809,-34.180,-11.230,-56.152
1692123097.291,-1.953,-43.945,-36.133,-4.883,10.254
1692123097.295,-0.977,-45.898,-37.598,-6.348,20.996
1692123097.299,-12.695,-34.180,-35.645,-10.742,60.547
1692123097.302,-20.020,-33.691,-38.574,-5.859,355.469
1692123097.306,-21.973,-41.016,-39.551,-10.254,143.066
1692123097.310,-18.555,-37.109,-34.180,-10.254,-159.668
1692123097.314,-5.859,-39.551,-34.668,-3.418,-108.887
1692123097.318,-19.043,-39.551,-36.621,-6.836,-107.422
1692123097.323,-27.344,-30.273,-31.738,-15.137,-123.047
1692123097.327,-21.484,-33.203,-31.250,-25.879,-148.926
1692123097.331,-15.625,-43.457,-33.691,-18.555,27.832
1692123097.335,-10.254,-50.293,-36.621,-7.324,51.758
1692123097.339,-15.625,-46.387,-31.250,-12.695,-149.414
1692123097.343,-24.902,-35.645,-26.367,-22.949,-132.324
1692123097.347,-24.414,-36.621,-30.762,-20.996,220.215
1692123097.350,-15.137,-31.250,-29.297,-3.418,221.191
1692123097.354,-13.672,-19.043,-29.297,3.418,-113.770
1692123097.358,-16.113,-26.367,-37.109,-6.348,-57.129
1692123097.362,-17.578,-38.574,-39.062,-20.020,-20.020
1692123097.366,-19.043,-47.852,-40.039,-21.973,-104.492
1692123097.380,-11.230,-50.781,-40.527,-14.648,-136.719
1692123097.384,-13.184,-50.781,-40.039,-9.277,-64.941
1692123097.388,-17.578,-45.898,-41.504,-8.301,7.324
1692123097.392,-16.113,-26.855,-39.062,-21.484,-54.199
1692123097.396,-12.207,-6.348,-33.203,-25.879,-85.449
1692123097.400,-2.441,-26.855,-30.273,-4.883,69.824
1692123097.404,18.066,-52.734,-32.715,21.973,506.836
1692123097.407,16.113,-31.738,-44.434,3.418,352.051
1692123097.411,-26.367,-17.578,-62.012,-50.781,-202.637
1692123097.415,-46.387,-21.484,-65.918,-70.312,-203.125
1692123097.419,-33.203,-22.461,-52.734,-45.898,-117.676
1692123097.423,-20.996,-24.414,-45.898,-32.227,-154.297
1692123097.425,-19.043,-18.066,-45.410,-37.598,-142.090
1692123097.429,-28.320,-11.230,-41.016,-52.246,-154.297
1692123097.433,-31.738,-19.043,-42.969,-54.199,-201.660
1692123097.437,-23.926,-22.461,-43.457,-38.574,-172.852
1692123097.441,-32.227,-30.273,-45.410,-39.551,-47.852
1692123097.445,-41.016,-26.367,-44.434,-47.363,23.438
1692123097.449,-41.504,-9.277,-37.598,-50.293,-23.438
1692123097.452,-55.664,-15.137,-38.574,-56.152,-101.074
1692123097.456,-58.594,-14.648,-37.598,-55.176,-128.906
1692123097.460,-46.387,-11.719,-27.832,-42.969,60.547
1692123097.464,-48.340,-16.113,-33.691,-42.480,38.574
1692123097.468,-59.082,-17.578,-41.992,-60.059,-190.430
1692123097.470,-61.035,-21.484,-36.133,-63.965,-119.629
1692123097.474,-49.316,-23.926,-28.320,-48.340,90.820
1692123097.478,-38.086,-22.461,-33.203,-42.969,-39.062
1692123097.482,-29.297,-29.785,-40.527,-43.457,-172.363
1692123097.486,-33.203,-38.086,-39.551,-42.969,62.988
1692123097.490,-46.875,-20.508,-38.086,-46.387,212.402
1692123097.494,-41.016,-21.484,-29.297,-35.645,0.000
1692123097.497,-27.344,-36.133,-27.832,-22.949,-81.055
1692123097.501,-27.344,-35.645,-31.738,-29.785,72.754
1692123097.505,-28.320,-29.785,-30.273,-28.809,331.543
1692123097.509,-22.949,-18.066,-33.691,-32.227,113.281
1692123097.513,-14.160,-21.973,-32.715,-18.555,-180.176
1692123097.516,-2.930,-31.250,-25.879,-3.418,-160.156
1692123097.520,5.371,-23.926,-26.367,-5.371,-141.602
1692123097.524,0.977,-30.273,-39.062,-13.672,-128.906
1692123097.528,-5.371,-38.574,-40.527,-14.648,-127.441
1692123097.532,-6.836,-44.922,-42.480,-16.113,-111.328
1692123097.536,-0.977,-38.574,-42.480,-9.277,-29.297
1692123097.540,-4.883,-32.715,-39.551,-4.883,41.016
1692123097.543,-17.090,-34.180,-36.621,-18.066,-63.477
1692123097.547,-21.973,-26.855,-31.250,-23.438,60.059
1692123097.551,-27.344,-37.109,-33.203,-31.738,109.863
1692123097.555,-24.902,-39.062,-37.109,-29.297,-133.301
1692123097.559,13.184,-11.230,-52.246,3.418,-52.246
1692123097.560,26.367,-20.508,-39.551,27.832,49.316
1692123097.564,-24.902,-51.758,-13.672,-10.742,-83.008
1692123097.568,-58.594,-46.387,-9.277,-39.551,-123.535
1692123097.572,-39.551,-39.062,-7.812,-20.020,-58.105
1692123097.576,-16.602,-43.457,-11.230,-4.883,57.617
1692123097.580,-22.949,-42.480,-11.719,-1.465,77.637
1692123097.584,-35.156,-37.109,-6.348,1.953,-20.508
1692123097.587,-35.645,-39.062,0.977,3.906,23.926
1692123097.591,-33.691,-43.945,3.418,4.883,351.562
1692123097.595,-26.855,-44.922,-0.488,3.906,181.152
1692123097.599,-25.879,-54.199,-6.836,-0.977,-93.262
1692123097.603,-32.715,-58.105,-1.465,-0.488,-43.945
1692123097.607,-26.855,-52.734,-1.465,0.000,-97.168
1692123097.611,-11.719,-41.992,-4.883,13.672,-133.301
1692123097.615,-6.348,-36.621,-2.441,25.879,-165.527
1692123097.619,-6.348,-36.133,-9.277,16.113,-33.203
1692123097.623,-12.207,-22.461,-17.578,2.441,-32.227
1692123097.627,-14.648,-25.391,-12.695,-4.395,-60.547
1692123097.631,-13.184,-32.715,-13.672,-2.930,-18.066
1692123097.634,-9.766,-23.438,-18.066,10.742,174.316
1692123097.638,-12.207,-29.297,-15.625,14.648,124.023
1692123097.642,-14.648,-37.109,-14.160,3.418,-231.934
1692123097.646,-14.648,-35.645,-11.230,-12.695,-154.297
1692123097.650,-8.789,-37.109,-9.766,-10.254,-68.359
1692123097.650,2.930,-30.273,-14.648,-1.465,-105.957
1692123097.654,9.277,-14.160,-18.066,6.836,-98.633
1692123097.658,7.812,-6.836,-14.648,6.348,3.906
1692123097.662,-9.766,-19.531,-18.066,-2.930,17.578
1692123097.666,-18.066,-29.785,-23.438,-8.789,-59.082
1692123097.670,-11.230,-22.949,-20.996,-3.418,3.418
1692123097.674,-6.836,-21.973,-20.020,-0.977,87.891
1692123097.677,-10.254,-40.527,-26.367,-7.812,382.812
1692123097.681,-26.855,-40.039,-31.250,-20.020,236.328
1692123097.685,-22.949,-13.184,-22.949,-12.695,-186.523
1692123097.689,-11.230,-20.020,-22.461,-6.348,-107.910
1692123097.693,-18.555,-42.969,-31.738,-16.602,-75.684
1692123097.696,-28.320,-46.387,-36.621,-26.367,-178.223
1692123097.700,-37.109,-40.527,-24.902,-29.297,-187.500
1692123097.704,-36.621,-36.133,-19.043,-22.461,-141.113
1692123097.708,-33.203,-42.480,-27.832,-11.230,-94.727
1692123097.712,-27.832,-39.551,-35.156,-11.230,-85.449
1692123097.716,-21.484,-25.391,-30.762,-17.578,-79.590
1692123097.720,-23.438,-19.531,-29.785,-20.508,258.301
1692123097.723,-25.879,-31.738,-36.621,-19.531,259.766
1692123097.727,-18.066,-42.480,-37.109,-10.254,-172.852
1692123097.731,-17.578,-40.527,-28.320,-6.348,-130.371
1692123097.735,-20.020,-37.109,-27.344,-19.043,7.812
1692123097.739,-26.367,-35.645,-29.297,-20.996,-80.566
1692123097.740,-30.273,-29.297,-34.668,-18.555,-155.273
1692123097.744,-17.578,-24.414,-40.039,-10.254,-44.434
1692123097.748,-5.371,-18.555,-37.109,-5.371,85.449
1692123097.752,-14.648,-21.973,-40.039,-21.973,6.348
1692123097.756,-19.043,-38.574,-41.016,-26.855,-69.336
1692123097.760,-19.043,-42.480,-35.156,-22.949,90.820
1692123097.764,-21.973,-35.156,-26.855,-10.254,285.645
1692123097.767,-5.371,-21.484,-20.020,0.000,143.066
1692123097.771,2.441,-15.137,-20.020,-6.836,-134.277
1692123097.775,-9.277,-13.184,-20.020,-14.160,-48.340
1692123097.779,-12.695,-10.254,-24.414,-12.207,106.934
1692123097.783,-16.602,-25.879,-32.715,-16.602,-157.227
1692123097.801,-20.020,-38.086,-35.645,-18.066,-193.848
1692123097.805,-11.230,-37.109,-37.109,-6.836,-114.746
1692123097.809,-11.230,-33.203,-26.855,-17.578,-132.324
1692123097.813,-14.648,-26.367,-19.531,-29.785,-163.574
1692123097.817,-10.742,-22.949,-23.438,-11.719,-126.465
1692123097.821,-10.742,-35.645,-34.668,-3.906,54.199
1692123097.825,-16.113,-32.227,-35.156,-17.090,91.309
1692123097.828,-14.160,-17.578,-28.320,-20.996,-83.496
1692123097.832,-15.625,-23.926,-27.832,-19.043,-134.277
1692123097.836,-20.996,-28.809,-24.902,-14.160,103.516
1692123097.840,-14.648,-31.738,-26.855,-0.977,121.094
1692123097.844,-1.465,-32.227,-30.273,0.488,-141.113
1692123097.845,-9.277,-27.832,-27.344,-10.742,-137.695
1692123097.849,-29.297,-29.785,-26.367,-19.531,-32.227
1692123097.853,-36.133,-27.832,-30.273,-14.160,-148.438
1692123097.857,-23.926,-23.438,-31.250,-7.324,-177.246
1692123097.861,-17.578,-37.598,-29.785,-6.348,-7.324
1692123097.865,-23.438,-48.828,-34.668,-12.695,98.145
1692123097.869,-27.344,-41.992,-35.645,-26.367,-0.977
1692123097.872,-29.785,-38.086,-31.250,-31.250,-99.121
1692123097.876,-29.297,-37.598,-28.320,-17.090,54.199
1692123097.880,-17.578,-33.691,-27.344,-2.441,324.707
1692123097.884,-16.602,-29.785,-27.344,-14.648,64.453
1692123097.888,-30.273,-32.715,-28.809,-30.273,-209.961
1692123097.891,-32.227,-45.410,-31.738,-28.809,-148.926
1692123097.895,-35.156,-53.711,-35.645,-20.996,-72.754
1692123097.899,-27.832,-39.551,-32.715,-12.207,-100.098
1692123097.903,-20.020,-32.227,-25.879,-6.348,-116.211
1692123097.907,-23.438,-31.738,-18.066,-15.625,-11.230
1692123097.911,-24.902,-27.832,-20.020,-22.949,6.836
1692123097.915,-13.672,-18.555,-26.855,-10.742,0.000
1692123097.918,-1.465,-16.113,-23.926,-10.254,-0.488
1692123097.922,-17.578,-32.227,-28.320,-21.973,166.504
1692123097.926,-29.297,-41.504,-38.574,-31.250,140.625
1692123097.930,-28.809,-35.156,-34.180,-32.715,-167.969
1692123097.934,-29.785,-31.738,-37.598,-36.621,-96.191
1692123097.935,-7.812,-22.461,-48.828,-26.367,-28.320
1692123097.939,9.277,-18.555,-42.969,-3.906,-88.867
1692123097.943,-27.832,-32.227,-29.297,-24.902,-201.660
1692123097.947,-57.617,-38.086,-32.715,-48.340,-16.602
1692123097.951,-33.203,-42.969,-43.945,-21.484,206.543
1692123097.955,-21.973,-56.641,-39.062,-11.230,104.980
1692123097.959,-29.785,-56.152,-32.715,-17.090,100.098
1692123097.962,-36.621,-47.363,-30.273,-16.602,146.973
1692123097.966,-27.344,-36.621,-24.902,-0.977,360.840
1692123097.970,-20.020,-24.902,-25.879,4.395,140.625
1692123097.974,-22.949,-33.203,-36.133,-10.254,-166.992
1692123097.978,-15.625,-36.621,-40.039,-3.906,-106.445
1692123097.996,-15.137,-36.621,-35.645,-10.254,-138.672
1692123098.000,-32.227,-48.340,-35.156,-29.297,-251.953
1692123098.004,-41.504,-49.316,-35.156,-29.297,-256.348
1692123098.008,-21.973,-36.621,-32.227,-7.812,-168.945
1692123098.012,-15.137,-30.273,-29.297,10.742,-84.473
1692123098.016,-18.555,-28.320,-24.414,-2.441,-43.945
1692123098.020,-19.531,-24.902,-20.020,-20.020,-93.262
1692123098.023,-22.949,-18.555,-20.996,-17.578,232.422
1692123098.027,-17.090,-18.066,-30.762,-17.090,334.473
1692123098.031,-16.113,-23.438,-30.762,-17.578,-109.375
1692123098.035,-25.879,-19.043,-33.691,-27.344,-176.270
1692123098.039,-32.715,-27.832,-42.480,-35.645,-121.094
1692123098.025,-30.273,-32.227,-38.086,-31.738,-170.898
1692123098.029,-15.625,-26.367,-40.527,-24.414,-186.523
1692123098.033,0.488,-20.508,-41.016,-6.836,-81.543
1692123098.037,-1.465,-13.672,-31.250,-5.859,-3.418
1692123098.041,-12.207,-16.602,-24.414,-18.066,-45.410
1692123098.045,-16.602,-21.484,-25.391,-14.160,-29.785
1692123098.049,-11.230,-26.367,-28.809,-10.742,173.340
1692123098.052,-13.672,-39.062,-39.062,-13.672,163.574
1692123098.056,-21.973,-46.875,-38.086,-22.949,-25.879
1692123098.060,-33.203,-45.898,-31.738,-31.738,-135.742
1692123098.064,-31.738,-31.738,-34.180,-28.809,-19.043
1692123098.068,-21.973,-14.648,-28.320,-18.555,394.531
1692123098.071,-24.414,-17.090,-31.738,-20.020,226.562
1692123098.075,-21.973,-19.531,-34.668,-29.785,-154.785
1692123098.079,-32.227,-15.137,-35.156,-31.738,-178.223
1692123098.083,-51.270,-32.227,-37.598,-38.574,-206.055
1692123098.087,-44.434,-50.293,-38.574,-36.621,-224.609
1692123098.091,-33.203,-44.434,-40.527,-23.438,-104.004
1692123098.095,-31.250,-41.504,-38.574,-30.273,241.699
1692123098.098,-40.527,-40.039,-37.109,-45.898,166.016
1692123098.102,-48.828,-25.391,-39.062,-48.828,-161.133
1692123098.106,-41.016,-15.625,-41.016,-32.227,-119.141
1692123098.110,-30.762,-21.484,-40.527,-23.438,13.672
1692123098.114,-23.438,-31.250,-35.645,-28.320,-19.043
1692123098.115,-24.902,-31.738,-32.227,-34.668,-188.965
1692123098.119,-34.668,-34.180,-34.668,-37.598,-127.441
1692123098.123,-36.133,-40.039,-40.527,-28.809,29.297
1692123098.127,-28.320,-35.645,-45.410,-31.250,-74.707
1692123098.131,-26.367,-31.250,-42.969,-38.574,-79.590
1692123098.135,-28.809,-22.461,-36.133,-34.180,136.230
1692123098.139,-41.504,-18.555,-35.645,-43.457,358.398
1692123098.142,-43.945,-21.973,-35.156,-41.992,115.234
1692123098.146,-23.438,-32.227,-26.855,-14.160,-169.434
1692123098.150,17.578,-39.551,-20.996,18.555,4.883
1692123098.154,8.301,-20.508,-26.367,-3.418,33.203
1692123098.158,-37.598,-16.113,-41.504,-51.270,-175.781
1692123098.175,-27.832,-26.855,-43.945,-42.969,-173.828
1692123098.179,-6.836,-27.344,-38.574,-17.578,22.461
1692123098.183,-10.742,-21.484,-43.457,-14.648,48.340
1692123098.187,-6.836,-14.648,-47.852,-22.949,-138.672
1692123098.191,-5.859,-24.414,-48.340,-27.344,-168.457
1692123098.195,-14.160,-34.668,-49.805,-24.902,167.969
1692123098.199,-11.230,-28.320,-52.734,-17.090,240.723
1692123098.202,-2.930,-28.320,-53.711,-9.277,-88.867
1692123098.206,-10.742,-25.879,-44.434,-23.438,-185.547
1692123098.210,-24.902,-26.855,-44.434,-30.762,-25.879
1692123098.214,-18.555,-32.227,-50.293,-11.719,-81.055
1692123098.218,-11.719,-28.320,-44.922,2.930,-191.406
1692123098.220,-6.836,-26.367,-38.574,-0.488,-66.406
1692123098.224,-5.371,-19.043,-38.574,0.977,-11.230
1692123098.228,-10.254,-21.973,-40.527,-5.371,-138.672
1692123098.232,-17.090,-44.434,-43.457,-29.297,-141.113
1692123098.236,-20.508,-55.664,-38.574,-19.531,143.066
1692123098.240,-10.254,-44.434,-30.273,1.953,375.977
1692123098.244,-8.301,-29.297,-31.738,-4.395,72.754
1692123098.247,-18.066,-29.785,-35.156,-18.555,-169.434
1692123098.251,-23.438,-35.645,-38.086,-20.996,-8.301
1692123098.255,-16.113,-36.133,-40.527,-16.113,148.926
1692123098.259,-2.441,-37.598,-44.922,-16.113,-82.520
1692123098.263,-7.812,-40.039,-45.410,-25.879,-211.426
1692123098.266,-20.020,-39.062,-40.039,-25.391,-99.609
1692123098.270,-17.090,-26.367,-30.762,-14.160,-85.449
1692123098.274,-10.254,-19.531,-27.832,-10.254,-163.086
1692123098.278,-12.207,-29.297,-30.273,-4.395,-152.832
1692123098.282,-22.949,-29.785,-33.203,-16.602,-40.039
1692123098.286,-33.203,-39.062,-42.969,-33.203,43.945
1692123098.290,-42.480,-39.551,-44.922,-37.598,27.832
1692123098.293,-48.828,-34.180,-41.992,-47.363,-45.898
1692123098.297,-37.598,-45.898,-36.621,-38.086,218.262
1692123098.301,-26.855,-53.223,-35.156,-38.086,331.055
1692123098.305,-37.598,-45.410,-36.133,-55.664,-108.398
1692123098.309,-42.480,-33.691,-36.133,-54.199,-203.125
1692123098.310,-29.297,-25.879,-31.250,-35.156,-101.562
1692123098.314,-22.949,-27.344,-31.738,-20.996,-103.516
1692123098.318,-20.020,-28.809,-39.062,-12.695,-114.258
1692123098.322,-15.137,-26.855,-40.527,-12.695,-63.477
1692123098.326,-25.391,-30.762,-36.621,-22.949,3.906
1692123098.330,-25.879,-25.391,-29.297,-20.508,29.785
1692123098.334,-11.719,-19.531,-26.367,-8.789,64.941
1692123098.337,-12.207,-20.020,-20.020,-6.836,147.461
1692123098.341,-17.090,-22.461,-19.043,-4.883,423.828
1692123098.345,-23.438,-12.695,-19.043,-13.184,271.973
1692123098.349,-22.949,0.000,-19.531,-18.555,-199.219
1692123098.353,-17.090,-6.836,-23.438,-14.160,-198.242
1692123098.356,-10.742,-10.742,-30.762,-8.789,-105.469
1692123098.360,-13.672,-13.184,-29.297,-17.578,-112.305
1692123098.364,-22.461,-15.137,-23.438,-28.320,-136.719
1692123098.368,-23.926,-17.090,-31.738,-30.762,-127.930
1692123098.372,-20.508,-20.996,-38.086,-24.414,-140.625
1692123098.376,-8.789,-22.949,-28.320,-16.602,-68.848
1692123098.380,-8.789,-30.762,-29.297,-23.438,-66.895
1692123098.383,-27.344,-28.809,-38.574,-35.645,130.371
1692123098.387,-31.738,-22.461,-34.668,-36.133,155.762
1692123098.391,-31.738,-19.043,-30.273,-25.391,-180.664
1692123098.395,-28.809,-20.020,-31.250,-25.391,-67.871
1692123098.399,-25.879,-29.297,-31.738,-29.785,26.855
1692123098.400,-41.504,-38.574,-33.203,-41.016,-109.863
1692123098.404,-40.527,-31.250,-32.715,-43.945,-151.367
1692123098.408,-23.926,-22.949,-26.367,-33.203,-33.203
1692123098.412,-22.949,-32.227,-27.344,-29.785,66.406
1692123098.416,-33.691,-38.086,-36.133,-40.527,-73.242
1692123098.420,-38.086,-32.227,-37.109,-49.316,-112.793
1692123098.424,-38.086,-27.832,-30.273,-37.598,81.055
1692123098.427,-40.527,-40.527,-32.227,-27.832,474.609
1692123098.431,-25.391,-39.062,-38.574,-21.484,295.410
1692123098.435,-18.066,-25.879,-33.691,-16.602,-173.340
1692123098.439,-26.855,-32.227,-29.785,-20.020,-159.668
1692123098.443,-26.367,-31.738,-31.738,-20.508,-110.840
1692123098.448,-29.785,-32.227,-35.156,-20.508,-197.754
1692123098.452,-32.227,-35.156,-36.621,-16.602,-109.375
1692123098.456,-31.738,-34.180,-34.180,-18.066,90.820
1692123098.460,-38.086,-31.250,-29.297,-29.785,-0.488
1692123098.464,-38.574,-27.344,-28.320,-31.250,-142.578
1692123098.468,-33.203,-26.367,-30.273,-26.855,-144.531
1692123098.472,-33.203,-30.762,-33.691,-15.625,228.516
1692123098.475,-28.320,-23.438,-33.691,-14.160,279.785
1692123098.479,-29.297,-16.113,-35.645,-30.273,-134.766
1692123098.483,-44.922,-32.715,-40.527,-43.457,-191.895
1692123098.487,-39.551,-35.645,-39.551,-33.691,-147.949
1692123098.491,-28.320,-24.414,-40.527,-22.949,-153.809
1692123098.490,-24.902,-29.297,-41.992,-25.391,-192.383
1692123098.494,-17.578,-38.574,-39.551,-35.645,-125.488
1692123098.498,-29.297,-39.062,-42.969,-42.480,-64.453
1692123098.502,-39.062,-34.668,-41.504,-28.809,-51.270
1692123098.506,-26.855,-33.691,-39.551,-16.602,-48.340
1692123098.510,-10.254,-22.949,-37.109,-9.277,68.848
1692123098.514,-13.184,-20.996,-29.297,-13.672,451.660
1692123098.517,-27.344,-27.344,-31.738,-34.180,256.836
1692123098.521,-23.926,-28.809,-40.039,-36.133,-158.691
1692123098.525,-14.160,-29.297,-35.645,-21.484,-14.160
1692123098.529,-7.324,-30.762,-31.250,-21.484,83.984
1692123098.533,-17.090,-31.250,-32.715,-37.598,-165.039
1692123098.550,-24.414,-23.438,-33.203,-41.992,-245.605
1692123098.554,-18.066,-20.996,-29.297,-34.668,-216.797
1692123098.558,-15.625,-27.832,-28.809,-28.320,-151.367
1692123098.562,-18.066,-28.320,-33.203,-33.203,-108.398
1692123098.566,-21.484,-28.320,-37.598,-31.250,-79.102
1692123098.570,-30.762,-36.133,-42.480,-39.551,57.129
1692123098.574,-31.250,-42.480,-42.480,-40.039,0.977
1692123098.577,-20.020,-41.992,-36.133,-22.949,-62.988
1692123098.581,-18.066,-33.691,-37.598,-14.648,-76.660
1692123098.585,-19.043,-25.879,-34.668,-9.277,165.039
1692123098.589,-20.508,-21.484,-26.855,-15.137,239.258
1692123098.593,-24.414,-15.137,-29.785,-24.902,-122.070
1692123098.595,-27.344,-18.555,-33.691,-23.926,-107.910
1692123098.599,-24.414,-34.668,-35.645,-18.555,-14.648
1692123098.603,-21.973,-36.621,-39.551,-19.531,-48.340
1692123098.607,-25.879,-28.809,-40.527,-25.879,-157.715
1692123098.611,-35.645,-36.621,-39.062,-23.926,19.531
1692123098.615,-36.133,-37.598,-37.109,-20.996,224.609
1692123098.619,-29.297,-34.668,-37.109,-23.438,106.934
1692123098.622,-29.297,-31.250,-38.086,-26.855,-92.285
1692123098.626,-39.062,-26.367,-37.109,-37.598,-17.090
1692123098.630,-49.316,-30.762,-34.668,-40.527,355.469
1692123098.634,-41.504,-31.250,-35.645,-36.133,94.238
1692123098.638,-32.227,-25.879,-35.645,-40.039,-238.770
1692123098.641,-31.738,-29.785,-34.668,-34.668,-143.066
1692123098.645,-33.691,-22.461,-32.715,-37.598,-84.473
1692123098.649,-37.598,-21.973,-32.227,-43.945,-141.602
1692123098.653,-29.785,-33.691,-34.180,-32.715,-150.391
1692123098.657,-18.555,-30.273,-32.715,-25.879,-56.641
1692123098.661,-26.367,-34.180,-34.180,-25.879,-11.230
1692123098.665,-43.457,-35.645,-31.250,-34.668,-52.734
1692123098.668,-37.109,-22.949,-18.066,-39.062,-184.082
1692123098.672,-11.230,-5.859,3.418,-12.207,3.906
1692123098.676,-14.648,-7.324,-9.277,-6.836,70.312
1692123098.680,-23.438,-13.184,-23.438,-19.531,-200.684
1692123098.684,-34.668,-14.648,-17.578,-28.320,-138.672
1692123098.685,-68.359,-23.926,-37.109,-67.383,-43.457
1692123098.689,-73.242,-24.414,-50.781,-79.102,-159.668
1692123098.693,-66.895,-20.020,-40.039,-65.918,-224.121
1692123098.697,-66.895,-7.324,-28.809,-68.359,-147.949
1692123098.701,-80.078,-1.465,-25.391,-77.637,2.441
1692123098.705,-99.121,2.930,-28.320,-90.332,13.672
1692123098.709,-113.770,5.859,-31.738,-94.727,-42.969
1692123098.712,-118.652,-13.184,-27.344,-95.215,82.031
1692123098.716,-123.535,-12.207,-32.227,-103.516,404.297
1692123098.720,-124.023,2.930,-31.250,-111.328,167.480
1692123098.724,-132.812,-0.488,-24.414,-133.789,-260.254
1692123098.728,-156.250,-8.789,-26.855,-151.855,-216.797
1692123098.733,-156.738,-3.418,-26.367,-148.438,-178.711
1692123098.737,-147.461,2.930,-25.879,-150.879,-180.664
1692123098.741,-154.785,1.465,-23.926,-162.598,-122.559
1692123098.745,-170.898,7.812,-17.578,-177.246,5.371
1692123098.749,-168.457,12.695,-15.137,-185.547,-27.832
1692123098.753,-159.180,4.883,-15.625,-177.246,-66.895
1692123098.757,-150.391,4.883,-16.113,-165.039,-67.383
1692123098.760,-140.137,2.441,-15.137,-165.039,138.672
1692123098.764,-137.207,-1.953,-20.020,-163.574,151.855
1692123098.768,-128.906,-2.441,-24.414,-156.738,-199.707
1692123098.772,-107.422,-14.160,-20.996,-134.277,-164.062
1692123098.776,-96.191,-14.648,-21.973,-116.211,-10.742
1692123098.775,-89.355,-9.766,-27.832,-111.816,-35.156
1692123098.779,-64.453,-5.371,-34.180,-98.633,-154.297
1692123098.783,-44.434,-3.418,-40.527,-82.031,-145.020
1692123098.787,-29.297,-24.902,-42.480,-57.617,-123.047
1692123098.791,-20.508,-43.457,-45.410,-29.297,-39.551
1692123098.795,-8.789,-48.340,-45.410,-20.020,68.848
1692123098.799,0.488,-48.828,-40.527,-15.137,87.891
1692123098.802,-1.953,-46.387,-41.016,-0.488,467.285
1692123098.806,10.742,-46.875,-42.480,18.555,318.848
1692123098.810,25.391,-46.387,-41.992,23.926,-146.973
1692123098.814,30.273,-39.551,-37.598,27.832,-83.008
1692123098.818,31.250,-37.109,-32.227,31.738,-83.984
1692123098.821,37.598,-40.039,-32.227,42.480,-163.574
1692123098.825,42.969,-44.434,-37.109,47.363,-182.129
1692123098.829,49.805,-51.270,-37.109,47.363,-146.484
1692123098.833,52.734,-52.246,-31.738,58.105,-106.934
1692123098.837,38.086,-49.316,-34.668,50.293,-136.719
1692123098.841,20.996,-46.875,-34.668,41.016,-143.555
1692123098.845,24.414,-48.828,-33.691,42.480,153.320
1692123098.848,23.438,-60.059,-42.969,37.598,183.105
1692123098.852,28.320,-57.617,-42.480,38.574,-141.602
1692123098.856,23.438,-49.316,-33.691,33.203,-128.418
1692123098.860,6.348,-46.875,-35.645,28.809,67.383
1692123098.864,11.719,-44.434,-31.250,34.668,20.996
1692123098.865,19.531,-52.246,-29.297,29.785,-201.172
1692123098.869,19.043,-59.082,-35.156,32.227,-125.000
1692123098.873,17.578,-54.688,-33.691,31.250,-12.207
1692123098.877,8.789,-53.223,-28.809,19.043,-65.918
1692123098.881,3.906,-53.223,-25.391,22.461,-133.301
1692123098.885,14.160,-44.922,-25.879,35.156,119.629
1692123098.889,21.484,-38.574,-26.367,38.574,378.418
1692123098.892,19.531,-47.363,-31.738,20.996,142.578
1692123098.896,11.719,-46.875,-37.109,8.301,-164.551
1692123098.900,4.395,-38.086,-34.668,22.461,26.367
1692123098.904,12.695,-31.738,-27.832,34.180,244.629
1692123098.908,21.484,-31.738,-29.785,29.785,-55.176
1692123098.925,17.090,-41.016,-32.227,27.344,-178.711
1692123098.929,11.719,-39.551,-26.367,15.625,-137.207
1692123098.933,9.766,-35.645,-19.531,10.742,-119.141
1692123098.937,12.207,-39.551,-23.926,18.555,-140.625
1692123098.941,17.578,-32.227,-30.762,27.832,-114.746
1692123098.945,15.625,-32.227,-28.809,24.414,32.715
1692123098.949,12.207,-47.363,-32.227,6.348,49.805
1692123098.952,7.812,-40.527,-35.156,-2.930,-93.750
1692123098.956,11.230,-31.738,-32.715,3.418,-159.668
1692123098.960,20.020,-28.809,-26.855,15.137,91.797
1692123098.964,15.625,-21.973,-26.855,7.324,72.266
1692123098.968,9.766,-26.855,-32.227,-8.789,-161.133
1692123098.971,4.883,-39.062,-36.621,-3.418,-53.223
1692123098.975,5.371,-28.320,-31.738,15.625,3.418
1692123098.979,11.230,-17.578,-22.461,23.926,-56.641
1692123098.983,14.160,-43.457,-26.367,21.484,-116.699
1692123098.987,7.812,-55.664,-30.762,15.137,14.648
1692123098.991,-9.277,-46.875,-35.156,3.906,153.809
1692123098.995,-15.137,-45.898,-34.668,2.441,20.508
1692123098.998,-12.695,-39.551,-30.273,3.906,-61.523
1692123099.002,-8.301,-32.715,-26.855,8.301,67.383
1692123099.006,-11.719,-37.109,-28.809,0.488,280.762
1692123099.010,-24.414,-44.434,-34.180,-20.508,0.000
1692123099.014,-21.484,-38.086,-29.785,-19.531,-222.168
1692123099.018,-8.789,-24.902,-28.809,-2.930,-116.211
1692123099.022,-4.395,-20.508,-34.668,-1.953,-69.336
1692123099.026,-12.207,-29.297,-33.203,-19.043,-96.680
1692123099.030,-21.973,-37.109,-30.273,-23.926,-126.953
1692123099.034,-17.090,-28.809,-28.809,-17.090,-46.875
1692123099.038,-7.324,-12.207,-21.484,-8.789,18.066
1692123099.042,-12.695,-27.832,-27.344,-13.672,28.320
1692123099.045,-14.648,-50.293,-35.645,-18.066,-79.590
1692123099.049,-19.531,-45.410,-32.715,-17.578,97.656
1692123099.053,-30.273,-40.527,-32.715,-26.855,240.234
1692123099.057,-15.625,-34.180,-25.391,-17.090,-124.023
1692123099.061,-6.836,-22.949,-19.043,0.000,-172.852
1692123099.060,-25.391,-23.926,-24.414,-13.184,-80.566
1692123099.064,-33.691,-40.039,-27.344,-28.809,-145.508
1692123099.068,-24.414,-43.945,-31.738,-24.902,-180.664
1692123099.072,-16.602,-33.691,-33.203,-17.578,-68.848
1692123099.076,-17.578,-37.109,-29.785,-14.648,80.566
1692123099.080,-17.578,-41.504,-32.715,-14.160,0.488
1692123099.084,-26.367,-38.086,-33.691,-20.508,-124.512
1692123099.087,-35.645,-39.551,-27.832,-20.996,73.242
1692123099.091,-28.809,-39.551,-23.438,-4.395,462.891
1692123099.095,-23.438,-31.738,-30.273,-8.789,301.270
1692123099.099,-24.902,-27.832,-39.062,-30.762,-126.465
1692123099.103,-37.109,-33.203,-37.598,-41.504,-166.992
1692123099.106,-44.922,-34.668,-36.621,-48.340,-176.758
1692123099.110,-38.086,-31.250,-36.621,-37.109,-181.641
1692123099.114,-22.461,-34.668,-35.645,-33.691,-80.078
1692123099.118,-18.066,-31.738,-34.668,-39.551,-45.898
1692123099.122,-31.738,-35.645,-35.645,-45.898,-78.125
1692123099.126,-33.203,-55.176,-37.109,-48.340,-73.242
1692123099.130,-25.879,-48.828,-35.156,-38.086,-117.676
1692123099.133,-25.879,-29.785,-39.062,-33.691,251.953
1692123099.137,-26.367,-14.648,-37.109,-41.992,399.414
1692123099.141,-32.227,-10.742,-34.180,-52.246,-86.914
1692123099.145,-43.457,-25.879,-35.156,-60.059,-156.250
1692123099.149,-42.480,-35.156,-35.156,-58.105,-71.777
1692123099.150,-34.180,-35.645,-36.133,-40.527,-125.000
1692123099.154,-32.227,-38.086,-31.738,-26.855,-137.207
1692123099.158,-34.180,-42.480,-23.926,-26.367,-94.727
1692123099.162,-33.691,-39.062,-23.438,-25.391,-62.500
1692123099.166,-33.691,-37.598,-28.809,-28.809,-75.684
1692123099.170,-25.879,-31.738,-30.762,-11.230,-16.113
1692123099.174,-22.949,-25.391,-31.250,4.395,142.578
1692123099.177,-33.203,-29.297,-33.203,-7.324,445.801
1692123099.181,-41.504,-37.109,-33.691,-20.996,238.281
1692123099.185,-38.574,-39.062,-37.109,-28.320,-124.512
1692123099.189,-28.320,-31.738,-38.574,-18.066,83.496
1692123099.193,-21.973,-29.297,-36.621,-16.602,86.426
1692123099.198,-28.320,-28.809,-30.762,-29.785,-151.367
1692123099.202,-37.598,-23.438,-26.367,-33.691,-228.027
1692123099.206,-40.527,-24.414,-31.738,-28.809,-116.211
1692123099.210,-38.086,-32.715,-34.180,-23.438,-56.152
1692123099.214,-23.926,-25.879,-31.250,-21.973,-158.203
1692123099.218,-17.090,-22.461,-25.391,-23.438,-113.770
1692123099.222,-24.902,-31.250,-25.391,-30.762,217.773
1692123099.225,-27.832,-21.484,-24.902,-34.668,160.156
1692123099.229,-20.020,-16.113,-23.926,-33.691,-168.457
1692123099.233,-11.230,-23.926,-25.879,-30.762,-112.305
1692123099.237,-21.484,-33.203,-31.738,-39.062,-94.727
1692123099.241,-35.156,-33.203,-34.668,-50.293,-163.086
1692123099.241,-34.180,-32.715,-29.785,-43.457,-132.812
1692123099.245,-27.344,-32.227,-32.227,-30.762,3.906
1692123099.249,-17.578,-24.414,-32.715,-20.020,61.035
1692123099.253,-20.508,-22.461,-27.832,-20.020,-77.637
1692123099.257,-32.715,-29.297,-30.762,-38.086,-137.695
1692123099.261,-44.434,-32.715,-33.691,-43.945,20.020
1692123099.265,-35.645,-20.508,-27.344,-24.902,446.777
1692123099.268,-18.555,-12.207,-22.461,-16.113,265.137
1692123099.272,-25.391,-22.461,-29.297,-30.273,-176.758
1692123099.276,-33.203,-30.762,-32.227,-36.621,-67.383
1692123099.280,-36.133,-36.133,-33.691,-34.668,-58.105
1692123099.284,-30.273,-32.715,-31.250,-31.250,-168.945
1692123099.300,-19.531,-26.367,-22.949,-19.043,-116.699
1692123099.304,-14.648,-36.621,-25.391,-16.113,-68.359
1692123099.308,-15.137,-36.621,-31.250,-27.344,-14.160
1692123099.312,-19.043,-26.367,-30.273,-36.621,-15.137
1692123099.316,-16.113,-20.508,-24.414,-37.598,-199.707
1692123099.320,-3.906,-10.742,-26.367,-24.902,105.957
1692123099.324,-8.301,-17.090,-30.762,-24.902,327.148
1692123099.327,-29.297,-33.203,-28.809,-30.762,-154.297
1692123099.331,-31.250,-31.738,-27.344,-35.645,-241.699
1692123099.335,-28.809,-27.344,-28.809,-34.668,-58.105
1692123099.339,-26.855,-26.855,-28.809,-23.926,-32.715
1692123099.343,-26.367,-21.973,-25.879,-20.508,-109.863
1692123099.345,-36.133,-34.668,-30.273,-29.297,-92.285
1692123099.349,-45.898,-39.062,-32.227,-40.527,-45.898
1692123099.353,-42.480,-29.785,-30.762,-40.039,-114.258
1692123099.357,-35.156,-32.715,-30.762,-28.809,-164.551
1692123099.361,-32.227,-22.461,-29.785,-13.184,28.320
1692123099.365,-28.809,-21.484,-31.250,-13.672,179.199
1692123099.369,-38.574,-44.434,-30.273,-34.180,55.176
1692123099.372,-48.340,-49.805,-33.691,-31.250,64.941
1692123099.376,-35.156,-35.156,-31.738,-5.371,162.598
1692123099.380,-35.156,-33.691,-28.809,2.441,437.012
1692123099.384,-37.109,-38.086,-26.855,-20.996,246.094
1692123099.388,-37.109,-38.574,-25.391,-32.227,-117.676
1692123099.391,-46.387,-37.109,-26.367,-30.762,-93.750
1692123099.395,-39.551,-34.180,-29.785,-28.320,-79.590
1692123099.399,-29.297,-38.574,-33.691,-24.902,-133.301
1692123099.403,-26.855,-35.645,-27.832,-19.531,-123.047
1692123099.407,-32.227,-32.715,-27.344,-23.926,-66.406
1692123099.411,-32.715,-31.250,-41.016,-28.809,-46.387
1692123099.415,-8.301,-23.438,-48.828,-7.324,35.645
1692123099.418,-4.395,-43.457,-37.598,-2.441,15.625
1692123099.422,-37.109,-54.688,-21.484,-29.297,257.324
1692123099.426,-44.434,-38.574,-19.043,-40.039,305.176
1692123099.430,-40.527,-37.598,-26.367,-41.992,-144.043
1692123099.434,-42.969,-40.527,-34.668,-44.434,-169.922
1692123099.435,-28.320,-35.156,-33.691,-32.227,-60.547
1692123099.439,-26.367,-35.645,-25.879,-26.367,-114.258
1692123099.443,-34.180,-32.227,-22.949,-39.062,-163.574
1692123099.447,-30.762,-35.156,-27.832,-36.133,-112.305
1692123099.451,-22.461,-41.992,-28.320,-20.996,-51.758
1692123099.455,-25.391,-32.715,-32.227,-20.996,2.441
1692123099.459,-24.902,-25.391,-32.227,-17.578,16.113
1692123099.462,-33.203,-29.785,-25.879,-21.484,79.590
1692123099.466,-44.922,-28.320,-28.320,-24.414,357.422
1692123099.470,-40.039,-24.414,-30.762,-18.555,150.879
1692123099.474,-32.715,-26.855,-30.273,-16.602,-180.664
1692123099.478,-27.832,-32.715,-33.691,-14.160,-37.598
1692123099.481,-29.785,-30.273,-28.809,-17.578,-28.320
1692123099.485,-30.762,-10.742,-19.531,-26.367,-215.332
1692123099.489,-28.320,-18.555,-20.996,-25.391,-178.223
1692123099.493,-31.738,-36.621,-26.855,-23.926,-28.320
1692123099.497,-33.691,-36.133,-33.203,-26.367,-41.504
1692123099.501,-30.762,-26.855,-30.762,-27.832,-51.758
1692123099.505,-27.344,-11.230,-26.367,-22.949,84.961
1692123099.508,-35.645,-20.996,-29.297,-18.066,170.898
1692123099.512,-32.227,-32.227,-35.645,-20.508,17.578
1692123099.516,-28.320,-32.227,-37.598,-20.508,-135.742
1692123099.520,-31.250,-27.344,-31.738,-20.996,-111.816
1692123099.524,-28.809,-22.461,-34.180,-27.344,14.160
1692123099.526,-28.809,-31.250,-36.621,-33.691,40.039
1692123099.530,-23.438,-33.691,-37.109,-24.902,-24.902
1692123099.534,-16.602,-25.391,-40.039,-16.602,9.766
1692123099.538,-15.137,-29.297,-38.086,-20.020,26.367
1692123099.542,-26.855,-34.668,-29.785,-33.203,-77.148
1692123099.546,-27.344,-31.738,-24.902,-42.969,-142.578
1692123099.550,-15.137,-28.320,-24.414,-28.809,-11.719
1692123099.553,-20.508,-34.180,-25.879,-17.578,432.617
1692123099.557,-27.344,-42.480,-25.391,-29.297,239.746
1692123099.561,-31.250,-35.645,-27.832,-44.922,-202.148
1692123099.565,-38.574,-35.645,-31.738,-40.039,-151.855
1692123099.569,-32.227,-35.156,-31.250,-29.297,-118.164
1692123099.571,-21.973,-26.855,-31.250,-24.414,-124.023
1692123099.575,-30.762,-28.320,-38.574,-33.203,-113.281
1692123099.579,-40.039,-33.691,-43.945,-44.922,-120.117
1692123099.583,-34.180,-32.227,-39.062,-31.250,-69.824
1692123099.587,-25.879,-26.367,-35.156,-19.043,-67.383
1692123099.591,-20.996,-24.902,-35.156,-24.902,-74.707
1692123099.595,-26.855,-26.367,-32.715,-22.461,187.988
1692123099.598,-34.180,-22.461,-30.762,-19.531,289.551
1692123099.602,-36.133,-20.508,-35.156,-25.391,-83.496
1692123099.606,-41.992,-30.762,-41.504,-30.762,-206.543
1692123099.610,-41.504,-39.551,-36.133,-25.879,-110.352
1692123099.614,-28.809,-33.203,-30.273,-22.461,-101.074
1692123099.615,-34.668,-31.250,-32.227,-34.180,-137.695
1692123099.619,-42.969,-38.574,-31.250,-41.016,-110.840
1692123099.623,-27.832,-25.879,-35.156,-30.762,-31.738
1692123099.627,-28.320,-29.297,-36.133,-23.438,-57.129
1692123099.631,-29.297,-37.598,-24.414,-16.602,-104.980
1692123099.635,-28.320,-34.668,-24.902,-15.137,82.031
1692123099.639,-31.738,-36.621,-31.250,-20.020,350.098
1692123099.642,-37.109,-41.016,-31.738,-24.414,184.570
1692123099.646,-28.809,-41.016,-32.227,-25.391,-81.543
1692123099.650,-17.090,-32.227,-29.785,-25.391,-19.043
1692123099.654,-26.855,-18.066,-30.273,-33.691,125.488
1692123099.658,-40.039,-25.391,-39.551,-48.340,-98.145
1692123099.675,-41.016,-45.898,-43.945,-49.805,-186.035
1692123099.679,-34.668,-42.480,-38.574,-42.969,-104.980
1692123099.683,-29.785,-35.645,-35.156,-36.621,-116.699
1692123099.687,-30.273,-32.715,-30.762,-39.551,-171.875
1692123099.691,-39.551,-33.203,-28.320,-51.270,-154.785
1692123099.695,-40.039,-39.551,-30.273,-40.039,12.207
1692123099.699,-31.738,-38.086,-31.250,-25.391,51.270
1692123099.702,-36.133,-41.016,-34.668,-29.785,-7.324
1692123099.706,-40.527,-35.645,-28.320,-31.250,-98.633
1692123099.710,-34.180,-23.926,-22.461,-22.461,114.746
1692123099.714,-38.574,-28.320,-26.855,-21.484,256.836
1692123099.718,-37.109,-23.438,-35.156,-24.414,-39.062
1692123099.720,-26.855,-20.996,-37.109,-25.391,-115.723
1692123099.724,-30.762,-29.297,-25.879,-31.738,-10.254
1692123099.728,-47.363,-31.250,-20.996,-45.410,-59.082
1692123099.732,-50.293,-33.203,-22.461,-43.457,-168.945
1692123099.736,-39.062,-34.668,-20.996,-33.203,1.953
1692123099.740,-30.273,-39.062,-21.484,-28.320,123.047
1692123099.744,-16.113,-34.180,-25.879,-27.832,-102.539
1692123099.747,-19.531,-23.438,-28.809,-34.180,-256.836
1692123099.751,-34.668,-29.785,-30.273,-36.621,-126.953
1692123099.755,-33.691,-34.668,-31.250,-21.973,225.586
1692123099.759,-13.672,-20.996,-20.020,-4.883,98.145
1692123099.763,-17.090,-20.508,-19.531,-14.648,-183.594
1692123099.766,-34.668,-25.879,-26.855,-29.297,-56.641
1692123099.770,-36.133,-27.344,-25.391,-23.438,-58.594
1692123099.774,-35.645,-31.250,-27.344,-27.344,-254.883
1692123099.778,-29.297,-26.855,-24.414,-31.250,-208.008
1692123099.782,-24.414,-24.414,-19.043,-28.320,-146.973
1692123099.786,-35.156,-40.039,-23.926,-42.480,-90.332
1692123099.790,-45.898,-46.387,-29.297,-45.898,-64.453
1692123099.793,-32.715,-24.902,-18.555,-27.344,-182.129
1692123099.797,-27.832,-19.043,-17.090,-19.043,92.285
1692123099.801,-39.551,-34.180,-31.738,-28.809,187.988
1692123099.805,-41.504,-38.086,-23.438,-37.109,-135.254
1692123099.809,-46.875,-31.250,-14.648,-44.922,-137.695
1692123099.811,-47.363,-28.320,-16.113,-41.992,8.301
1692123099.815,-36.133,-35.156,-16.602,-22.461,53.223
1692123099.819,-36.133,-46.875,-23.926,-30.273,-66.406
1692123099.823,-46.387,-37.598,-31.250,-42.969,-41.016
1692123099.827,-44.434,-30.762,-38.086,-36.133,64.941
1692123099.831,-35.645,-37.109,-35.156,-29.297,-68.359
1692123099.835,-30.273,-32.227,-19.043,-21.484,-147.461
1692123099.838,-26.367,-32.227,-20.508,-19.531,2.930
1692123099.842,-27.344,-35.156,-35.156,-28.809,341.797
1692123099.846,-37.109,-29.297,-40.527,-43.457,142.578
1692123099.850,-38.574,-36.133,-39.551,-41.016,-235.352
1692123099.854,-28.809,-48.828,-39.551,-25.879,-153.320
1692123099.856,-27.344,-37.598,-40.527,-22.949,-131.836
1692123099.860,-29.297,-36.133,-40.527,-30.273,-193.848
1692123099.864,-27.832,-41.016,-36.133,-29.297,-185.059
1692123099.868,-25.391,-34.668,-31.250,-19.043,-63.477
1692123099.872,-22.949,-35.156,-36.621,-27.832,-43.945
1692123099.876,-20.508,-39.551,-41.016,-40.039,-14.160
1692123099.880,-22.461,-33.203,-32.227,-37.109,-36.621
1692123099.883,-28.809,-25.879,-26.367,-27.832,107.422
1692123099.887,-32.227,-20.020,-22.949,-30.762,213.379
1692123099.891,-26.367,-14.160,-26.855,-36.621,-150.391
1692123099.895,-19.043,-33.691,-32.715,-32.715,-189.453
1692123099.899,-14.160,-32.227,-24.902,-29.297,-128.906
1692123099.900,-20.996,-14.648,-23.926,-36.133,-166.504
1692123099.904,-37.598,-30.762,-35.156,-42.969,-154.297
1692123099.908,-26.367,-32.715,-41.504,-36.621,-76.660
1692123099.912,-3.418,-25.879,-34.180,-17.578,-0.488
1692123099.916,-19.043,-28.809,-19.043,-20.996,-36.621
1692123099.920,-41.504,-26.367,-16.602,-43.457,-129.883
1692123099.924,-41.016,-37.109,-20.996,-35.645,8.789
1692123099.927,-42.480,-48.340,-31.250,-18.555,428.223
1692123099.931,-39.551,-48.340,-35.645,-18.555,302.246
1692123099.935,-35.156,-37.598,-25.879,-28.809,-135.742
1692123099.939,-38.086,-32.227,-24.414,-41.016,-37.109
1692123099.943,-49.316,-34.668,-30.273,-39.062,-13.184
1692123099.946,-49.316,-31.738,-36.621,-34.180,-210.449
1692123099.950,-36.621,-33.203,-33.203,-21.484,-182.617
1692123099.954,-29.785,-37.598,-25.391,-13.672,-90.820
1692123099.958,-31.250,-43.457,-30.273,-29.297,-91.797
1692123099.962,-44.922,-39.062,-38.086,-44.922,-137.207
1692123099.966,-44.922,-38.574,-33.691,-37.598,-66.895
1692123099.970,-30.762,-33.203,-31.738,-23.926,325.684
1692123099.973,-20.508,-19.043,-27.344,-26.367,261.719
1692123099.977,-31.250,-28.320,-30.273,-34.668,-157.227
1692123099.981,-44.434,-41.504,-38.086,-36.621,-117.676
1692123099.985,-35.156,-32.227,-35.645,-27.344,10.254
1692123099.989,-21.973,-19.531,-30.273,-27.832,-69.824
1692123099.990,-27.344,-27.344,-29.297,-45.410,-173.340
1692123099.994,-32.227,-39.551,-33.691,-45.410,-118.652
1692123099.998,-30.762,-36.621,-39.551,-41.504,-71.289
1692123100.002,-29.785,-23.438,-38.086,-41.992,-71.777
1692123100.006,-20.020,-15.625,-32.227,-34.180,-86.914
1692123100.010,-13.672,-21.973,-36.621,-28.320,83.984
1692123100.014,-30.273,-38.086,-37.109,-34.180,342.285
1692123100.017,-37.109,-41.016,-33.203,-44.922,108.887
1692123100.021,-26.367,-31.250,-29.297,-34.180,-217.285
1692123100.025,-19.043,-25.879,-24.902,-17.578,-53.711
1692123100.029,-17.578,-21.484,-28.320,-14.648,103.027
1692123100.033,-15.625,-22.461,-32.715,-25.879,-81.543
1692123100.050,-23.438,-20.508,-35.156,-41.504,-167.969
1692123100.054,-34.668,-17.578,-31.738,-43.457,-30.762
1692123100.058,-28.809,-20.020,-30.273,-36.621,9.766
1692123100.062,-30.273,-34.180,-35.156,-30.762,-118.164
1692123100.066,-33.203,-44.434,-31.738,-30.273,-51.270
1692123100.070,-33.691,-35.645,-30.273,-32.715,97.168
1692123100.074,-40.039,-27.832,-26.367,-33.203,20.020
1692123100.077,-34.180,-22.949,-23.438,-25.879,-128.418
1692123100.081,-25.879,-29.297,-33.691,-20.996,-137.695
1692123100.085,-25.879,-33.203,-39.551,-21.484,92.773
1692123100.089,-28.320,-16.113,-26.855,-24.414,77.148
1692123100.093,-35.645,-31.738,-23.438,-29.297,-102.539
1692123100.096,-41.016,-52.734,-33.691,-20.508,-8.301
1692123100.100,-32.715,-35.645,-32.227,-13.184,111.328
1692123100.104,-26.367,-27.344,-26.855,-22.461,64.453
1692123100.108,-32.715,-29.297,-27.832,-34.668,-75.195
1692123100.112,-40.039,-24.902,-29.785,-31.738,-14.160
1692123100.116,-41.992,-27.344,-30.762,-21.973,260.254
1692123100.120,-29.297,-20.996,-27.832,-17.578,182.129
1692123100.123,-22.461,-28.809,-28.320,-28.320,-45.898
1692123100.127,-32.227,-45.898,-31.738,-39.062,22.949
1692123100.131,-40.527,-37.598,-28.809,-34.668,165.039
1692123100.135,-45.410,-26.855,-26.367,-36.133,-55.176
1692123100.139,-33.203,-16.113,-26.367,-39.551,-135.254
1692123100.141,-30.762,-26.367,-36.133,-41.992,-67.871
1692123100.145,-41.992,-38.086,-37.598,-50.293,-97.656
1692123100.149,-39.551,-32.227,-35.645,-56.152,-162.598
1692123100.153,-33.691,-29.785,-33.691,-48.828,-108.398
1692123100.157,-39.551,-37.109,-22.461,-40.527,86.426
1692123100.161,-38.574,-46.875,-20.508,-34.180,59.082
1692123100.165,-28.320,-46.875,-20.508,-33.203,11.230
1692123100.168,-37.598,-47.852,-20.508,-47.852,-59.570
1692123100.172,-34.668,-38.086,-21.973,-35.156,169.434
1692123100.176,-23.438,-24.414,-24.902,-15.137,335.938
1692123100.180,-18.066,-14.160,-28.320,-18.555,-82.031
1692123100.184,-24.414,-18.066,-31.738,-30.762,-141.602
1692123100.185,-40.039,-22.461,-32.715,-37.109,-35.645
1692123100.189,-51.270,-22.461,-29.785,-31.250,-77.148
1692123100.193,-45.898,-39.551,-28.320,-23.926,-93.750
1692123100.197,-31.738,-42.969,-20.996,-22.461,-50.781
1692123100.201,-44.434,-41.992,-24.902,-30.273,43.945
1692123100.205,-63.477,-43.457,-35.645,-38.574,44.434
1692123100.209,-58.105,-28.320,-28.809,-35.645,-85.938
1692123100.212,-45.410,-24.414,-22.949,-23.438,24.902
1692123100.216,-35.156,-26.855,-23.926,-13.184,438.477
1692123100.220,-30.762,-22.949,-27.344,-13.672,303.223
1692123100.224,-32.227,-26.367,-23.438,-15.625,-174.316
1692123100.228,-30.762,-27.832,-20.996,-18.066,-214.355
1692123100.231,-22.461,-33.203,-29.297,-18.066,-139.160
1692123100.235,-16.113,-29.297,-30.273,-5.859,-140.137
1692123100.239,-18.555,-27.344,-33.203,-10.254,-151.367
1692123100.243,-26.855,-21.973,-39.551,-34.180,-141.602
1692123100.247,-25.391,-16.602,-36.133,-36.621,-133.789
1692123100.251,-13.672,-15.137,-30.273,-11.719,-4.883
1692123100.255,-13.184,-12.695,-26.855,-10.742,-4.395
1692123100.258,-16.113,-35.156,-27.832,-25.879,158.691
1692123100.262,-21.484,-43.945,-37.109,-36.133,209.961
1692123100.266,-29.785,-33.691,-37.109,-40.527,-162.598
1692123100.270,-23.438,-22.949,-30.762,-31.250,-179.199
1692123100.274,-13.672,-7.812,-35.156,-20.020,-17.578
1692123100.275,-24.414,-13.184,-39.551,-26.367,-52.246
1692123100.279,-33.203,-27.344,-38.574,-39.551,-145.508
1692123100.283,-39.551,-25.879,-35.645,-39.551,-68.359
1692123100.287,-38.574,-30.762,-38.574,-21.973,-65.918
1692123100.291,-24.902,-31.250,-35.645,-8.789,-26.855
1692123100.295,-27.344,-33.691,-38.086,-24.902,55.664
1692123100.299,-32.227,-31.738,-41.992,-43.457,22.461
1692123100.302,-27.344,-27.832,-28.809,-35.156,341.309
1692123100.306,-18.066,-16.113,-27.832,-29.785,286.621
1692123100.310,-3.906,-0.488,-22.949,-24.902,-105.957
1692123100.314,-2.930,-14.160,-21.973,-19.043,-97.656
1692123100.318,-8.789,-19.043,-25.391,-22.461,-22.461
1692123100.323,-20.508,-17.090,-25.879,-39.551,-94.238
1692123100.327,-25.879,-25.391,-30.762,-41.992,-187.012
1692123100.331,-14.648,-26.855,-27.832,-19.531,-0.977
1692123100.335,-15.137,-29.785,-24.902,-16.113,76.172
1692123100.339,-26.367,-36.621,-30.762,-30.273,-96.680
1692123100.343,-41.504,-39.551,-36.621,-44.922,-160.645
1692123100.347,-33.691,-25.879,-29.297,-26.855,231.445
1692123100.350,-23.438,-27.832,-26.855,-11.230,320.801
1692123100.354,-27.344,-40.527,-33.203,-25.391,-120.605
1692123100.358,-21.973,-32.715,-31.738,-23.438,-143.066
1692123100.362,-24.414,-30.762,-31.250,-20.508,-56.152
1692123100.366,-30.273,-40.039,-25.391,-25.391,-74.707
1692123100.366,-20.996,-37.598,-20.020,-15.137,-78.125
1692123100.370,-16.602,-27.344,-21.973,-8.789,-20.996
1692123100.374,-22.461,-19.531,-22.461,-9.277,7.812
1692123100.378,-20.996,-12.695,-22.461,-9.277,-78.125
1692123100.382,-31.250,-13.672,-24.902,-17.090,-123.047
1692123100.386,-32.715,-37.598,-29.297,-10.254,-49.316
1692123100.390,-20.020,-49.316,-24.414,-1.465,364.746
1692123100.393,-24.414,-29.297,-20.020,-18.555,387.695
1692123100.397,-34.180,-22.461,-12.695,-35.156,-131.836
1692123100.401,-38.086,-26.855,-17.090,-20.508,-180.664
1692123100.405,-31.738,16.113,-7.812,-12.207,-109.863
1692123100.409,-25.879,24.414,-6.836,-29.785,-173.828
1692123100.425,-40.039,-63.477,-43.457,-40.527,-148.926
1692123100.429,-55.176,-95.703,-55.664,-49.805,-131.348
1692123100.433,-53.711,-70.801,-50.293,-47.852,-151.855
1692123100.437,-46.387,-68.848,-48.340,-33.203,-153.809
1692123100.441,-38.574,-55.176,-34.180,-25.391,-47.363
1692123100.445,-25.879,-20.996,-12.695,-10.742,211.914
1692123100.449,-28.809,-18.555,-6.348,-20.508,126.953
1692123100.452,-42.969,-40.527,-29.785,-49.316,-203.613
1692123100.456,-43.457,-40.527,-48.828,-45.410,-198.242
1692123100.460,-31.738,-40.039,-40.039,-29.785,109.375
1692123100.464,-32.227,-48.828,-33.203,-37.598,99.609
1692123100.468,-39.551,-44.922,-33.691,-40.527,-136.719
1692123100.470,-38.574,-42.480,-32.715,-35.156,-115.234
1692123100.474,-35.156,-40.527,-28.320,-31.250,-40.527
1692123100.478,-18.555,-33.691,-35.156,-17.578,-56.641
1692123100.482,4.883,-22.949,-39.062,-2.441,-142.090
1692123100.486,-17.578,-28.809,-29.297,-19.043,-9.766
1692123100.490,-45.898,-41.504,-25.391,-37.109,176.758
1692123100.494,-39.062,-32.715,-18.555,-28.320,53.223
1692123100.497,-29.297,-31.250,-18.066,-21.484,-41.016
1692123100.501,-37.109,-42.480,-28.320,-29.297,62.500
1692123100.505,-41.016,-37.598,-26.367,-37.109,358.398
1692123100.509,-42.969,-31.738,-24.414,-31.250,148.438
1692123100.513,-45.898,-39.551,-32.715,-42.480,-233.887
1692123100.516,-36.621,-44.434,-34.668,-48.340,-143.066
1692123100.520,-31.738,-30.762,-33.203,-35.645,-94.238
1692123100.524,-30.273,-25.879,-32.715,-36.133,-178.711
1692123100.528,-31.738,-33.203,-27.344,-36.133,-198.242
1692123100.532,-36.621,-28.809,-27.344,-32.227,-104.980
1692123100.536,-35.156,-16.602,-30.762,-29.785,18.555
1692123100.540,-20.508,-13.672,-29.785,-18.555,90.332
1692123100.543,-20.020,-28.320,-36.133,-26.855,-2.930
1692123100.547,-27.832,-38.086,-40.527,-37.598,126.465
1692123100.551,-25.879,-36.133,-38.574,-35.645,243.164
1692123100.555,-23.438,-27.344,-33.691,-38.574,-54.688
1692123100.559,-9.766,-22.949,-28.320,-35.156,-58.105
1692123100.560,-5.859,-24.414,-29.297,-39.551,23.926
1692123100.564,-10.254,-20.020,-29.297,-50.293,-126.953
1692123100.568,-11.719,-27.344,-23.926,-44.434,-230.469
1692123100.572,-21.484,-42.480,-27.832,-32.227,-126.465
1692123100.576,-22.949,-45.898,-26.855,-14.648,-6.836
1692123100.580,-27.832,-39.551,-23.926,-12.207,14.648
1692123100.584,-35.645,-40.527,-29.785,-29.785,-71.777
1692123100.587,-38.086,-39.551,-33.203,-34.180,31.738
1692123100.591,-39.062,-40.039,-36.621,-23.438,421.875
1692123100.595,-30.273,-44.434,-36.133,-17.578,246.094
1692123100.599,-20.020,-30.273,-32.227,-19.043,-177.734
1692123100.603,-23.438,-21.973,-25.391,-22.461,-95.215
1692123100.606,-28.809,-26.855,-23.438,-29.785,-80.078
1692123100.610,-35.645,-40.527,-31.738,-29.297,-205.566
1692123100.614,-27.832,-36.133,-30.273,-15.625,-184.570
1692123100.618,-26.855,-25.391,-26.367,-20.020,-59.082
1692123100.622,-41.016,-31.250,-30.273,-29.297,-38.086
1692123100.626,-43.457,-27.832,-37.109,-29.785,-139.648
1692123100.630,-45.410,-32.715,-43.457,-28.320,-90.820
1692123100.633,-36.621,-30.762,-38.086,-21.484,153.809
1692123100.637,-30.273,-22.949,-30.762,-25.391,179.199
1692123100.641,-36.621,-41.016,-33.203,-45.410,-134.766
1692123100.645,-36.133,-41.992,-31.738,-48.340,-169.922
1692123100.649,-31.738,-20.996,-28.320,-39.551,-89.844
1692123100.651,-29.297,-23.926,-32.227,-24.902,-92.773
1692123100.655,-29.785,-29.297,-31.250,-19.531,-139.160
1692123100.659,-34.180,-28.320,-27.832,-24.902,40.039
1692123100.663,-38.574,-33.691,-31.250,-36.133,111.328
1692123100.667,-39.062,-36.621,-36.133,-41.016,-96.680
1692123100.671,-33.203,-44.434,-28.320,-20.020,-86.914
1692123100.675,-28.809,-34.180,-20.508,-2.441,136.230
1692123100.678,-25.391,-24.414,-23.926,-8.301,465.820
1692123100.682,-29.297,-38.574,-24.902,-32.227,209.961
1692123100.686,-30.273,-31.738,-22.461,-25.391,-178.711
1692123100.690,-24.902,-23.438,-30.273,-10.254,-66.406
1692123100.694,-20.020,-33.691,-33.691,-8.789,-67.383
1692123100.696,-19.043,-33.691,-29.785,-11.719,-181.641
1692123100.700,-34.180,-43.945,-35.156,-34.180,-166.016
1692123100.704,-38.086,-52.246,-40.527,-43.457,-101.074
1692123100.708,-10.742,-16.113,-23.926,-10.254,-106.934
1692123100.712,2.930,8.789,-14.160,-2.441,-122.070
1692123100.716,-6.836,-25.391,-21.484,-20.996,-122.070
1692123100.720,-14.648,-38.574,-27.832,-26.367,266.602
1692123100.723,-25.879,-27.344,-36.621,-29.785,358.398
1692123100.727,-26.367,-34.180,-34.668,-32.227,-109.863
1692123100.731,-15.137,-42.480,-32.715,-20.996,-161.621
1692123100.735,-5.371,-15.625,-22.949,-12.695,-100.586
1692123100.739,-2.441,10.742,3.418,-10.254,-134.766
1692123100.740,-14.160,-21.973,-6.836,-16.113,-168.457
1692123100.744,-30.273,-71.289,-53.711,-26.855,-46.875
1692123100.748,-40.527,-66.406,-74.707,-33.203,0.977
1692123100.752,-36.133,-47.852,-57.617,-34.668,-69.336
1692123100.756,-32.227,-46.875,-38.574,-36.621,-84.961
1692123100.760,-30.762,-26.367,-24.902,-25.391,84.473
1692123100.764,-38.574,-17.578,-34.668,-24.414,441.895
1692123100.767,-36.133,-24.902,-39.551,-28.320,263.184
1692123100.771,-24.902,-25.391,-33.203,-26.855,0.000
1692123100.775,-29.785,-19.043,-40.527,-36.621,90.820
1692123100.779,-41.992,-19.043,-40.527,-48.828,95.215
1692123100.783,-39.062,-29.785,-41.992,-52.734,-125.488
1692123100.801,-21.484,-24.414,-43.945,-40.527,-165.039
1692123100.805,-14.648,-11.230,-36.621,-35.645,-6.836
1692123100.809,-16.113,-12.207,-29.785,-39.062,-24.902
1692123100.813,-30.273,-16.113,-29.297,-49.316,-172.852
1692123100.817,-39.551,-28.809,-37.598,-48.828,-173.340
1692123100.821,-38.086,-29.297,-40.527,-39.062,-25.879
1692123100.825,-40.527,-28.320,-37.598,-43.457,89.844
1692123100.828,-43.945,-31.738,-36.621,-45.410,-37.598
1692123100.832,-52.734,-31.738,-39.551,-48.340,-217.285
1692123100.836,-38.574,-17.090,-31.250,-26.367,108.887
1692123100.840,-21.484,3.418,-15.625,0.000,174.805
1692123100.844,-32.715,-19.531,-31.738,-22.949,-206.055
1692123100.845,-33.203,-47.363,-43.945,-38.086,-155.762
1692123100.849,-34.180,-40.039,-40.039,-41.016,-41.016
1692123100.853,-44.922,-37.109,-40.039,-39.551,-125.977
1692123100.857,-33.203,-37.598,-31.738,-20.508,-192.871
1692123100.861,-24.414,-30.273,-26.367,-11.719,-24.902
1692123100.865,-24.414,-14.160,-15.625,-12.695,120.117
1692123100.869,-26.855,-1.953,-14.648,-12.207,4.883
1692123100.872,-40.039,-24.902,-34.668,-29.297,-60.547
1692123100.876,-39.551,-47.363,-32.227,-32.227,36.621
1692123100.880,-39.062,-41.016,-30.273,-14.160,342.285
1692123100.884,-42.969,-41.016,-40.039,-21.973,162.598
1692123100.888,-34.668,-35.156,-32.715,-27.344,-194.336
1692123100.893,-32.715,-22.461,-28.809,-27.832,-15.137
1692123100.897,-25.879,-9.277,-21.484,-27.832,10.254
1692123100.901,-25.391,-18.555,-23.926,-29.785,-119.629
1692123100.905,-39.551,-36.133,-38.086,-46.387,-137.695
1692123100.909,-47.363,-35.645,-42.480,-57.129,-96.680
1692123100.913,-49.316,-38.086,-43.945,-49.805,22.949
1692123100.917,-42.480,-34.180,-38.086,-33.691,33.691
1692123100.920,-30.762,-31.738,-32.715,-26.367,-112.305
1692123100.924,-22.949,-29.785,-31.250,-26.855,105.957
1692123100.928,-31.738,-17.578,-37.109,-34.180,184.082
1692123100.932,-36.621,-21.973,-41.016,-35.156,-192.383
1692123100.936,-25.879,-38.086,-36.133,-20.508,-192.871
1692123100.935,-29.297,-41.992,-29.785,-20.996,-33.691
1692123100.939,-41.992,-43.457,-27.344,-29.785,-71.289
1692123100.943,-49.805,-35.156,-27.832,-31.738,-143.555
1692123100.947,-50.293,-26.855,-31.250,-32.227,-37.598
1692123100.951,-46.387,-45.410,-37.109,-32.227,113.281
1692123100.955,-34.180,-50.293,-39.062,-29.785,0.977
1692123100.959,-29.785,-42.480,-32.227,-30.762,-82.520
1692123100.962,-31.738,-38.086,-26.367,-36.621,40.039
1692123100.966,-30.762,-29.785,-29.297,-27.344,312.988
1692123100.970,-32.715,-30.273,-29.297,-26.855,290.039
1692123100.974,-26.855,-26.367,-30.762,-26.855,-54.688
1692123100.978,-20.020,-28.320,-33.691,-19.043,2.441
1692123100.981,-20.508,-33.691,-36.621,-28.809,31.250
1692123100.985,-22.949,-29.297,-34.180,-32.227,-158.691
1692123100.989,-30.273,-44.922,-33.691,-19.531,-222.656
1692123100.993,-27.832,-51.758,-40.527,-18.555,-153.809
1692123100.997,-20.020,-40.039,-30.762,-17.090,-102.539
1692123101.001,-27.832,-38.574,-33.691,-22.461,-35.156
1692123101.005,-46.387,-42.480,-43.945,-41.504,-57.617
1692123101.008,-44.434,-40.039,-37.598,-31.250,186.523
1692123101.012,-24.902,-24.902,-29.297,-17.090,343.750
1692123101.016,-24.414,-26.855,-22.949,-33.203,-42.969
1692123101.020,-31.738,-43.945,-24.902,-41.016,-187.500
1692123101.024,-32.715,-44.922,-29.785,-37.598,-160.645
1692123101.025,-36.621,-33.203,-29.785,-42.480,-199.219
1692123101.029,-32.227,-27.832,-23.438,-35.645,-185.547
1692123101.033,-23.926,-28.809,-15.625,-20.996,-63.965
1692123101.037,-23.438,-24.414,-18.555,-28.809,-50.781
1692123101.041,-36.133,-17.578,-31.250,-41.504,-44.434
1692123101.045,-39.551,-19.043,-35.156,-39.062,6.836
1692123101.049,-31.250,-33.691,-34.668,-36.133,103.027
1692123101.052,-31.250,-47.363,-32.227,-27.344,426.758
1692123101.056,-30.762,-43.945,-30.273,-30.273,283.691
1692123101.060,-36.133,-27.832,-27.832,-44.922,-202.148
1692123101.064,-41.504,-16.602,-28.809,-39.551,-181.641
1692123101.068,-40.039,-14.160,-28.809,-31.738,-123.535
1692123101.071,-30.273,-22.949,-29.785,-25.879,-187.012
1692123101.075,-26.855,-28.809,-30.762,-29.297,-178.223
1692123101.079,-32.227,-29.297,-33.203,-34.668,-139.648
1692123101.083,-36.133,-36.621,-28.320,-28.320,-98.145
1692123101.087,-26.367,-30.273,-21.973,-14.160,-93.750
1692123101.091,-8.301,-14.648,-20.020,-2.441,-39.551
1692123101.095,-6.348,-16.113,-20.508,-4.395,283.691
1692123101.098,-21.973,-16.602,-23.926,-24.414,260.254
1692123101.102,-34.668,-19.043,-27.832,-43.945,-169.922
1692123101.106,-29.785,-33.203,-37.109,-32.715,-175.293
1692123101.110,-23.926,-38.574,-41.992,-16.602,-45.410
1692123101.114,-25.391,-36.621,-40.527,-18.066,-67.871
1692123101.115,-31.738,-30.273,-37.109,-34.180,-191.895
1692123101.119,-30.273,-16.113,-26.367,-38.086,-164.551
1692123101.123,-21.484,-24.414,-21.484,-27.832,-81.543
1692123101.127,-21.973,-43.457,-34.180,-22.461,-111.816
1692123101.131,-30.273,-28.809,-37.598,-19.043,-103.027
1692123101.135,-31.250,-20.996,-35.156,-21.973,83.008
1692123101.139,-27.344,-28.320,-28.320,-28.320,422.852
1692123101.142,-36.133,-40.527,-23.926,-35.645,207.031
1692123101.146,-41.016,-46.875,-38.086,-33.691,-178.223
1692123101.150,-36.621,-41.016,-41.504,-40.039,-12.207
1692123101.154,-41.992,-37.109,-40.039,-52.734,-8.301
1692123101.158,-48.828,-36.133,-40.039,-56.641,-233.887
1692123101.163,-50.781,-46.875,-39.551,-50.293,-145.020
1692123101.167,-37.109,-33.203,-35.156,-31.738,52.246
1692123101.171,-25.879,-16.113,-29.297,-29.297,26.855
1692123101.175,-36.133,-31.250,-32.227,-34.668,-100.098
1692123101.179,-50.781,-56.641,-41.504,-39.062,-128.906
1692123101.183,-52.734,-52.246,-41.016,-42.969,-71.289
1692123101.187,-46.875,-36.133,-41.504,-47.852,26.367
1692123101.190,-47.852,-37.109,-52.734,-46.387,-10.742
1692123101.194,-49.316,-36.621,-51.270,-39.062,-99.121
1692123101.198,-47.363,-27.832,-33.691,-48.828,86.914
1692123101.202,-44.922,-22.461,-31.250,-51.758,90.820
1692123101.206,-41.016,-24.902,-44.922,-44.434,-158.203
1692123101.220,-25.391,-36.133,-42.969,-29.297,-45.410
1692123101.224,-17.090,-29.785,-28.320,-19.043,22.949
1692123101.228,-25.391,-23.926,-27.344,-25.879,-101.074
1692123101.232,-35.156,-38.574,-30.273,-34.180,-105.469
1692123101.236,-34.668,-42.480,-27.832,-29.785,-13.184
1692123101.240,-27.344,-35.645,-29.785,-20.020,365.234
1692123101.244,-31.250,-32.227,-33.203,-26.367,348.633
1692123101.247,-40.527,-36.621,-35.156,-44.434,-126.953
1692123101.251,-42.480,-41.992,-34.180,-45.410,-80.078
1692123101.255,-30.762,-31.738,-28.320,-24.414,53.223
1692123101.259,-19.043,-28.809,-22.949,-15.625,-141.113
1692123101.263,-21.973,-28.320,-28.320,-29.297,-199.707
1692123101.266,-30.273,-24.902,-34.180,-44.434,-150.391
1692123101.270,-37.109,-42.480,-33.691,-46.387,-119.141
1692123101.274,-34.668,-41.992,-35.645,-40.527,-145.020
1692123101.278,-26.367,-23.926,-36.621,-31.738,-103.516
1692123101.282,-27.344,-30.273,-35.156,-28.320,-30.762
1692123101.286,-27.832,-27.344,-21.973,-22.461,-53.223
1692123101.290,-25.879,-11.719,-19.531,-20.508,-12.207
1692123101.293,-28.320,-17.090,-31.738,-25.391,-49.316
1692123101.297,-26.855,-34.668,-38.574,-19.043,148.438
1692123101.301,-23.926,-30.762,-31.250,-21.484,329.102
1692123101.305,-28.809,-16.113,-26.855,-39.551,-44.922
1692123101.309,-40.039,-21.484,-33.203,-49.316,-165.039
1692123101.310,-42.480,-23.438,-30.762,-42.969,-115.723
1692123101.314,-44.922,-28.809,-33.203,-36.133,-121.582
1692123101.318,-44.434,-39.551,-36.133,-43.457,-133.301
1692123101.322,-40.039,-36.621,-27.832,-48.828,-58.105
1692123101.326,-37.598,-23.926,-21.973,-40.039,38.086
1692123101.330,-33.203,-28.809,-28.809,-39.062,5.371
1692123101.334,-27.832,-33.691,-33.203,-31.738,-21.973
1692123101.337,-32.715,-29.785,-32.227,-29.297,42.969
1692123101.341,-37.109,-36.621,-33.203,-30.273,410.645
1692123101.345,-33.691,-35.645,-30.762,-32.715,361.328
1692123101.349,-30.273,-25.879,-23.926,-36.133,-90.820
1692123101.353,-29.785,-33.203,-28.320,-28.320,-113.281
1692123101.356,-18.066,-24.902,-33.691,-26.367,-94.238
1692123101.360,-16.113,-17.090,-31.250,-29.785,-136.719
1692123101.364,-26.855,-31.250,-29.297,-36.621,-181.152
1692123101.368,-33.203,-35.156,-36.621,-41.992,-163.086
1692123101.372,-30.273,-35.156,-44.434,-31.738,-92.285
1692123101.376,-23.438,-32.715,-36.621,-17.578,2.441
1692123101.380,-18.555,-14.648,-26.855,-21.973,0.488
1692123101.383,-24.902,-12.695,-24.902,-30.762,146.484
1692123101.387,-41.992,-39.551,-40.039,-50.293,167.969
1692123101.391,-34.668,-32.715,-42.480,-51.270,-168.945
1692123101.395,-29.297,-19.531,-30.762,-30.273,-126.953
1692123101.399,-28.320,-24.414,-31.250,-32.715,61.035
1692123101.399,-27.832,-35.156,-34.180,-53.711,-61.523
1692123101.403,-41.504,-38.574,-35.156,-61.523,-188.477
1692123101.407,-42.480,-34.668,-30.273,-40.039,-142.578
1692123101.411,-40.039,-35.645,-25.391,-30.762,-86.426
1692123101.415,-40.039,-23.926,-24.902,-41.016,-26.855
1692123101.419,-47.363,-27.344,-28.809,-45.410,-18.555
1692123101.423,-43.945,-31.738,-31.250,-38.574,26.367
1692123101.426,-34.180,-24.902,-26.367,-28.320,395.020
1692123101.430,-30.273,-30.273,-28.320,-30.762,310.547
1692123101.434,-22.949,-27.344,-33.691,-35.645,-143.066
1692123101.438,-16.602,-29.297,-26.367,-31.250,-171.875
1692123101.442,-24.902,-24.902,-20.996,-42.969,-187.500
1692123101.448,-31.250,-19.043,-32.227,-43.945,-187.988
1692123101.452,-15.625,-34.668,-36.133,-27.832,-95.215
1692123101.456,-9.766,-43.457,-31.250,-19.531,2.930
1692123101.460,-23.926,-47.363,-35.645,-32.715,-67.871
1692123101.464,-31.738,-46.387,-36.133,-41.992,-183.594
1692123101.468,-21.484,-41.504,-22.949,-20.996,-89.844
1692123101.472,-6.836,-25.391,-16.602,-4.395,233.398
1692123101.475,-16.113,-26.367,-30.762,-17.090,256.836
1692123101.479,-29.785,-46.387,-39.062,-28.320,-131.836
1692123101.483,-30.762,-38.574,-31.250,-24.414,-182.617
1692123101.487,-31.738,-32.715,-27.344,-18.555,-47.852
1692123101.491,-27.344,-37.598,-27.344,-11.719,-28.809
1692123101.490,-18.555,-36.621,-32.227,-19.531,-89.844
1692123101.494,-21.973,-25.879,-31.738,-32.227,-82.031
1692123101.498,-35.645,-18.555,-27.344,-37.598,-113.770
1692123101.502,-35.645,-20.508,-17.578,-27.344,-138.672
1692123101.506,-32.227,-22.949,-24.902,-25.879,-51.758
1692123101.510,-31.250,-39.551,-38.086,-32.227,23.926
1692123101.514,-26.367,-51.758,-36.133,-39.062,424.805
1692123101.517,-27.832,-46.387,-33.691,-50.781,423.828
1692123101.521,-39.062,-43.945,-30.273,-46.875,-119.629
1692123101.525,-37.598,-41.016,-30.762,-32.715,-131.836
1692123101.529,-21.484,-35.156,-25.879,-24.902,-42.480
1692123101.533,-20.020,-26.367,-25.391,-28.320,-166.992
1692123101.550,-29.785,-17.090,-25.391,-37.598,-205.566
1692123101.554,-44.922,-30.273,-29.785,-42.480,-151.855
1692123101.558,-44.922,-62.500,-31.250,-27.832,-89.844
1692123101.562,-8.789,-56.152,-19.531,-0.977,-67.871
1692123101.566,1.465,-20.996,-31.250,-10.254,-115.723
1692123101.570,-29.297,-19.043,-42.480,-45.898,-15.625
1692123101.574,-41.504,-22.949,-41.992,-50.781,28.809
1692123101.577,-32.227,-14.648,-45.898,-38.574,-51.758
1692123101.581,-15.137,-9.277,-42.480,-27.344,-116.211
1692123101.585,-8.301,-14.160,-45.898,-22.461,146.973
1692123101.589,-13.672,-13.184,-47.852,-29.297,208.496
1692123101.593,-18.555,-2.441,-40.527,-39.062,-143.555
1692123101.595,-20.020,-15.625,-41.504,-38.574,-109.375
1692123101.599,-15.625,-36.621,-38.574,-24.902,-31.738
1692123101.603,-15.625,-37.598,-41.504,-22.949,-98.633
1692123101.607,-24.414,-24.414,-41.992,-43.457,-163.574
1692123101.611,-33.691,-18.555,-39.551,-48.828,-22.949
1692123101.615,-35.645,-26.367,-39.062,-36.133,124.023
1692123101.619,-31.738,-36.621,-40.527,-41.992,66.406
1692123101.622,-31.738,-45.898,-44.922,-42.969,12.207
1692123101.626,-38.574,-47.363,-44.434,-37.109,105.957
1692123101.630,-41.992,-37.598,-40.039,-39.551,411.133
1692123101.634,-28.809,-27.344,-29.297,-32.227,211.426
1692123101.638,-23.926,-33.203,-25.879,-22.461,-132.812
1692123101.641,-29.297,-24.414,-38.574,-26.367,-57.617
1692123101.645,-30.762,-18.066,-34.668,-28.809,-65.918
1692123101.649,-28.809,-33.691,-19.531,-23.438,-176.758
1692123101.653,-34.668,-44.922,-20.020,-20.996,-178.223
1692123101.657,-33.203,-44.922,-32.715,-31.250,-120.117
1692123101.661,-24.902,-43.457,-40.039,-35.645,39.551
1692123101.665,-28.809,-42.480,-36.621,-25.879,18.066
1692123101.668,-27.344,-33.203,-30.273,-23.438,-174.805
1692123101.672,-25.879,-30.273,-25.879,-21.484,81.055
1692123101.676,-20.508,-34.668,-25.879,-7.812,190.430
1692123101.680,-11.230,-39.062,-26.367,-1.953,-76.172
1692123101.684,-18.066,-42.480,-27.344,-11.719,-76.172
1692123101.685,-28.809,-39.551,-35.645,-28.320,-65.430
1692123101.689,-25.391,-30.273,-40.039,-28.809,-130.859
1692123101.693,-24.414,-29.785,-36.621,-17.578,-169.434
1692123101.697,-15.625,-28.809,-30.762,-15.625,-89.844
1692123101.701,-17.578,-25.879,-25.879,-24.902,44.922
1692123101.705,-35.645,-44.922,-30.273,-30.273,48.828
1692123101.709,-36.133,-46.387,-35.645,-32.227,-19.043
1692123101.712,-33.203,-38.086,-38.086,-31.738,24.414
1692123101.716,-24.902,-42.480,-32.227,-22.461,346.680
1692123101.720,-25.391,-29.297,-26.367,-25.879,241.699
1692123101.724,-29.297,-11.719,-24.902,-31.738,-182.617
1692123101.728,-34.668,-20.996,-30.273,-39.551,-178.711
1692123101.747,-37.598,-35.645,-39.551,-40.527,-131.348
1692123101.751,-35.156,-34.180,-41.504,-36.621,-117.188
1692123101.755,-40.527,-32.227,-41.992,-46.875,-86.914
1692123101.759,-46.387,-38.574,-41.504,-51.758,3.906
1692123101.763,-53.223,-41.992,-38.086,-52.734,18.066
1692123101.767,-45.410,-30.273,-34.668,-45.410,-11.230
1692123101.771,-31.250,-27.344,-40.039,-33.691,-41.992
1692123101.774,-30.762,-39.551,-34.668,-29.297,133.301
1692123101.778,-35.156,-40.527,-25.391,-36.621,161.133
1692123101.782,-43.945,-43.457,-35.645,-55.176,-220.215
1692123101.786,-40.039,-43.945,-39.551,-45.410,-214.355
1692123101.790,-31.250,-25.391,-35.156,-31.250,-102.539
1692123101.791,-30.762,-15.137,-28.809,-31.250,21.973
1692123101.795,-17.090,-2.930,-25.879,-16.113,-39.062
1692123101.799,-24.414,-17.090,-22.461,-24.414,40.527
1692123101.802,-39.551,-34.668,-23.926,-33.203,89.355
1692123101.806,-38.086,-35.156,-27.832,-29.785,-46.387
1692123101.810,-34.668,-36.133,-31.250,-26.367,-133.789
1692123101.814,-30.762,-32.227,-28.320,-23.926,-51.270
1692123101.818,-30.273,-20.996,-25.879,-21.973,373.535
1692123101.821,-33.691,-19.043,-32.715,-32.715,250.977
1692123101.825,-39.551,-23.926,-34.180,-28.320,-160.645
1692123101.829,-30.273,-14.160,-30.273,-21.484,-109.863
1692123101.833,-22.949,-16.602,-32.715,-35.156,-90.332
1692123101.837,-26.367,-17.090,-29.297,-34.180,-126.953
1692123101.841,-42.969,-24.414,-30.273,-41.992,-136.719
1692123101.845,-48.828,-40.527,-33.203,-41.016,162.109
1692123101.848,-43.457,-41.016,-39.551,-30.762,306.152
1692123101.852,-39.551,-41.016,-42.969,-31.738,-75.195
1692123101.856,-31.250,-36.133,-36.133,-33.203,-133.789
1692123101.860,-35.156,-19.043,-27.832,-38.574,-22.461
1692123101.864,-45.898,-9.766,-32.227,-39.551,-62.012
1692123101.865,-43.945,-27.344,-39.062,-38.574,-100.098
1692123101.869,-26.367,-28.320,-38.574,-27.344,-38.086
1692123101.873,-19.531,-18.066,-32.715,-16.602,-49.805
1692123101.877,-40.039,-34.668,-33.203,-35.156,-150.391
1692123101.881,-41.992,-39.062,-35.645,-36.621,-100.586
1692123101.885,-24.414,-43.457,-26.367,-7.324,47.852
1692123101.889,-22.949,-33.203,-21.973,-3.418,400.879
1692123101.892,-41.504,-17.578,-30.762,-37.598,274.902
1692123101.896,-51.270,-22.461,-39.551,-62.500,-211.914
1692123101.900,-43.945,-23.926,-41.016,-53.223,1.953
1692123101.904,-41.504,-25.879,-37.598,-46.387,122.070
1692123101.908,-38.574,-19.531,-38.086,-41.992,-127.930
1692123101.925,-19.043,-8.789,-32.715,-33.691,-201.172
1692123101.929,-21.484,-20.020,-31.738,-40.039,-176.270
1692123101.933,-43.457,-38.086,-41.504,-46.387,-200.195
1692123101.937,-36.133,-32.227,-37.109,-33.691,-226.074
1692123101.941,-18.066,-33.691,-41.504,-24.902,-187.500
1692123101.945,-17.578,-43.945,-44.922,-28.809,0.977
1692123101.949,-28.809,-40.039,-38.086,-30.762,44.922
1692123101.952,-33.203,-32.227,-32.227,-35.156,-169.922
1692123101.956,-26.367,-32.227,-26.367,-32.227,-193.359
1692123101.960,-27.344,-43.457,-21.484,-16.113,104.980
1692123101.964,-30.762,-43.457,-27.344,-16.602,117.188
1692123101.968,-26.855,-26.367,-29.785,-21.484,-81.543
1692123101.985,-21.973,-9.766,-17.578,-19.043,-52.734
1692123101.989,-16.113,-6.836,-19.043,-26.367,8.301
1692123101.993,-20.508,-27.832,-43.945,-30.273,-44.434
1692123101.997,-24.902,-45.410,-49.805,-32.227,-138.184
1692123102.001,-35.645,-37.598,-40.527,-37.598,46.387
1692123102.005,-44.922,-32.227,-35.645,-30.762,213.379
1692123102.009,-39.062,-31.738,-27.344,-31.738,58.594
1692123102.012,-29.297,-33.203,-36.133,-37.109,-73.242
1692123102.016,-24.414,-33.691,-40.527,-25.391,-12.207
1692123102.020,-32.715,-33.203,-36.133,-25.391,255.371
1692123102.024,-30.762,-18.066,-39.551,-31.250,89.355
1692123102.028,-26.855,-14.648,-36.133,-23.438,-167.480
1692123102.018,-35.156,-35.645,-40.527,-20.996,-93.750
1692123102.022,-31.738,-28.320,-44.434,-26.855,-0.488
1692123102.026,-30.762,-24.902,-37.109,-29.297,-82.520
1692123102.030,-27.832,-25.391,-25.879,-33.691,-173.340
1692123102.034,-29.297,-26.855,-26.855,-39.062,-21.484
1692123102.038,-22.461,-31.738,-34.180,-33.203,110.352
1692123102.042,-15.137,-27.344,-33.203,-27.344,45.898
1692123102.045,-21.484,-36.621,-30.273,-27.832,-19.531
1692123102.049,-20.508,-27.832,-18.555,-26.855,-17.090
1692123102.053,-22.461,-29.297,-25.391,-32.227,-98.633
1692123102.057,-23.926,-39.551,-42.969,-29.297,-137.207
1692123102.061,-20.996,-42.969,-37.598,-21.484,-110.352
1692123102.060,-12.695,-22.949,-24.414,-14.160,121.094
1692123102.064,-29.297,-7.324,-30.762,-23.926,83.008
1692123102.068,-50.781,-35.645,-39.551,-44.434,-197.266
1692123102.072,-37.598,-35.645,-31.738,-36.133,-124.023
1692123102.076,-17.090,-23.438,-13.184,-16.113,57.129
1692123102.080,-21.973,-31.738,-24.902,-22.949,55.176
1692123102.084,-37.598,-45.898,-55.664,-34.668,-20.508
1692123102.087,-34.668,-42.480,-40.039,-25.391,51.270
1692123102.091,-20.508,-37.109,-28.320,-18.555,365.723
1692123102.095,-3.906,-35.156,-30.762,-9.277,292.480
1692123102.099,-8.301,-30.762,-28.320,-12.695,-125.977
1692123102.103,-15.625,-15.625,-28.809,-25.391,-142.090
1692123102.106,-23.438,-7.324,-33.691,-34.180,-128.418
1692123102.110,-28.809,-21.973,-33.203,-38.086,-184.082
1692123102.114,-26.855,-34.668,-29.785,-38.086,-159.668
1692123102.118,-27.832,-40.527,-38.574,-36.621,-76.172
1692123102.122,-28.809,-24.902,-29.785,-32.715,-103.027
1692123102.126,-36.621,-17.578,-20.020,-36.621,-106.934
1692123102.130,-36.133,-24.902,-26.855,-38.086,-63.477
1692123102.133,-24.902,-31.250,-34.668,-20.508,283.203
1692123102.137,-20.020,-21.973,-28.809,-8.789,419.922
1692123102.141,-33.203,-24.902,-25.879,-26.855,-60.059
1692123102.145,-40.527,-33.203,-31.250,-38.574,-177.246
1692123102.149,-36.133,-32.715,-37.598,-41.016,-116.211
1692123102.150,-30.762,-28.809,-41.992,-35.645,-109.375
1692123102.154,-26.367,-25.391,-34.668,-20.996,-122.070
1692123102.158,-27.832,-21.484,-31.250,-22.949,-113.281
1692123102.162,-33.203,-32.715,-26.855,-33.203,-58.594
1692123102.166,-32.715,-31.738,-23.438,-31.738,-23.438
1692123102.170,-25.391,-17.090,-32.227,-22.949,-30.762
1692123102.174,-20.508,-23.438,-33.691,-23.438,54.688
1692123102.177,-32.227,-37.109,-31.250,-28.809,456.543
1692123102.181,-44.922,-35.645,-32.715,-36.621,296.875
1692123102.185,-41.016,-28.320,-38.086,-40.039,-141.602
1692123102.189,-33.203,-34.668,-35.645,-29.297,18.066
1692123102.193,-29.785,-32.715,-28.320,-19.531,63.477
1692123102.211,-22.949,-19.531,-34.180,-23.438,-163.086
1692123102.215,-28.320,-29.297,-41.992,-33.203,-180.664
1692123102.219,-31.738,-44.434,-30.762,-38.574,-120.605
1692123102.223,-29.297,-43.457,-29.297,-34.180,-135.742
1692123102.227,-26.855,-41.992,-35.645,-25.391,-166.016
1692123102.231,-25.391,-32.227,-36.133,-27.344,-134.766
1692123102.235,-26.367,-20.996,-36.621,-31.250,216.309
1692123102.238,-16.602,-16.602,-28.320,-28.320,267.090
1692123102.242,-9.766,-7.812,-24.902,-20.508,-90.820
1692123102.246,-8.789,-3.906,-26.855,-11.230,-93.262
1692123102.250,-15.137,-24.414,-40.039,-20.996,-61.523
1692123102.254,-38.086,-50.293,-51.270,-37.598,-115.234
1692123102.241,-39.551,-40.039,-31.738,-34.180,-179.199
1692123102.245,-22.949,-23.926,-19.043,-16.602,-95.703
1692123102.249,-27.344,-27.832,-23.438,-17.090,34.180
1692123102.253,-34.180,-41.016,-28.320,-37.109,-89.355
1692123102.257,-26.855,-35.156,-26.367,-36.621,-169.922
1692123102.261,-23.926,-16.113,-18.066,-32.227,-3.418
1692123102.265,-21.973,-14.160,-20.508,-31.250,168.945
1692123102.268,-15.137,-29.785,-29.297,-22.949,67.383
1692123102.272,-17.578,-47.363,-35.645,-23.438,-129.395
1692123102.276,-32.715,-48.340,-32.227,-29.297,-83.496
1692123102.280,-39.062,-37.109,-28.320,-29.785,320.312
1692123102.284,-29.785,-34.180,-34.180,-17.578,203.125
1692123102.318,-30.762,-32.715,-30.273,-9.277,-187.988
1692123102.322,-40.039,-33.203,-13.184,-20.020,-141.113
1692123102.326,-44.922,-42.969,-11.230,-31.250,-37.598
1692123102.330,-43.945,-34.180,-23.438,-30.762,-93.262
1692123102.334,-39.062,-29.785,-24.902,-28.320,-211.426
1692123102.338,-32.715,-46.387,-24.414,-19.043,120.117
1692123102.342,-25.879,-44.434,-24.902,-13.672,386.719
1692123102.345,-31.738,-32.715,-24.902,-32.227,0.977
1692123102.349,-40.039,-31.738,-26.855,-41.016,-174.805
1692123102.353,-37.109,-31.250,-25.879,-30.273,-138.184
1692123102.357,-23.926,-28.809,-21.973,-18.555,-165.039
1692123102.361,-17.578,-20.508,-22.949,-18.555,-132.324
1692123102.345,-26.855,-24.902,-28.809,-28.809,-47.852
1692123102.349,-35.645,-35.645,-31.738,-36.621,-66.406
1692123102.353,-33.691,-29.297,-34.180,-36.133,-115.234
1692123102.357,-22.461,-32.227,-34.180,-32.227,-168.945
1692123102.361,-13.672,-36.133,-33.691,-29.297,27.832
1692123102.365,-17.090,-27.344,-31.250,-30.762,202.148
1692123102.369,-32.227,-28.809,-35.156,-39.551,-71.289
1692123102.372,-42.480,-37.598,-38.086,-43.457,-185.059
1692123102.376,-35.156,-31.738,-35.645,-36.621,13.672
1692123102.380,-20.508,-25.391,-34.668,-33.691,83.496
1692123102.384,-23.438,-26.367,-26.855,-36.621,-60.547
1692123102.388,-39.062,-43.457,-35.156,-49.805,-130.371
1692123102.391,-41.016,-45.410,-42.480,-53.711,-9.766
1692123102.395,-31.250,-29.297,-27.832,-31.738,442.871
1692123102.399,-12.207,-19.531,-15.625,-17.090,364.258
1692123102.403,-18.066,-23.926,-24.902,-36.621,-68.848
1692123102.407,-36.133,-41.504,-37.109,-49.316,-114.746
1692123102.411,-33.203,-33.203,-41.016,-38.086,-116.699
1692123102.415,-30.273,-29.785,-50.781,-32.227,-49.805
1692123102.418,-26.855,-36.133,-40.039,-24.414,-34.668
1692123102.422,-15.625,-25.391,-20.020,-9.766,140.137
1692123102.426,-26.367,-33.691,-19.043,-22.949,287.598
1692123102.430,-33.203,-39.062,-24.414,-39.551,-77.148
1692123102.434,-21.484,-18.066,-22.461,-36.133,-194.824
1692123102.435,-23.926,-22.949,-24.902,-34.180,-73.242
1692123102.439,-20.020,-31.250,-33.203,-32.227,-102.539
1692123102.443,-30.273,-35.645,-40.039,-43.945,-213.379
1692123102.447,-34.668,-42.969,-33.203,-38.574,-169.922
1692123102.451,-20.508,-43.457,-30.273,-20.996,-36.133
1692123102.455,-15.137,-43.457,-41.504,-14.160,-34.668
1692123102.459,-11.230,-43.457,-42.969,-9.277,-78.613
1692123102.462,-4.395,-38.086,-35.156,-13.184,94.238
1692123102.466,-17.090,-31.738,-20.020,-23.438,304.688
1692123102.470,-31.250,-28.809,-31.250,-26.855,83.008
1692123102.474,-11.719,-18.555,-35.156,-22.949,-202.148
1692123102.478,-13.184,-20.996,-22.949,-27.832,-24.414
1692123102.481,-41.016,-47.852,-46.875,-48.340,162.109
1692123102.485,-55.176,-59.082,-67.871,-63.965,-108.398
1692123102.489,-48.340,-39.551,-53.711,-41.504,-222.656
1692123102.493,-34.668,-29.297,-36.621,-24.414,-123.047
1692123102.497,-26.855,-29.297,-31.250,-28.809,-118.164
1692123102.501,-26.855,-11.230,-23.438,-28.809,-54.688
1692123102.505,-43.457,-21.973,-29.785,-44.922,-33.691
1692123102.508,-46.387,-41.992,-52.734,-46.387,142.090
1692123102.512,-30.762,-39.062,-41.992,-32.227,250.000
1692123102.516,-21.973,-30.762,-19.043,-28.809,-66.406
1692123102.520,-18.555,-20.020,-9.766,-20.508,-177.734
1692123102.524,-33.203,-23.438,-15.625,-22.949,-162.109
1692123102.526,-43.945,-31.250,-35.645,-32.227,-69.336
1692123102.530,-33.691,-19.531,-35.156,-27.344,-82.520
1692123102.534,-28.320,-19.531,-28.809,-20.996,-68.359
1692123102.538,-26.855,-24.414,-33.691,-31.738,48.828
1692123102.542,-32.227,-30.273,-38.574,-43.945,-41.992
1692123102.546,-42.480,-43.945,-35.645,-41.504,-67.871
1692123102.550,-33.203,-37.109,-36.133,-20.996,7.812
1692123102.553,-20.020,-31.250,-37.109,-8.789,310.059
1692123102.557,-26.367,-24.902,-32.227,-20.020,222.168
1692123102.561,-37.598,-31.250,-30.273,-31.250,-158.203
1692123102.565,-42.480,-43.457,-30.762,-30.762,-143.555
1692123102.569,-43.945,-31.738,-30.273,-22.949,-127.930
1692123102.571,-34.180,-25.879,-30.762,-21.973,-195.312
1692123102.575,-24.414,-27.344,-28.809,-28.809,-220.215
1692123102.579,-30.762,-38.086,-36.133,-38.086,-103.027
1692123102.583,-39.551,-38.086,-44.922,-39.551,-23.926
1692123102.587,-22.949,-27.344,-33.691,-30.762,-45.410
1692123102.591,-19.043,-41.504,-20.996,-29.297,-21.973
1692123102.595,-29.297,-47.852,-25.879,-35.645,218.750
1692123102.598,-24.902,-29.785,-25.879,-28.320,321.777
1692123102.602,-35.156,-30.762,-27.344,-30.273,-67.871
1692123102.606,-36.133,-33.691,-29.785,-24.414,-173.828
1692123102.610,-25.879,-26.855,-22.949,-11.719,-38.574
1692123102.614,-26.855,-23.926,-19.043,-21.484,-62.500
1692123102.615,-32.715,-23.438,-24.902,-31.250,-127.930
1692123102.619,-43.457,-40.527,-31.250,-38.086,-123.047
1692123102.623,-42.480,-43.945,-28.320,-39.062,-109.863
1692123102.627,-23.926,-26.855,-23.438,-29.297,-121.582
1692123102.631,-16.113,-15.625,-20.996,-29.297,-105.957
1692123102.635,-30.273,-20.508,-26.367,-43.457,0.488
1692123102.639,-36.133,-23.926,-29.297,-40.527,383.789
1692123102.642,-37.109,-24.902,-27.344,-33.691,269.531
1692123102.646,-37.598,-25.879,-26.855,-33.691,-122.559
1692123102.650,-26.367,-28.809,-31.250,-24.902,-16.113
1692123102.654,-21.973,-40.527,-34.180,-23.926,136.719
1692123102.658,-29.297,-42.969,-36.133,-36.133,-78.613
1692123102.690,-30.273,-36.133,-36.133,-36.133,-237.793
1692123102.694,-16.113,-26.367,-29.297,-25.391,-122.559
1692123102.698,-14.648,-22.461,-28.809,-23.926,-28.320
1692123102.702,-17.578,-18.555,-30.762,-29.785,-122.070
1692123102.706,-21.484,-19.043,-27.344,-36.621,-172.363
1692123102.710,-30.762,-38.086,-35.156,-33.203,-15.625
1692123102.714,-31.738,-45.410,-38.574,-32.227,99.121
1692123102.717,-33.691,-44.922,-42.480,-41.016,-11.230
1692123102.721,-36.133,-31.738,-38.086,-34.668,-106.445
1692123102.725,-40.039,-23.926,-32.715,-34.668,119.141
1692123102.729,-44.434,-29.297,-41.016,-41.504,200.195
1692123102.733,-39.062,-40.527,-39.062,-31.738,-122.070
1692123102.720,-29.297,-50.293,-35.645,-19.043,-135.254
1692123102.724,-26.855,-45.898,-34.668,-20.020,-78.125
1692123102.728,-34.668,-40.039,-31.738,-30.273,-131.836
1692123102.732,-31.250,-29.785,-31.738,-32.715,-210.938
1692123102.736,-25.879,-26.855,-27.832,-22.949,-72.754
1692123102.740,-28.809,-35.645,-25.391,-20.020,154.297
1692123102.744,-32.715,-39.062,-34.180,-36.621,31.738
1692123102.747,-39.551,-31.738,-30.762,-42.969,-95.703
1692123102.751,-43.945,-28.809,-24.902,-41.016,-49.805
1692123102.755,-47.363,-39.062,-31.738,-39.551,-12.207
1692123102.759,-35.645,-44.922,-34.668,-34.668,-26.855
1692123102.763,-36.133,-41.016,-32.715,-38.086,-72.266
1692123102.766,-42.969,-40.527,-32.227,-35.156,59.082
1692123102.770,-45.410,-41.016,-30.273,-29.297,333.984
1692123102.774,-42.969,-27.344,-30.762,-27.344,74.219
1692123102.778,-28.809,-20.996,-32.715,-26.855,-152.344
1692123102.782,-31.738,-25.879,-37.598,-34.668,-102.539
1692123102.786,-39.551,-32.715,-40.039,-44.434,-55.176
1692123102.790,-39.551,-28.809,-34.668,-46.387,-65.430
1692123102.793,-38.086,-27.832,-27.832,-31.738,-143.066
1692123102.797,-37.598,-39.551,-36.621,-26.855,171.875
1692123102.801,-39.551,-33.691,-41.504,-44.434,215.820
1692123102.805,-50.293,-37.109,-39.062,-51.758,-187.012
1692123102.809,-41.992,-26.367,-43.457,-48.828,-194.336
1692123102.810,-16.602,-14.160,-50.293,-29.297,-82.520
1692123102.814,-14.648,-29.785,-28.809,-9.277,-19.531
1692123102.818,-33.691,-27.344,-6.348,-21.484,-55.176
1692123102.822,-52.734,-26.855,-14.648,-38.086,-51.270
1692123102.826,-53.223,-41.016,-26.855,-48.828,59.570
1692123102.830,-54.199,-55.176,-28.809,-57.617,20.020
1692123102.834,-49.805,-55.176,-29.297,-42.969,-13.672
1692123102.837,-38.086,-43.945,-24.902,-30.273,64.453
1692123102.841,-43.945,-28.320,-24.902,-31.738,329.590
1692123102.845,-46.875,-22.949,-29.297,-41.016,197.266
1692123102.849,-45.410,-37.598,-29.785,-42.969,-188.965
1692123102.853,-37.109,-41.504,-35.645,-33.203,-103.516
1692123102.871,-28.320,-34.180,-34.668,-21.973,7.812
1692123102.875,-30.273,-36.621,-26.367,-26.855,-93.262
1692123102.879,-33.203,-32.715,-23.438,-34.180,-133.301
1692123102.883,-40.039,-31.250,-31.738,-33.691,5.371
1692123102.887,-41.016,-45.898,-41.016,-34.180,-7.324
1692123102.891,-24.414,-36.621,-35.645,-14.648,-7.324
1692123102.895,-20.020,-19.043,-26.855,-12.695,-8.789
1692123102.898,-41.992,-40.039,-27.344,-38.574,159.180
1692123102.902,-45.410,-51.758,-36.133,-42.480,233.398
1692123102.906,-33.203,-41.504,-39.551,-30.762,-98.633
1692123102.910,-27.832,-37.109,-28.809,-21.484,-159.180
1692123102.914,-28.809,-41.504,-30.273,-25.879,-30.273
1692123102.900,-40.039,-46.387,-45.898,-42.480,-75.195
1692123102.904,-38.086,-44.434,-40.039,-41.504,-226.562
1692123102.908,-24.414,-38.574,-27.832,-21.973,-159.180
1692123102.912,-18.066,-37.598,-28.320,-14.160,-79.590
1692123102.916,-16.602,-35.645,-19.043,-8.301,-90.820
1692123102.920,-22.949,-29.297,-13.672,-14.648,-27.344
1692123102.924,-27.344,-33.203,-29.785,-35.645,122.559
1692123102.927,-25.879,-30.762,-38.086,-30.273,183.594
1692123102.931,-18.066,-24.414,-31.738,-19.043,33.203
1692123102.935,-14.160,-22.461,-26.367,-22.949,-107.910
1692123102.939,-21.484,-26.367,-24.902,-30.273,-60.547
1692123102.943,-26.855,-36.621,-20.020,-25.391,340.332
1692123102.946,-28.809,-29.297,-23.926,-16.602,298.828
1692123102.950,-20.996,-26.367,-29.297,-14.648,-130.859
1692123102.954,-17.090,-33.203,-24.414,-20.020,-153.320
1692123102.958,-23.926,-34.668,-32.715,-31.250,-150.391
1692123102.962,-29.297,-24.902,-31.250,-38.086,-205.566
1692123102.966,-33.203,-22.949,-20.996,-31.738,-101.562
1692123102.970,-28.320,-34.180,-29.297,-20.020,302.734
1692123102.973,-23.926,-27.344,-35.156,-20.020,311.523
1692123102.977,-28.320,-23.438,-31.738,-36.133,-94.238
1692123102.981,-34.180,-31.738,-32.227,-41.992,-207.031
1692123102.985,-34.180,-35.645,-36.621,-39.551,-188.477
1692123102.989,-30.273,-43.457,-42.969,-37.598,-159.180
1692123102.990,-20.508,-39.062,-44.922,-21.973,-181.152
1692123102.994,-18.066,-28.320,-35.645,-14.648,-118.164
1692123102.998,-28.320,-27.344,-28.809,-23.438,-34.668
1692123103.002,-28.809,-26.367,-33.691,-31.250,-117.188
1692123103.006,-15.137,-30.762,-35.156,-18.066,-112.305
1692123103.010,-9.277,-36.621,-29.297,-17.090,48.828
1692123103.014,-22.949,-33.691,-32.227,-28.809,334.961
1692123103.017,-27.832,-16.113,-30.762,-21.484,160.156
1692123103.021,-27.344,-16.602,-30.273,-18.066,-238.770
1692123103.025,-29.297,-28.809,-29.297,-21.484,-118.164
1692123103.029,-7.812,-13.672,-34.180,-13.672,49.805
1692123103.033,4.395,-10.254,-33.203,-3.906,-84.473
1692123103.050,-13.184,-24.414,-18.066,-12.207,-220.703
1692123103.054,-33.691,-30.273,-21.484,-30.273,-32.715
1692123103.058,-38.086,-25.879,-22.461,-34.180,40.039
1692123103.062,-29.785,-22.949,-9.766,-25.879,-113.770
1692123103.066,-37.598,-37.598,-12.207,-28.320,-116.211
1692123103.070,-50.781,-41.504,-11.230,-34.180,-26.855
1692123103.074,-54.688,-35.645,0.000,-33.203,32.227
1692123103.077,-49.316,-38.574,3.418,-29.785,-72.754
1692123103.081,-39.062,-44.434,2.930,-19.531,-124.023
1692123103.085,-40.039,-46.387,6.836,-18.555,95.703
1692123103.089,-41.016,-45.898,13.672,-24.902,124.512
1692123103.093,-50.781,-44.434,-2.441,-32.227,-155.762
1692123103.095,-54.688,-50.293,-6.348,-29.785,-117.188
1692123103.099,-38.086,-41.504,6.348,-18.555,29.297
1692123103.103,-31.738,-25.391,2.930,-12.695,-7.812
1692123103.107,-42.480,-35.645,4.395,-18.555,-129.883
1692123103.111,-51.270,-52.246,9.766,-26.855,-11.230
1692123103.115,-47.363,-58.594,4.395,-22.949,217.773
1692123103.119,-38.086,-53.223,6.348,-13.672,50.293
1692123103.122,-30.273,-47.363,6.348,-9.766,-75.195
1692123103.126,-33.203,-51.270,-0.488,-13.184,47.363
1692123103.130,-43.457,-62.012,-1.465,-15.137,188.965
1692123103.134,-45.410,-55.176,-7.324,-9.277,-73.242
1692123103.138,-33.203,-38.086,-10.742,3.906,-227.539
1692123103.141,-26.855,-34.668,-11.230,4.883,-122.070
1692123103.145,-34.180,-30.762,-14.160,-15.137,-121.094
1692123103.149,-40.039,-29.297,-15.625,-32.227,-195.312
1692123103.153,-37.598,-32.227,-14.648,-24.414,-182.617
1692123103.157,-31.738,-35.645,-19.531,-15.625,48.828
1692123103.161,-32.715,-41.504,-25.879,-21.973,105.469
1692123103.165,-46.387,-41.992,-26.367,-36.621,-28.320
1692123103.168,-48.828,-41.504,-24.902,-46.875,-112.305
1692123103.172,-40.039,-29.785,-20.996,-28.320,90.820
1692123103.176,-35.156,-20.508,-21.973,-9.766,149.414
1692123103.180,-31.738,-26.367,-20.996,-20.996,-87.402
1692123103.184,-34.668,-32.715,-21.484,-29.785,-85.449
1692123103.185,-37.109,-35.645,-21.484,-35.645,-54.199
1692123103.189,-41.016,-37.598,-20.996,-31.250,-37.109
1692123103.193,-24.414,-33.203,-22.461,-12.207,-71.289
1692123103.197,-7.812,-36.133,-19.043,-12.695,-39.551
1692123103.201,-26.855,-49.805,-26.367,-24.414,42.480
1692123103.205,-41.016,-48.828,-29.785,-23.926,10.254
1692123103.209,-34.668,-41.016,-22.461,-14.648,-44.434
1692123103.212,-28.320,-38.574,-20.508,-6.348,90.332
1692123103.216,-18.066,-42.480,-25.391,-5.371,438.477
1692123103.220,-20.508,-47.363,-26.367,-6.836,328.613
1692123103.224,-31.738,-42.969,-25.879,-9.277,-132.324
1692123103.228,-16.113,-34.668,-20.508,-6.348,-171.387
1692123103.231,-13.672,-32.715,-18.555,-4.883,-132.324
1692123103.235,-16.113,-36.133,-27.832,-8.301,-145.020
1692123103.239,-10.254,-33.203,-28.320,-13.672,-104.492
1692123103.243,-18.066,-33.691,-29.785,-24.902,-117.188
1692123103.247,-23.926,-25.879,-25.879,-24.414,-163.574
1692123103.251,-20.996,-16.602,-20.020,-14.648,-77.637
1692123103.255,-9.766,-21.484,-26.855,-19.531,40.039
1692123103.258,-15.625,-30.762,-30.762,-27.832,165.527
1692123103.262,-29.297,-34.668,-34.180,-35.156,261.230
1692123103.266,-35.156,-41.016,-39.062,-47.852,-61.523
1692123103.270,-32.715,-44.434,-33.691,-36.133,-254.395
1692123103.274,-24.902,-39.062,-32.227,-18.066,-79.102
1692123103.275,-30.762,-39.551,-37.109,-25.879,-6.836
1692123103.279,-41.016,-40.039,-37.598,-36.133,-132.812
1692123103.283,-45.410,-38.086,-35.156,-40.527,-139.648
1692123103.287,-44.922,-38.574,-36.133,-44.922,-78.125
1692123103.291,-35.156,-38.086,-40.039,-36.133,-27.344
1692123103.295,-26.367,-40.039,-37.598,-16.602,30.273
1692123103.299,-37.598,-39.551,-44.434,-32.715,29.297
1692123103.302,-37.109,-38.086,-41.016,-34.180,361.328
1692123103.306,-30.762,-34.668,-33.203,-23.438,266.602
1692123103.310,-33.691,-32.715,-29.785,-26.367,-164.062
1692123103.314,-27.832,-38.086,-25.391,-28.320,-45.898
1692123103.318,-29.785,-45.898,-29.297,-51.758,20.020
1692123103.321,-41.992,-50.293,-37.109,-59.082,-111.328
1692123103.325,-34.668,-42.480,-36.133,-42.480,-187.012
1692123103.329,-19.531,-41.992,-31.738,-24.414,-37.109
1692123103.333,-11.719,-46.387,-35.645,-16.602,15.137
1692123103.337,-14.648,-45.898,-28.809,-22.461,-161.133
1692123103.341,-25.391,-37.598,-21.973,-28.809,-143.066
1692123103.345,-27.344,-31.738,-27.832,-15.137,176.270
1692123103.348,-27.832,-29.297,-29.785,-6.836,235.352
1692123103.352,-23.926,-24.414,-30.273,-16.113,-122.559
1692123103.356,-27.832,-30.273,-32.715,-28.809,-160.645
1692123103.360,-36.621,-34.180,-34.180,-41.504,-113.770
1692123103.364,-37.598,-38.574,-33.691,-40.527,-164.551
1692123103.366,-31.250,-39.551,-27.344,-26.367,-216.797
1692123103.370,-26.367,-32.227,-24.414,-20.020,-85.449
1692123103.374,-34.668,-28.809,-33.203,-25.391,64.453
1692123103.378,-43.945,-29.785,-35.156,-31.250,-73.242
1692123103.382,-45.410,-30.273,-30.273,-33.203,-98.633
1692123103.386,-35.156,-20.508,-30.273,-27.832,34.668
1692123103.390,-17.578,-21.973,-29.785,-19.043,415.527
1692123103.393,-18.555,-33.691,-29.297,-19.043,283.203
1692123103.397,-33.203,-37.598,-32.715,-33.203,-185.547
1692123103.401,-42.480,-40.039,-37.598,-39.551,-60.059
1692123103.405,-27.344,-30.273,-29.297,-25.391,11.230
1692123103.409,-11.719,-20.996,-20.996,-24.414,-144.043
1692123103.425,-19.531,-32.715,-30.762,-31.250,-210.938
1692123103.429,-21.973,-30.762,-32.715,-31.250,-150.391
1692123103.433,-16.602,-17.090,-25.879,-25.879,-113.770
1692123103.437,-13.672,-20.508,-25.879,-12.695,-148.926
1692123103.441,-11.230,-27.344,-31.250,-10.742,-91.309
1692123103.445,-10.742,-23.438,-31.738,-16.113,236.328
1692123103.449,-19.531,-25.391,-31.738,-21.973,413.086
1692123103.452,-23.438,-21.973,-32.715,-28.320,-0.977
1692123103.456,-18.066,-14.648,-30.273,-21.484,-132.324
1692123103.460,-20.996,-19.531,-30.762,-14.648,-20.508
1692123103.464,-23.926,-23.926,-34.180,-19.531,-102.539
1692123103.468,-26.855,-26.367,-35.156,-32.227,-183.594
1692123103.470,-40.039,-31.250,-34.180,-47.363,-143.066
1692123103.474,-37.109,-26.855,-31.250,-41.504,-94.238
1692123103.478,-23.926,-25.391,-25.391,-23.438,-46.387
1692123103.482,-29.785,-39.062,-27.832,-18.555,-67.871
1692123103.486,-41.504,-43.457,-33.203,-32.227,54.199
1692123103.490,-46.875,-45.898,-33.203,-48.340,151.367
1692123103.494,-41.992,-43.945,-31.738,-42.480,-24.902
1692123103.497,-33.203,-34.668,-29.297,-30.762,-72.266
1692123103.501,-26.367,-25.879,-29.297,-15.625,12.207
1692123103.505,-24.902,-28.809,-25.879,-16.113,308.105
1692123103.509,-35.156,-43.945,-25.879,-29.297,167.969
1692123103.513,-41.504,-45.410,-24.902,-26.855,-149.414
1692123103.516,-22.949,-36.621,-30.762,-5.371,-118.164
1692123103.520,-2.930,-32.715,-37.109,14.160,-94.238
1692123103.524,-12.695,-28.320,-29.785,2.441,-117.676
1692123103.528,-29.297,-34.668,-20.508,-23.438,-184.570
1692123103.532,-44.434,-40.527,-20.508,-27.344,-133.301
1692123103.536,-39.062,-30.762,-22.461,-16.602,46.387
1692123103.540,-22.461,-22.949,-19.531,-11.719,71.777
1692123103.543,-46.387,-26.367,-18.555,-30.273,-145.996
1692123103.547,-63.477,-34.668,-20.508,-42.480,89.355
1692123103.551,-54.199,-29.297,-23.926,-34.180,333.496
1692123103.555,-46.387,-20.508,-26.855,-36.621,-48.340
1692123103.559,-38.574,-16.602,-29.297,-41.992,-111.816
1692123103.560,-42.480,-21.484,-36.133,-48.340,-19.043
1692123103.564,-44.922,-25.391,-32.715,-59.082,-119.141
1692123103.568,-38.574,-22.949,-25.879,-58.105,-224.609
1692123103.572,-32.227,-18.555,-25.391,-42.969,-130.859
1692123103.576,-25.391,-10.742,-20.996,-29.785,60.059
1692123103.580,-29.297,-13.672,-24.902,-39.062,50.781
1692123103.584,-47.852,-33.203,-37.598,-57.617,-19.531
1692123103.587,-48.828,-41.016,-34.668,-55.664,6.348
1692123103.591,-37.598,-35.156,-26.367,-38.574,291.504
1692123103.595,-26.367,-26.367,-30.762,-35.156,236.816
1692123103.599,-22.461,-31.738,-35.645,-39.551,-177.246
1692123103.603,-38.086,-41.016,-34.668,-34.668,-48.340
1692123103.606,-41.992,-31.738,-31.738,-34.668,5.859
1692123103.610,-30.273,-25.879,-30.273,-28.320,-167.480
1692123103.614,-19.531,-25.391,-31.738,-19.531,-156.250
1692123103.618,-22.461,-31.250,-36.133,-30.762,-12.695
1692123103.622,-37.109,-38.086,-36.133,-49.316,30.762
1692123103.626,-40.039,-34.180,-37.109,-45.898,-41.992
1692123103.630,-31.738,-31.738,-35.645,-30.273,-70.801
1692123103.633,-24.902,-35.645,-30.273,-16.113,141.602
1692123103.637,-36.621,-40.039,-30.273,-18.555,237.305
1692123103.641,-49.805,-33.691,-34.180,-37.598,-84.961
1692123103.645,-52.246,-31.738,-37.598,-45.898,-187.988
1692123103.649,-43.457,-31.250,-30.762,-34.180,-105.469
1692123103.651,-34.180,-33.203,-29.297,-23.926,-97.656
1692123103.655,-37.109,-35.645,-37.109,-28.320,-90.820
1692123103.659,-40.527,-34.668,-38.086,-32.715,-8.789
1692123103.663,-39.062,-29.785,-38.574,-27.344,0.488
1692123103.667,-37.109,-20.508,-31.738,-19.043,-64.453
1692123103.671,-32.715,-23.926,-21.484,-9.277,5.371
1692123103.675,-25.879,-27.344,-24.414,-6.348,136.719
1692123103.678,-37.598,-28.809,-33.203,-17.090,383.789
1692123103.682,-49.805,-28.809,-30.762,-28.809,225.586
1692123103.686,-46.387,-27.832,-24.414,-27.344,-184.570
1692123103.690,-34.668,-26.855,-22.461,-19.531,-151.855
1692123103.694,-19.531,-21.484,-28.320,-20.996,-125.488
1692123103.696,-26.367,-24.902,-31.738,-29.297,-159.180
1692123103.700,-43.945,-30.273,-27.832,-43.457,-167.480
1692123103.704,-45.898,-33.203,-31.250,-41.992,-123.047
1692123103.708,-34.668,-29.785,-32.715,-30.273,-38.574
1692123103.712,-19.043,-30.273,-27.832,-22.949,41.016
1692123103.716,-22.949,-30.273,-27.344,-34.668,3.418
1692123103.720,-30.273,-25.879,-28.809,-41.992,205.078
1692123103.723,-26.367,-23.926,-30.273,-29.297,231.445
1692123103.727,-18.555,-18.555,-24.414,-20.020,-106.445
1692123103.731,-3.906,-19.531,-19.531,-8.301,-153.809
1692123103.735,-4.883,-23.438,-20.508,-9.766,44.434
1692123103.739,-30.762,-39.551,-24.414,-31.738,14.648
1692123103.740,-39.062,-50.293,-36.621,-51.270,-218.750
1692123103.744,-34.180,-46.387,-43.457,-52.246,-131.348
1692123103.748,-26.367,-37.598,-40.039,-34.668,-51.758
1692123103.752,-26.367,-32.227,-32.715,-28.320,-77.148
1692123103.756,-35.645,-36.133,-27.832,-36.621,-41.016
1692123103.760,-43.945,-39.062,-29.785,-38.086,14.648
1692123103.764,-37.598,-35.645,-26.855,-29.297,335.449
1692123103.767,-31.738,-29.297,-27.344,-26.367,300.781
1692123103.771,-32.715,-30.273,-30.762,-25.879,-105.957
1692123103.775,-34.668,-44.434,-28.809,-26.367,-84.473
1692123103.779,-38.086,-44.434,-24.902,-26.855,49.805
1692123103.783,-31.738,-35.156,-32.715,-22.461,-159.180
1692123103.815,-22.949,-33.691,-32.715,-20.020,-224.609
1692123103.819,-20.996,-28.809,-27.832,-21.973,-140.625
1692123103.823,-14.648,-18.066,-26.855,-19.531,-128.906
1692123103.827,-20.020,-16.113,-26.855,-28.320,-154.297
1692123103.831,-22.461,-24.414,-33.203,-29.297,-202.148
1692123103.835,-16.602,-24.902,-33.691,-17.578,-36.133
1692123103.839,-21.484,-24.414,-34.180,-17.090,40.039
1692123103.842,-12.207,-29.785,-30.273,-18.066,-123.047
1692123103.846,-5.859,-19.531,-27.832,-19.531,-205.078
1692123103.850,-13.184,-12.207,-33.203,-24.414,130.859
1692123103.854,-32.715,-20.020,-37.109,-38.086,246.094
1692123103.858,-41.992,-21.973,-35.645,-53.711,-149.414
1692123103.845,-44.434,-33.203,-37.109,-53.711,-129.883
1692123103.849,-52.734,-37.598,-40.039,-52.734,-63.477
1692123103.853,-45.898,-24.414,-33.203,-34.180,-107.910
1692123103.857,-38.574,-35.156,-29.785,-19.531,-136.719
1692123103.861,-35.645,-41.016,-33.691,-18.555,-7.324
1692123103.865,-32.227,-36.621,-26.855,-21.484,154.297
1692123103.869,-41.016,-41.992,-26.367,-29.785,69.824
1692123103.872,-43.457,-34.668,-30.273,-37.598,-19.531
1692123103.876,-26.855,-28.320,-30.273,-31.738,33.203
1692123103.880,-16.602,-23.926,-30.273,-27.344,95.703
1692123103.884,-17.090,-13.672,-35.156,-33.203,-77.637
1692123103.888,-22.461,-22.461,-36.621,-40.039,-135.254
1692123103.891,-34.668,-34.180,-32.227,-38.086,27.344
1692123103.895,-35.156,-34.180,-29.297,-23.926,324.219
1692123103.899,-27.344,-34.180,-29.297,-19.043,149.902
1692123103.903,-30.273,-36.621,-35.645,-26.855,-139.160
1692123103.907,-41.992,-31.250,-34.180,-35.645,-112.793
1692123103.911,-43.457,-23.438,-31.738,-40.039,-89.844
1692123103.915,-31.738,-26.367,-33.691,-34.180,-72.266
1692123103.918,-27.832,-32.227,-34.668,-26.367,-140.137
1692123103.922,-20.996,-33.203,-34.180,-20.508,71.777
1692123103.926,-20.996,-31.250,-32.227,-21.484,151.855
1692123103.930,-31.738,-33.203,-30.762,-30.273,-179.688
1692123103.934,-25.879,-26.367,-30.273,-20.020,-162.598
1692123103.936,-14.648,-17.578,-31.738,-11.719,-3.906
1692123103.940,-18.066,-23.926,-33.691,-19.043,-36.621
1692123103.944,-28.809,-25.391,-28.320,-22.949,-119.141
1692123103.948,-33.203,-34.180,-27.344,-27.344,-70.801
1692123103.952,-38.086,-45.410,-38.086,-28.809,70.801
1692123103.956,-38.086,-36.133,-36.621,-23.438,60.547
1692123103.960,-25.391,-28.809,-33.691,-24.414,-5.371
1692123103.963,-26.855,-24.902,-34.668,-33.691,26.855
1692123103.967,-38.574,-27.832,-33.203,-36.133,309.082
1692123103.971,-35.156,-28.320,-33.691,-25.391,241.211
1692123103.975,-26.367,-35.156,-33.203,-22.461,-132.324
1692123103.979,-27.832,-35.645,-34.180,-29.297,-129.395
1692123103.981,-30.273,-31.738,-35.645,-34.180,-129.395
1692123103.985,-35.156,-32.715,-38.574,-48.340,-212.402
1692123103.989,-32.715,-28.320,-41.992,-46.387,-181.152
1692123103.993,-24.414,-32.227,-40.527,-31.738,-108.398
1692123103.997,-26.855,-35.156,-42.480,-32.715,-82.520
1692123104.001,-33.203,-34.668,-46.387,-46.875,-57.129
1692123104.005,-38.574,-35.645,-42.480,-53.711,-59.570
1692123104.008,-39.551,-39.062,-43.945,-41.016,202.148
1692123104.012,-29.297,-26.367,-36.133,-26.855,317.871
1692123104.016,-19.043,-8.301,-28.320,-29.785,-18.066
1692123104.020,-22.949,-18.555,-28.320,-38.086,-172.852
1692123104.024,-29.297,-43.945,-30.273,-40.527,-113.770
1692123104.024,-35.156,-44.922,-39.551,-35.156,-105.469
1692123104.028,-26.367,-31.738,-36.621,-19.531,-154.297
1692123104.032,-14.160,-30.762,-29.297,-12.695,-68.359
1692123104.036,-13.184,-27.832,-31.250,-13.672,-13.672
1692123104.040,-20.996,-24.902,-30.762,-20.020,-108.887
1692123104.044,-32.227,-31.738,-26.367,-28.320,-99.121
1692123104.048,-27.832,-31.250,-26.367,-22.461,23.438
1692123104.051,-20.508,-38.086,-26.855,-12.207,434.082
1692123104.055,-30.762,-43.945,-29.785,-25.879,503.906
1692123104.059,-34.668,-35.156,-35.156,-41.504,-22.461
1692123104.063,-33.691,-33.691,-32.227,-32.227,-175.781
1692123104.067,-28.809,-38.086,-30.762,-27.832,-159.668
1692123104.071,-14.648,-32.715,-29.785,-29.297,-229.004
1692123104.075,-10.742,-35.645,-33.691,-37.109,-194.336
1692123104.079,-18.066,-31.250,-36.133,-47.363,-100.098
1692123104.083,-32.715,-21.973,-34.668,-40.527,-113.770
1692123104.087,-39.062,-26.855,-34.180,-30.762,-96.191
1692123104.091,-30.273,-29.785,-31.250,-34.180,39.062
1692123104.095,-36.621,-32.227,-39.062,-44.434,290.527
1692123104.098,-49.316,-29.785,-41.504,-51.758,288.574
1692123104.102,-53.223,-29.785,-37.598,-46.875,-157.715
1692123104.106,-47.363,-44.434,-34.668,-34.668,-150.391
1692123104.110,-24.414,-46.875,-28.809,-11.719,67.383
1692123104.114,-19.531,-31.250,-24.902,-13.672,-49.316
1692123104.115,-42.969,-16.113,-28.809,-42.480,-166.992
1692123104.119,-48.828,-20.020,-31.250,-45.410,-119.629
1692123104.123,-40.527,-34.668,-41.992,-38.086,-27.832
1692123104.127,-35.156,-34.180,-43.457,-37.109,-64.941
1692123104.131,-28.320,-31.738,-38.574,-29.297,-77.148
1692123104.135,-30.273,-33.691,-41.016,-31.738,14.648
1692123104.139,-33.203,-26.367,-41.992,-33.691,296.387
1692123104.142,-30.273,-26.855,-45.898,-36.133,208.008
1692123104.146,-18.066,-36.621,-46.387,-33.203,-162.109
1692123104.150,-20.508,-34.668,-43.945,-22.949,-61.523
1692123104.154,-26.367,-30.762,-39.551,-30.762,40.039
1692123104.158,-29.297,-35.645,-32.715,-42.969,-198.242
1692123104.163,-32.715,-37.109,-34.180,-44.922,-194.336
1692123104.167,-32.715,-41.504,-41.016,-34.668,52.734
1692123104.171,-41.016,-53.223,-43.945,-35.156,38.086
1692123104.175,-48.828,-54.199,-45.410,-51.270,-109.863
1692123104.179,-41.992,-42.480,-42.480,-52.734,-150.879
1692123104.183,-36.621,-36.621,-38.086,-45.898,-74.707
1692123104.187,-29.297,-35.645,-35.645,-30.273,-16.602
1692123104.190,-17.578,-24.902,-28.809,-13.672,-89.355
1692123104.194,-16.602,-30.273,-28.809,-19.531,-142.090
1692123104.198,-28.320,-45.410,-37.598,-30.762,68.848
1692123104.202,-27.344,-35.156,-36.133,-24.414,119.629
1692123104.206,-17.578,-31.250,-32.227,-16.113,-142.578
1692123104.219,-17.090,-38.086,-33.203,-16.602,-141.113
1692123104.223,-22.461,-37.598,-34.668,-22.461,-83.496
1692123104.227,-32.715,-39.062,-35.156,-29.297,-78.613
1692123104.231,-34.668,-34.668,-35.156,-23.438,-86.426
1692123104.235,-25.879,-32.715,-31.250,-14.648,-10.742
1692123104.239,-13.672,-30.273,-28.809,-7.812,353.027
1692123104.243,-17.578,-27.344,-29.785,-17.578,259.766
1692123104.246,-29.297,-32.715,-32.715,-36.133,-182.129
1692123104.250,-32.715,-33.691,-31.250,-33.691,-113.770
1692123104.254,-27.832,-33.203,-35.156,-20.996,83.008
1692123104.258,-30.273,-35.645,-40.039,-26.367,-50.293
1692123104.262,-30.762,-30.762,-31.738,-41.504,-134.277
1692123104.266,-23.438,-30.273,-19.531,-51.758,-68.848
1692123104.270,-24.902,-30.273,-20.508,-55.664,-64.453
1692123104.274,-22.949,-23.438,-26.855,-43.945,-127.441
1692123104.278,-20.508,-27.344,-26.367,-33.691,-110.352
1692123104.282,-18.066,-35.156,-25.391,-29.785,-82.520
1692123104.286,-17.578,-38.574,-28.320,-34.668,-17.578
1692123104.290,-23.926,-35.156,-27.344,-37.109,20.020
1692123104.293,-24.414,-29.785,-24.902,-22.461,-77.148
1692123104.297,-21.484,-37.598,-27.344,-6.836,154.297
1692123104.301,-15.625,-36.621,-27.832,-5.371,312.012
1692123104.305,-16.602,-25.879,-26.367,-13.184,-72.266
1692123104.309,-26.855,-31.250,-28.809,-16.602,-205.078
1692123104.310,-28.320,-26.855,-27.832,-6.836,-145.020
1692123104.314,-22.461,-21.973,-24.902,2.441,-126.465
1692123104.318,-24.414,-22.949,-30.762,-3.418,-136.719
1692123104.322,-29.297,-21.484,-36.133,-16.602,-99.121
1692123104.326,-39.062,-32.227,-34.180,-30.762,-48.828
1692123104.330,-32.227,-31.250,-30.273,-26.367,-60.059
1692123104.334,-17.578,-28.809,-30.273,-10.254,-23.438
1692123104.337,-17.090,-34.668,-36.621,-8.789,67.383
1692123104.341,-19.531,-31.738,-40.039,-13.672,373.535
1692123104.345,-23.438,-22.461,-37.598,-22.461,324.707
1692123104.349,-21.973,-21.484,-35.645,-24.414,-93.262
1692123104.353,-16.602,-29.785,-37.598,-22.949,-111.328
1692123104.356,-8.301,-22.949,-38.086,-15.137,-106.934
1692123104.360,-11.719,-20.508,-37.109,-21.973,-212.891
1692123104.364,-22.461,-33.691,-42.480,-46.875,-173.828
1692123104.368,-19.043,-34.180,-39.551,-44.434,-110.352
1692123104.372,-23.438,-32.715,-36.621,-37.598,-67.383
1692123104.376,-26.855,-35.645,-32.715,-41.504,43.457
1692123104.380,-22.949,-31.738,-31.738,-41.504,11.719
1692123104.383,-34.180,-33.203,-31.738,-45.898,127.441
1692123104.387,-43.457,-37.109,-29.785,-43.457,110.840
1692123104.391,-34.668,-31.250,-29.297,-38.086,-156.250
1692123104.395,-24.902,-27.344,-24.414,-39.062,-56.641
1692123104.399,-30.273,-32.715,-27.832,-44.922,24.902
1692123104.400,-35.156,-36.133,-34.180,-45.410,-91.797
1692123104.404,-44.434,-32.715,-26.367,-40.527,-200.195
1692123104.408,-54.199,-30.762,-23.438,-32.715,-104.492
1692123104.412,-46.387,-37.109,-27.832,-25.879,-13.672
1692123104.416,-38.574,-32.715,-25.879,-18.066,-23.438
1692123104.420,-42.969,-28.320,-24.902,-22.461,-23.926
1692123104.424,-51.270,-36.133,-30.273,-33.691,38.086
1692123104.427,-49.316,-40.527,-32.227,-24.414,375.488
1692123104.431,-38.086,-32.715,-34.180,-14.648,272.461
1692123104.435,-32.715,-25.391,-36.133,-25.879,-178.223
1692123104.439,-36.621,-33.203,-29.785,-34.180,-162.598
1692123104.443,-41.504,-40.039,-27.832,-35.645,-128.906
1692123104.461,-44.434,-40.039,-37.598,-35.645,-125.488
1692123104.465,-37.109,-34.668,-40.039,-31.250,-69.824
1692123104.469,-31.250,-34.180,-35.156,-34.180,-0.488
1692123104.473,-28.809,-27.832,-31.738,-39.551,-29.297
1692123104.477,-30.762,-22.949,-30.273,-43.457,-197.266
1692123104.481,-30.762,-34.180,-30.273,-38.574,-145.020
1692123104.485,-21.484,-31.250,-27.832,-28.320,168.945
1692123104.488,-13.184,-25.879,-32.227,-30.762,233.398
1692123104.492,-20.996,-30.762,-38.574,-43.457,-138.672
1692123104.496,-31.738,-35.156,-32.715,-52.246,-201.660
1692123104.500,-29.785,-39.062,-23.926,-43.945,-118.164
1692123104.504,-20.020,-34.668,-28.809,-36.621,-56.641
1692123104.490,-14.648,-34.668,-34.180,-27.832,-66.895
1692123104.494,-15.625,-34.668,-27.832,-30.273,-90.332
1692123104.498,-20.020,-27.832,-28.809,-47.363,-62.500
1692123104.502,-29.297,-27.344,-34.668,-44.434,-45.898
1692123104.506,-25.391,-25.391,-28.320,-30.273,-87.402
1692123104.510,-16.602,-14.648,-23.438,-15.137,67.383
1692123104.514,-24.902,-25.391,-28.809,-25.391,419.922
1692123104.517,-32.227,-36.621,-32.227,-43.945,143.555
1692123104.521,-33.203,-34.668,-32.227,-38.574,-224.121
1692123104.525,-21.484,-35.645,-33.691,-16.602,-89.355
1692123104.529,-13.184,-29.297,-26.367,7.812,304.688
1692123104.533,-30.762,-30.762,-22.461,-11.719,175.293
1692123104.565,-53.223,-42.969,-25.391,-45.898,-236.328
1692123104.569,-61.035,-48.340,-22.949,-44.922,-170.898
1692123104.573,-43.945,-45.410,-26.855,-28.809,-82.031
1692123104.577,-32.227,-38.574,-24.902,-24.902,-144.531
1692123104.581,-28.320,-33.691,-15.137,-23.438,-133.301
1692123104.585,-27.832,-24.414,-14.648,-23.438,-52.246
1692123104.589,-34.668,-20.020,-20.996,-32.715,60.059
1692123104.592,-35.645,-21.484,-24.414,-33.691,59.082
1692123104.596,-34.180,-30.762,-25.879,-29.297,-58.594
1692123104.600,-36.133,-40.039,-27.344,-26.367,148.926
1692123104.604,-38.086,-36.621,-26.367,-34.668,194.824
1692123104.608,-38.574,-31.738,-27.832,-47.852,-201.660
1692123104.583,-29.297,-27.832,-27.832,-43.945,-210.938
1692123104.587,-20.508,-28.320,-24.414,-23.926,-84.961
1692123104.591,-30.273,-34.668,-29.297,-22.461,-102.539
1692123104.595,-35.156,-35.156,-30.273,-39.062,-198.242
1692123104.599,-38.086,-31.250,-25.391,-39.551,-90.820
1692123104.603,-35.156,-35.645,-28.320,-32.227,126.953
1692123104.607,-28.320,-35.645,-30.273,-17.578,154.297
1692123104.610,-29.297,-29.297,-34.180,-12.695,113.770
1692123104.614,-35.645,-34.180,-35.645,-30.273,106.445
1692123104.618,-42.480,-41.016,-34.668,-32.227,100.098
1692123104.622,-34.668,-38.574,-33.691,-15.625,-66.406
1692123104.626,-28.809,-38.574,-31.250,-11.230,-147.949
1692123104.641,-32.227,-34.180,-33.203,-21.484,-42.480
1692123104.645,-31.250,-19.043,-32.227,-25.391,-54.688
1692123104.649,-42.969,-26.855,-30.762,-32.715,-188.965
1692123104.653,-48.828,-41.992,-34.180,-33.203,-226.074
1692123104.657,-40.527,-39.551,-36.133,-17.090,33.203
1692123104.661,-31.250,-27.832,-28.809,-6.348,519.043
1692123104.665,-39.551,-25.879,-25.879,-24.414,278.320
1692123104.668,-50.293,-42.480,-32.227,-45.410,-160.156
1692123104.672,-39.551,-41.504,-30.273,-37.109,-12.207
1692123104.676,-31.250,-33.691,-25.391,-24.414,35.156
1692123104.680,-26.855,-31.738,-25.391,-25.879,-117.188
1692123104.684,-31.738,-22.461,-29.297,-39.062,-85.449
1692123104.685,-42.969,-27.344,-32.715,-49.316,-31.250
1692123104.689,-48.340,-40.039,-39.062,-53.711,-33.203
1692123104.693,-39.062,-29.297,-34.668,-42.969,-138.672
1692123104.697,-32.227,-23.926,-28.320,-31.250,-104.492
1692123104.701,-42.969,-26.367,-31.250,-31.250,10.254
1692123104.705,-44.922,-19.043,-30.273,-31.250,-21.484
1692123104.709,-40.039,-23.926,-28.809,-32.715,-88.379
1692123104.712,-37.109,-29.785,-30.762,-26.855,7.812
1692123104.716,-33.691,-30.762,-28.320,-15.625,320.312
1692123104.720,-38.086,-37.109,-35.645,-26.855,207.520
1692123104.724,-37.109,-33.203,-39.551,-35.156,-209.961
1692123104.728,-39.551,-35.645,-37.109,-34.668,-231.445
1692123104.733,-44.434,-44.922,-39.062,-40.039,-121.094
1692123104.737,-37.109,-41.992,-37.598,-41.992,-64.453
1692123104.741,-28.320,-22.461,-29.785,-34.180,-157.715
1692123104.745,-32.227,-12.207,-27.832,-33.691,-28.320
1692123104.749,-38.086,-23.926,-40.527,-48.828,43.457
1692123104.753,-33.203,-35.645,-44.922,-43.945,-29.297
1692123104.757,-25.391,-37.109,-40.039,-25.391,24.414
1692123104.760,-23.438,-35.156,-39.551,-28.809,164.551
1692123104.764,-37.598,-35.645,-38.574,-52.734,157.227
1692123104.768,-44.434,-32.715,-34.180,-60.059,-183.105
1692123104.772,-30.273,-27.832,-29.785,-41.016,-206.055
1692123104.776,-24.414,-30.762,-32.227,-33.691,-125.488
1692123104.775,-26.367,-35.156,-40.527,-42.969,-144.531
1692123104.779,-28.320,-33.203,-34.668,-38.574,-167.480
1692123104.783,-26.855,-25.391,-28.320,-34.668,-162.598
1692123104.787,-28.320,-24.902,-29.785,-39.062,-52.734
1692123104.791,-28.320,-34.180,-27.344,-29.785,56.152
1692123104.795,-26.855,-41.016,-29.297,-26.855,28.320
1692123104.799,-34.668,-45.898,-33.691,-42.480,43.457
1692123104.802,-45.410,-47.363,-30.273,-41.504,348.145
1692123104.806,-44.922,-44.434,-26.367,-26.855,415.039
1692123104.810,-32.227,-41.016,-23.926,-19.531,-14.160
1692123104.814,-23.926,-41.016,-23.926,-20.020,-112.305
1692123104.818,-28.809,-32.715,-25.391,-23.926,-39.551
1692123104.821,-37.109,-25.391,-26.855,-27.344,-229.004
1692123104.825,-31.250,-31.250,-34.668,-32.715,-244.141
1692123104.829,-26.367,-33.203,-35.156,-28.320,-79.590
1692123104.833,-18.066,-33.203,-38.086,-22.949,-32.227
1692123104.837,-13.184,-36.133,-35.645,-25.879,-101.074
1692123104.841,-30.762,-25.391,-18.555,-42.480,-107.422
1692123104.845,-39.551,-20.996,-16.113,-49.805,191.895
1692123104.848,-27.832,-31.250,-18.066,-39.551,270.508
1692123104.852,-27.832,-32.715,-24.414,-41.016,-110.840
1692123104.856,-33.691,-28.809,-21.484,-47.852,-177.734
1692123104.860,-44.434,-28.809,-15.137,-57.129,-59.570
1692123104.864,-42.480,-20.508,-22.461,-49.805,-86.426
1692123104.865,-33.203,-18.066,-24.414,-32.715,-197.266
1692123104.869,-31.738,-21.484,-20.996,-28.809,-96.191
1692123104.873,-30.273,-22.461,-19.531,-27.832,-42.969
1692123104.877,-38.574,-21.973,-20.020,-38.574,-149.902
1692123104.881,-41.992,-17.578,-24.414,-45.898,-165.039
1692123104.885,-34.180,-25.879,-26.367,-35.645,-33.691
1692123104.889,-27.832,-33.691,-24.414,-20.508,358.398
1692123104.892,-34.180,-27.832,-25.391,-18.066,331.055
1692123104.896,-38.574,-19.043,-24.902,-28.320,-142.090
1692123104.900,-38.086,-22.461,-27.832,-36.621,-101.562
1692123104.904,-38.574,-25.391,-29.297,-32.715,3.906
1692123104.908,-29.785,-23.926,-28.320,-23.438,-151.367
1692123104.925,-23.438,-26.855,-31.250,-27.832,-170.898
1692123104.929,-24.414,-25.879,-29.785,-33.691,-88.867
1692123104.933,-24.902,-23.438,-22.949,-26.855,-124.023
1692123104.937,-20.020,-27.832,-21.973,-9.766,-152.344
1692123104.941,-12.207,-26.367,-19.043,0.488,-92.773
1692123104.945,-11.230,-24.902,-16.602,-8.789,50.293
1692123104.949,-17.578,-34.180,-27.344,-22.949,115.234
1692123104.952,-23.926,-34.180,-32.227,-23.926,-32.227
1692123104.956,-24.414,-31.250,-31.250,-21.973,-133.789
1692123104.960,-19.043,-31.738,-27.344,-18.066,106.445
1692123104.964,-21.484,-24.902,-27.344,-15.137,231.445
1692123104.968,-35.645,-22.949,-29.297,-25.391,-31.738
1692123104.984,-41.016,-30.762,-24.902,-28.809,-113.281
1692123104.988,-39.062,-28.809,-25.879,-17.090,-10.742
1692123104.992,-35.156,-36.621,-34.180,-17.578,-4.883
1692123104.996,-32.715,-44.922,-34.180,-26.367,-127.441
1692123105.000,-33.203,-38.086,-29.785,-23.926,-59.570
1692123105.004,-34.180,-37.598,-36.621,-32.715,70.801
1692123105.008,-38.574,-41.504,-35.645,-34.180,2.441
1692123105.011,-28.320,-32.715,-27.344,-25.391,33.203
1692123105.015,-26.367,-27.832,-31.250,-25.879,96.191
1692123105.019,-35.645,-29.785,-33.691,-29.785,281.250
1692123105.023,-38.086,-27.832,-33.691,-47.363,91.309
1692123105.027,-42.969,-32.715,-36.133,-56.152,-181.152
1692123105.031,-33.691,-37.109,-32.227,-41.992,-94.238
1692123105.035,-20.996,-36.133,-26.367,-25.391,-37.109
1692123105.039,-24.414,-33.203,-28.809,-30.762,-90.820
1692123105.043,-39.062,-34.668,-34.668,-46.875,-230.957
1692123105.047,-44.434,-37.109,-35.156,-45.410,-57.129
1692123105.051,-30.762,-36.621,-30.762,-27.832,54.688
1692123105.055,-17.578,-30.762,-28.809,-14.160,-31.250
1692123105.058,-19.531,-27.832,-28.809,-24.414,-51.758
1692123105.062,-33.691,-35.645,-30.762,-43.945,-66.406
1692123105.066,-34.668,-40.039,-28.809,-36.133,-47.363
1692123105.070,-27.344,-46.875,-27.832,-29.297,-118.164
1692123105.074,-16.602,-47.363,-30.762,-28.809,-159.180
1692123105.059,-12.207,-38.574,-33.203,-21.484,156.250
1692123105.063,-20.996,-36.133,-33.203,-22.461,196.289
1692123105.067,-27.344,-41.504,-32.715,-16.602,-211.914
1692123105.071,-24.414,-41.992,-33.203,-11.719,-124.512
1692123105.075,-8.789,-28.320,-30.273,-4.883,79.102
1692123105.079,-12.207,-22.949,-29.785,-13.672,15.137
1692123105.083,-25.879,-33.203,-32.715,-29.785,-62.012
1692123105.086,-25.879,-38.086,-34.668,-32.715,28.320
1692123105.090,-37.598,-37.109,-34.668,-28.809,123.047
1692123105.094,-43.457,-43.457,-36.133,-30.273,-10.254
1692123105.098,-34.180,-43.945,-31.738,-37.598,-171.387
1692123105.102,-36.133,-28.809,-28.809,-41.992,-58.594
