timestamps,TP9,AF7,AF8,TP10,Right AUX
1687268580.510,-46.875,-18.066,-15.625,-31.250,-180.664
1687268580.514,-35.645,-15.137,-15.625,-14.160,-102.539
1687268580.518,-22.949,-17.578,-16.602,-16.113,52.246
1687268580.522,-29.785,-21.973,-16.113,-34.668,3.418
1687268580.526,-35.156,-20.996,-11.719,-29.297,-152.832
1687268580.530,-29.297,-18.066,-5.371,-31.738,-23.438
1687268580.534,-41.992,-12.695,-7.324,-34.668,185.059
1687268580.537,-43.457,-11.230,-14.648,-30.762,46.387
1687268580.541,-34.180,-7.812,-10.254,-27.832,-111.328
1687268580.545,-33.203,-3.906,-3.906,-36.621,-158.691
1687268580.549,-39.062,-8.301,-6.348,-35.645,215.820
1687268580.553,-44.434,-5.371,-6.348,-39.062,293.945
1687268580.556,-58.594,0.488,-2.930,-58.594,-152.832
1687268580.560,-79.102,-0.977,-6.836,-73.242,-202.148
1687268580.564,-95.215,-4.395,-8.301,-85.449,-115.723
1687268580.568,-91.309,-1.953,-6.348,-88.379,-204.102
1687268580.572,-79.102,1.953,-9.766,-70.801,-216.309
1687268580.576,-97.656,-5.371,-2.441,-78.125,42.969
1687268580.580,-118.652,-0.977,4.395,-109.863,165.527
1687268580.583,-121.094,19.043,-2.930,-121.094,-72.266
1687268580.587,-115.234,19.043,-9.277,-143.555,-142.578
1687268580.591,-129.883,10.254,-9.277,-150.391,55.176
1687268580.595,-138.184,22.461,-9.277,-159.180,38.086
1687268580.599,-125.977,28.320,-3.906,-156.250,-170.410
1687268580.614,-127.930,25.391,-3.418,-138.672,-130.371
1687268580.618,-121.094,30.273,-6.348,-133.789,113.281
1687268580.622,-113.281,27.832,-6.836,-135.742,98.633
1687268580.626,-120.605,29.297,-15.137,-146.484,-132.324
1687268580.630,-122.559,33.691,-17.578,-118.164,-80.566
1687268580.634,-109.375,31.738,-19.531,-108.398,272.461
1687268580.638,-112.793,30.762,-18.555,-133.789,237.305
1687268580.641,-96.680,29.785,-16.602,-128.418,-149.414
1687268580.645,-76.660,31.250,-14.160,-108.398,-190.430
1687268580.649,-54.199,35.645,-12.695,-82.520,5.371
1687268580.653,-29.297,32.715,-20.020,-54.199,-41.992
1687268580.657,-30.273,17.090,-24.414,-51.270,-151.367
1687268580.660,-16.602,7.812,-18.066,-24.414,3.418
1687268580.664,-8.301,10.742,-19.531,-15.137,71.289
1687268580.668,-0.488,10.254,-23.438,-18.555,-73.730
1687268580.672,16.602,3.906,-20.508,-5.859,-171.875
1687268580.676,32.227,-0.488,-14.160,19.043,-94.727
1687268580.680,23.438,-11.230,-12.207,41.992,15.137
1687268580.684,17.578,-21.484,-13.184,46.387,-52.246
1687268580.687,42.969,-23.438,-14.160,33.691,-149.902
1687268580.691,54.199,-29.297,-14.648,45.410,5.371
1687268580.695,51.758,-35.156,-17.578,80.566,176.758
1687268580.699,43.945,-41.016,-18.066,67.383,-88.867
1687268580.703,43.457,-39.551,-15.137,37.109,-124.023
1687268580.704,64.941,-38.086,-18.555,43.945,-32.715
1687268580.708,74.707,-39.062,-17.090,50.293,-68.848
1687268580.712,65.430,-40.527,-20.508,57.617,-77.637
1687268580.716,62.012,-42.969,-16.602,58.594,-4.883
1687268580.720,70.312,-42.480,-7.812,54.688,204.590
1687268580.724,55.176,-44.434,-18.066,39.551,243.164
1687268580.728,35.156,-44.434,-23.438,41.016,9.277
1687268580.731,39.062,-41.992,-15.625,51.270,-41.504
1687268580.735,43.457,-43.945,-18.555,43.945,183.105
1687268580.739,33.691,-46.875,-29.785,20.020,4.883
1687268580.743,32.715,-50.293,-28.809,26.367,-234.375
1687268580.747,34.668,-50.781,-23.926,42.969,-138.184
1687268580.749,19.043,-48.828,-18.555,33.203,-68.848
1687268580.753,12.695,-44.922,-14.160,31.738,-117.188
1687268580.757,16.113,-44.434,-15.137,26.367,-147.949
1687268580.761,19.531,-37.598,-14.160,13.672,-118.164
1687268580.765,5.371,-35.156,-11.230,34.668,-85.938
1687268580.769,0.977,-31.738,-7.812,45.410,-52.734
1687268580.773,17.090,-29.297,-7.324,12.695,-38.086
1687268580.776,17.090,-30.273,-8.301,3.906,118.652
1687268580.780,8.789,-28.809,-5.859,30.762,324.219
1687268580.784,11.719,-28.320,-11.719,30.762,3.906
1687268580.788,15.137,-23.926,-10.742,12.695,-171.387
1687268580.792,21.484,-21.973,-2.930,22.461,-104.492
1687268580.795,10.742,-23.926,-9.766,33.691,-190.430
1687268580.799,3.906,-21.973,-17.090,28.320,-206.543
1687268580.803,-1.465,-23.926,-15.137,23.438,-62.988
1687268580.807,4.395,-27.344,-14.160,12.695,167.969
1687268580.811,18.066,-25.879,-16.602,-2.441,39.551
1687268580.815,12.207,-21.484,-14.648,0.000,-113.281
1687268580.819,18.555,-16.113,-9.277,5.859,8.301
1687268580.822,23.926,-16.602,-8.789,1.953,290.527
1687268580.826,10.254,-20.508,-13.184,-6.836,229.004
1687268580.830,-4.395,-24.902,-18.066,-14.160,-141.113
1687268580.834,-23.926,-25.879,-19.531,4.883,-205.078
1687268580.838,-17.090,-24.902,-21.973,20.020,-158.691
1687268580.840,-0.977,-28.320,-24.414,5.859,-193.848
1687268580.844,-16.602,-31.250,-21.484,-2.930,-234.863
1687268580.848,-16.602,-32.715,-16.113,-8.301,-201.660
1687268580.852,-7.324,-33.203,-10.742,-9.766,-165.039
1687268580.856,-2.930,-29.785,-11.230,-2.930,-173.340
1687268580.860,-2.441,-27.832,-10.742,-11.230,-95.703
1687268580.864,-5.859,-27.832,-8.301,-10.254,161.621
1687268580.867,-21.973,-30.273,-8.789,-7.324,304.688
1687268580.871,-28.809,-32.227,-8.301,-12.695,-70.801
1687268580.875,-28.809,-28.320,-6.836,-13.184,-219.238
1687268580.879,-30.762,-16.602,-10.254,-13.184,13.672
1687268580.883,-23.926,-13.672,-18.066,-0.488,21.484
1687268580.884,-13.672,-16.602,-22.949,-8.789,-107.910
1687268580.888,-20.996,-18.555,-22.461,-26.367,-125.488
1687268580.892,-16.602,-20.020,-17.090,-1.465,122.559
1687268580.896,-16.602,-22.461,-12.207,-2.441,78.613
1687268580.900,-46.387,-25.391,-15.625,-44.922,-157.227
1687268580.904,-41.504,-15.625,-20.996,-66.406,19.531
1687268580.908,-19.043,-8.789,-22.949,-51.758,274.902
1687268580.911,-32.227,-18.555,-32.227,-71.777,45.410
1687268580.915,-29.297,-22.949,-34.180,-66.895,-145.996
1687268580.919,-28.809,-19.043,-27.832,-39.551,-68.359
1687268580.923,-44.922,-23.926,-28.809,-48.828,-50.293
1687268580.927,-31.738,-24.414,-25.879,-41.504,-138.184
1687268580.932,-16.113,-19.043,-23.438,-30.273,-172.363
1687268580.936,-24.902,-19.531,-19.043,-29.785,-51.270
1687268580.940,-31.250,-20.996,-15.137,-39.551,31.738
1687268580.944,-28.809,-17.090,-15.625,-46.875,-103.516
1687268580.948,-19.043,-14.160,-16.113,-27.832,-175.293
1687268580.952,-13.184,-17.578,-14.160,-23.926,13.184
1687268580.956,-20.020,-17.578,-14.160,-28.320,88.867
1687268580.959,-19.043,-17.578,-18.066,-13.672,-56.152
1687268580.963,-28.809,-21.484,-21.973,-15.625,-132.324
1687268580.967,-23.926,-22.461,-11.719,-20.996,31.738
1687268580.971,-37.109,-22.949,-11.719,-24.902,87.891
1687268580.975,-48.828,-26.855,-18.555,-25.391,-91.797
1687268580.990,-32.715,-28.320,-17.090,-18.555,-62.500
1687268580.994,-28.809,-22.949,-19.531,-21.484,124.512
1687268580.998,-30.273,-21.484,-18.066,-12.695,105.469
1687268581.002,-20.508,-24.414,-12.207,-17.578,-37.598
1687268581.006,-16.113,-29.297,-11.719,-26.367,-49.316
1687268581.010,-30.273,-30.273,-14.160,-11.230,317.383
1687268581.014,-35.156,-24.414,-18.555,-14.648,560.059
1687268581.017,-33.691,-20.020,-18.066,-46.875,52.246
1687268581.021,-32.227,-19.043,-15.137,-43.457,-161.621
1687268581.025,-34.180,-21.973,-23.438,-6.836,20.020
1687268581.029,-25.391,-20.996,-27.344,-21.484,-93.750
1687268581.033,-35.156,-29.785,-20.020,-36.133,-140.625
1687268581.035,-49.805,-34.180,-13.672,-32.227,-99.609
1687268581.039,-41.504,-27.344,-15.137,-39.551,-84.961
1687268581.043,-29.785,-20.020,-13.672,-40.527,-131.836
1687268581.047,-16.113,-19.531,-11.719,-28.320,-149.902
1687268581.051,-11.719,-22.949,-14.160,-46.387,-83.984
1687268581.055,-5.859,-19.043,-15.625,-73.242,-26.367
1687268581.059,-8.301,-18.555,-18.066,-76.660,29.297
1687268581.062,-8.789,-20.020,-20.508,-53.711,-59.082
1687268581.066,-11.230,-14.160,-24.902,-59.082,85.938
1687268581.070,0.977,-12.695,-25.879,-69.336,341.797
1687268581.074,30.273,-14.648,-21.484,-68.359,-15.625
1687268581.078,35.156,-14.160,-16.602,-54.688,-215.332
1687268581.080,-11.230,-12.695,-15.137,-40.039,-69.336
1687268581.084,-56.152,-17.578,-10.254,-40.527,-117.188
1687268581.088,-58.594,-20.020,-0.488,-39.551,-97.168
1687268581.092,-87.891,-20.996,-2.930,-46.387,-96.191
1687268581.096,-101.074,-20.996,-11.230,-50.293,50.781
1687268581.100,-98.145,-18.066,-14.160,-47.852,52.734
1687268581.104,-124.023,-21.484,-16.113,-57.129,-59.570
1687268581.107,-115.723,-22.461,-14.648,-39.551,-29.297
1687268581.111,-98.145,-15.137,-1.953,-32.227,266.602
1687268581.115,-107.910,-17.090,-6.348,-74.219,211.426
1687268581.119,-87.891,-9.277,-17.578,-113.281,-189.941
1687268581.123,-83.496,-6.836,-15.625,-138.184,-201.172
1687268581.124,-88.379,-11.230,-9.277,-134.277,-123.047
1687268581.128,-75.684,-14.160,1.953,-104.004,-121.094
1687268581.132,-93.262,-8.789,3.906,-96.191,-143.555
1687268581.136,-125.488,6.836,-6.836,-142.578,-146.973
1687268581.140,-118.652,20.996,-7.812,-165.039,-104.492
1687268581.144,-127.441,26.367,-5.859,-166.992,-53.223
1687268581.148,-142.578,24.902,-3.906,-161.621,-49.316
1687268581.151,-145.020,19.531,-1.953,-156.738,74.219
1687268581.155,-127.441,18.555,-6.836,-153.809,212.402
1687268581.159,-102.051,28.809,-9.766,-127.930,-91.797
1687268581.163,-119.629,25.391,-8.301,-120.117,-138.672
1687268581.167,-110.352,19.043,-14.160,-144.043,105.469
1687268581.171,-90.332,7.812,-19.531,-136.719,-56.152
1687268581.175,-73.730,-4.883,-19.043,-104.492,-232.910
1687268581.179,-56.641,-13.184,-12.207,-88.379,-123.047
1687268581.183,-44.434,-16.113,-11.230,-56.641,139.160
1687268581.187,-32.715,-20.508,-18.066,-62.988,105.957
1687268581.191,-16.602,-28.320,-14.648,-51.758,28.809
1687268581.195,14.648,-25.391,-6.836,3.418,95.215
1687268581.198,1.465,-30.762,-11.719,16.113,197.754
1687268581.202,12.207,-36.133,-20.508,-20.020,49.805
1687268581.206,63.477,-29.785,-26.855,-27.832,-146.973
1687268581.210,0.488,-43.457,-33.691,-22.461,-98.633
1687268581.214,-35.156,-58.105,-40.039,-24.902,-116.211
1687268581.218,-4.883,-52.734,-33.203,10.254,-145.508
1687268581.222,13.672,-41.016,-30.273,33.203,-22.949
1687268581.226,14.160,-47.363,-30.273,23.438,53.223
1687268581.230,-0.488,-44.922,-32.227,11.230,6.348
1687268581.234,4.883,-46.875,-28.809,-6.836,-127.441
1687268581.238,-4.883,-60.547,-14.160,6.348,-122.070
1687268581.242,-8.789,-57.617,-13.672,35.645,110.840
1687268581.245,12.207,-47.363,-43.457,13.184,162.109
1687268581.249,7.324,-48.828,-49.805,10.254,-96.680
1687268581.253,-14.648,-58.594,-18.555,21.973,-171.387
1687268581.257,-14.160,-56.641,-7.324,8.301,1.953
1687268581.261,2.441,-51.270,-20.508,15.625,41.016
1687268581.260,0.000,-62.988,-26.367,-1.953,-112.305
1687268581.264,-1.953,-62.988,-35.645,-25.391,-87.891
1687268581.268,4.883,-54.688,-32.715,-10.254,93.262
1687268581.272,-13.672,-49.805,-26.855,20.996,45.410
1687268581.276,-10.254,-53.711,-29.785,38.574,-52.734
1687268581.280,-28.809,-60.059,-36.133,-9.277,-30.273
1687268581.284,-31.738,-49.316,-52.246,-61.035,321.289
1687268581.287,7.812,-54.199,-56.641,-34.180,375.488
1687268581.291,22.949,-58.594,-62.012,0.977,-122.559
1687268581.295,-6.348,-48.340,-27.832,12.695,-238.281
1687268581.299,-42.480,-57.617,-17.090,-53.223,-146.973
1687268581.303,-32.227,-61.035,-32.715,-55.664,-198.242
1687268581.320,-58.594,-73.730,-41.504,-44.922,-191.406
1687268581.324,-66.406,-93.750,-51.270,-89.355,-117.676
1687268581.328,-41.992,-77.148,-26.367,-6.836,-84.473
1687268581.332,-66.406,-72.266,-52.734,-21.973,-77.148
1687268581.336,-66.406,-66.895,-67.871,-73.242,-81.055
1687268581.340,-35.156,-52.734,-53.223,-76.172,37.109
1687268581.344,-43.457,-61.523,-75.684,-119.141,179.199
1687268581.347,-87.891,-74.219,-83.984,-119.141,45.410
1687268581.351,-94.238,-88.379,-83.984,-87.402,-145.996
1687268581.355,-103.516,-101.074,-88.379,-74.707,49.805
1687268581.359,-123.047,-119.141,-104.980,-88.867,270.996
1687268581.363,-114.258,-129.883,-115.234,-111.328,-45.898
1687268581.365,-117.676,-141.113,-121.582,-152.344,-147.461
1687268581.369,-142.578,-153.320,-140.137,-182.129,127.441
1687268581.373,-150.879,-168.457,-153.809,-158.691,102.539
1687268581.377,-164.062,-184.082,-162.109,-154.297,-102.051
1687268581.381,-179.688,-196.777,-176.270,-209.473,-91.797
1687268581.385,-173.340,-209.473,-181.641,-204.102,168.457
1687268581.389,-185.059,-224.121,-191.895,-204.102,120.117
1687268581.392,-239.258,-245.605,-208.008,-257.324,-124.512
1687268581.396,-266.113,-260.254,-224.121,-250.488,-104.004
1687268581.400,-292.480,-272.949,-237.793,-271.484,273.926
1687268581.404,-295.410,-287.598,-249.023,-327.148,246.582
1687268581.408,-285.156,-293.457,-254.883,-339.355,-87.402
1687268581.410,-312.012,-310.547,-269.043,-349.609,-101.562
1687268581.414,-340.820,-333.984,-289.551,-350.586,-98.633
1687268581.418,-352.539,-351.074,-309.570,-368.652,-153.809
1687268581.422,-390.137,-370.605,-328.125,-394.531,-233.887
1687268581.426,-422.363,-386.230,-344.727,-437.012,-175.293
1687268581.430,-430.176,-402.832,-354.980,-463.379,-9.277
1687268581.434,-412.109,-409.668,-360.840,-446.289,11.719
1687268581.437,-393.066,-410.645,-368.164,-437.012,-61.523
1687268581.441,-440.430,-419.434,-368.652,-458.984,48.340
1687268581.445,-453.125,-415.527,-363.770,-458.984,194.824
1687268581.449,-432.617,-411.621,-364.746,-454.590,-42.480
1687268581.453,-410.156,-417.480,-349.609,-406.250,-39.062
1687268581.454,-349.121,-408.691,-321.289,-376.465,89.355
1687268581.458,-366.699,-379.883,-328.613,-425.781,6.348
1687268581.462,-422.363,-356.934,-344.238,-462.402,-72.754
1687268581.466,-412.109,-355.957,-344.727,-453.613,-102.539
1687268581.470,-397.461,-355.469,-334.473,-437.500,83.008
1687268581.474,-409.180,-349.609,-333.496,-459.961,55.176
1687268581.478,-414.062,-339.355,-338.867,-477.051,-59.570
1687268581.481,-408.203,-329.102,-337.402,-468.262,-42.969
1687268581.485,-404.785,-314.453,-339.355,-449.219,176.270
1687268581.489,-405.273,-299.316,-338.379,-476.074,49.316
1687268581.493,-409.180,-283.691,-324.707,-517.578,-178.711
1687268581.497,-403.320,-271.973,-305.664,-489.746,-106.934
1687268581.500,-372.070,-263.672,-297.363,-477.051,-103.516
1687268581.504,-382.324,-251.953,-294.434,-497.070,-73.730
1687268581.508,-375.977,-233.398,-279.785,-462.402,-79.590
1687268581.512,-339.355,-229.004,-261.230,-416.504,-83.008
1687268581.516,-320.801,-228.027,-242.676,-403.809,17.578
1687268581.520,-291.016,-215.332,-225.586,-373.535,17.090
1687268581.524,-260.742,-211.914,-216.797,-353.027,-29.297
1687268581.527,-245.117,-205.566,-206.055,-328.125,81.055
1687268581.531,-231.934,-195.801,-191.895,-306.152,257.812
1687268581.535,-207.520,-188.965,-179.199,-294.922,-80.078
1687268581.539,-182.129,-169.922,-163.086,-252.930,-256.836
1687268581.543,-187.012,-157.227,-144.531,-230.469,-66.895
1687268581.544,-178.711,-146.484,-130.371,-214.355,-107.422
1687268581.548,-155.273,-129.395,-118.652,-198.730,-184.082
1687268581.552,-137.695,-121.094,-108.398,-181.152,-65.430
1687268581.556,-124.023,-116.699,-102.051,-162.109,190.430
1687268581.560,-92.285,-108.398,-93.750,-153.320,143.066
1687268581.564,-67.383,-99.609,-78.613,-110.840,-36.621
1687268581.568,-82.031,-87.402,-61.523,-113.770,-0.977
1687268581.571,-78.125,-74.219,-47.363,-112.305,260.254
1687268581.575,-70.312,-58.594,-37.109,-92.773,192.383
1687268581.579,-65.918,-45.898,-24.414,-74.707,-145.996
1687268581.583,-38.086,-42.480,-18.066,-51.270,-156.250
1687268581.587,-16.113,-28.809,-15.625,-40.527,-104.004
1687268581.590,-12.695,-24.902,-12.207,-28.809,-153.809
1687268581.594,-8.301,-25.391,-4.883,-19.531,-206.055
1687268581.598,1.953,-15.137,5.859,-20.020,-110.352
1687268581.602,-4.883,-14.160,1.465,-27.344,-14.648
1687268581.606,0.488,-14.160,-5.859,-35.156,-50.293
1687268581.610,20.508,-10.254,0.000,-41.504,-80.566
1687268581.614,4.883,-9.766,3.418,-37.109,133.789
1687268581.617,1.953,-9.766,3.418,-21.973,475.098
1687268581.621,13.672,-6.836,1.953,-22.461,43.457
1687268581.625,-0.977,-2.930,3.418,-8.301,-228.027
1687268581.629,3.418,1.953,4.883,3.418,-101.074
1687268581.633,6.836,-1.465,5.859,-7.324,-158.203
1687268581.635,-17.090,-5.859,2.441,-7.812,-215.820
1687268581.639,-1.953,-3.906,4.395,7.324,-165.039
1687268581.643,40.527,-0.488,10.742,-2.441,75.195
1687268581.647,16.113,3.418,2.930,-12.207,21.973
1687268581.651,-0.488,1.465,-5.371,20.020,-160.645
1687268581.655,5.859,2.441,-2.441,6.348,-71.777
1687268581.659,13.672,12.695,10.254,10.742,318.848
1687268581.662,10.742,11.230,10.742,20.020,260.254
1687268581.666,8.789,11.230,4.883,5.859,-128.418
1687268581.670,-8.301,14.160,8.789,9.766,-82.520
1687268581.674,-20.020,10.742,12.207,28.320,8.301
1687268581.678,8.789,14.160,12.207,30.273,-108.398
1687268581.681,19.043,12.207,12.207,18.066,-182.617
1687268581.685,23.926,7.812,16.113,21.973,-100.586
1687268581.689,42.969,12.207,17.578,30.273,-88.867
1687268581.693,29.297,19.043,16.113,41.504,-184.570
1687268581.697,23.926,20.020,17.090,27.832,-214.355
1687268581.701,31.250,20.020,20.508,4.883,37.109
1687268581.705,29.297,22.949,23.926,27.344,188.965
1687268581.708,31.738,22.949,24.414,45.898,-30.762
1687268581.712,26.855,23.438,26.367,42.969,-121.582
1687268581.716,8.789,19.531,22.461,51.758,43.457
1687268581.720,2.930,13.184,12.695,61.035,58.105
1687268581.724,16.113,13.184,8.789,29.297,-25.879
1687268581.740,23.438,14.160,9.766,6.348,-11.230
1687268581.744,11.230,12.695,13.184,-0.488,74.707
1687268581.748,1.953,12.207,14.648,-2.441,38.574
1687268581.752,5.859,10.742,7.812,6.348,-138.672
1687268581.756,17.090,11.230,6.348,23.438,-173.828
1687268581.760,10.254,18.066,18.066,36.133,212.402
1687268581.764,6.836,16.113,16.602,28.320,358.887
1687268581.767,13.672,10.742,3.418,19.043,-36.133
1687268581.771,6.348,9.277,7.324,11.719,-112.793
1687268581.775,-5.859,0.488,7.812,0.488,7.812
1687268581.779,-20.508,-3.906,1.465,25.879,-99.609
1687268581.783,-11.230,-2.441,2.441,15.137,-159.668
1687268581.785,0.488,1.465,-6.348,-6.348,-108.398
1687268581.789,4.883,3.418,-6.348,14.648,-63.477
1687268581.793,-2.441,-4.395,3.906,28.809,-74.219
1687268581.797,4.883,-9.277,6.348,23.438,-145.996
1687268581.801,2.441,-8.301,10.742,23.926,-112.793
1687268581.805,-17.090,-4.395,0.977,24.414,59.082
1687268581.809,-1.953,0.000,-11.719,3.906,78.613
1687268581.812,-6.836,-2.441,-12.695,-11.719,-86.426
1687268581.816,-21.484,-1.465,-7.812,-9.277,-3.418
1687268581.820,-11.230,0.000,-10.742,-11.719,159.180
1687268581.824,-7.324,-2.441,-12.695,-7.324,-155.273
1687268581.828,-16.113,-5.371,-9.277,5.371,-193.848
1687268581.845,-14.648,-7.324,-5.859,8.301,-35.156
1687268581.849,-7.812,-2.930,-5.371,0.000,-72.754
1687268581.853,-11.719,-4.395,-12.695,1.465,-56.641
1687268581.857,1.465,-3.906,-15.625,11.719,-114.746
1687268581.861,19.531,0.000,-9.766,18.555,182.129
1687268581.865,-4.883,-3.418,-10.254,18.555,310.059
1687268581.869,-20.020,-7.324,-16.113,-8.789,33.203
1687268581.872,-7.324,-5.859,-15.625,-39.062,-62.500
1687268581.876,-0.488,-2.930,-14.160,-28.809,143.066
1687268581.880,7.812,0.977,-13.672,-20.996,25.879
1687268581.884,17.090,4.883,-8.301,-24.902,-238.770
1687268581.888,26.855,9.766,-7.812,-29.785,-188.477
1687268581.874,24.902,10.254,-13.184,-27.344,-179.688
1687268581.878,17.578,8.301,-14.160,-15.137,-205.566
1687268581.882,29.785,7.812,-15.137,-1.953,-189.453
1687268581.886,14.648,6.836,-7.812,2.930,-118.652
1687268581.890,-20.020,13.184,-1.953,8.301,-72.266
1687268581.894,-18.066,15.625,-2.441,22.461,-32.715
1687268581.898,-31.738,9.277,1.465,4.883,15.625
1687268581.901,-45.898,6.836,3.906,-9.277,125.488
1687268581.905,-46.387,0.977,0.977,6.348,57.617
1687268581.909,-44.922,2.441,-4.395,-7.324,-105.957
1687268581.913,-37.598,4.883,-11.719,-36.133,-185.059
1687268581.917,-35.645,1.953,-10.254,-32.715,43.945
1687268581.920,-43.945,-3.418,-2.930,-24.902,366.211
1687268581.924,-50.293,-1.465,-11.719,-27.344,46.387
1687268581.928,-46.875,10.254,-19.043,-27.832,-54.199
1687268581.932,-51.758,14.648,-11.719,-39.551,152.832
1687268581.936,-48.828,20.996,-22.949,-66.895,-3.906
1687268581.940,-8.301,37.109,-33.203,-40.039,-39.551
1687268581.944,-22.461,31.738,-17.090,-29.297,-3.418
1687268581.947,-69.824,15.625,0.000,-51.270,117.188
1687268581.951,-93.750,20.996,-1.465,-71.289,35.156
1687268581.955,-85.449,27.832,4.883,-79.590,-147.949
1687268581.959,-92.285,28.320,11.230,-84.961,-55.176
1687268581.963,-112.793,27.832,9.766,-88.379,-1.953
1687268581.964,-114.258,25.391,18.066,-88.379,-131.348
1687268581.968,-112.793,26.855,26.367,-95.703,-194.824
1687268581.972,-112.305,32.227,24.902,-90.332,-99.121
1687268581.976,-123.535,30.273,22.949,-97.656,-33.691
1687268581.980,-138.672,22.949,24.902,-111.816,-100.586
1687268581.984,-130.371,26.855,38.574,-106.445,-101.562
1687268581.988,-111.328,37.109,47.363,-107.422,79.590
1687268581.991,-103.516,41.992,43.457,-91.797,247.070
1687268581.995,-111.328,42.480,44.434,-87.891,-62.012
1687268581.999,-104.980,40.039,51.270,-95.703,-222.656
1687268582.003,-95.703,32.227,48.340,-90.332,-34.668
1687268582.007,-96.191,24.902,37.598,-84.961,0.977
1687268582.010,-65.430,17.090,29.785,-60.547,-93.262
1687268582.014,-36.133,10.742,21.973,-32.227,-145.508
1687268582.018,-12.207,2.930,23.926,6.836,137.695
1687268582.022,10.254,1.465,17.578,34.668,117.676
1687268582.026,25.879,-0.977,6.836,44.922,-253.418
1687268582.030,42.480,-4.883,11.230,46.875,-130.371
1687268582.034,54.688,-4.883,17.090,54.199,233.887
1687268582.037,55.176,-11.230,13.184,66.895,27.344
1687268582.041,60.547,-22.949,8.789,63.965,-207.031
1687268582.045,70.801,-25.391,10.254,74.219,-132.812
1687268582.049,78.125,-20.996,10.742,94.238,-55.176
1687268582.053,83.008,-23.926,10.254,90.332,-103.027
1687268582.057,82.520,-26.367,13.672,87.891,-165.039
1687268582.061,69.824,-24.902,12.695,116.211,-105.469
1687268582.065,66.406,-24.414,13.672,106.445,3.418
1687268582.069,71.289,-27.344,11.719,83.984,-64.941
1687268582.073,82.520,-21.973,7.324,94.238,-171.387
1687268582.077,91.797,-17.090,15.137,101.074,109.863
1687268582.081,81.543,-18.555,19.531,94.727,398.438
1687268582.084,75.684,-18.555,20.996,91.309,20.508
1687268582.088,51.758,-18.066,23.438,78.613,-207.031
1687268582.092,53.711,-14.648,16.602,81.543,-62.988
1687268582.096,66.895,-16.602,10.254,80.078,-33.203
1687268582.100,65.430,-20.996,12.695,65.430,-77.637
1687268582.115,87.891,-16.602,13.184,76.172,-64.941
1687268582.119,83.496,-10.742,9.277,66.895,37.109
1687268582.123,32.227,-14.160,2.930,54.199,0.000
1687268582.127,29.297,-16.113,7.812,70.312,-140.625
1687268582.131,46.387,-12.695,10.742,76.660,-96.680
1687268582.135,51.270,-11.719,7.324,65.430,275.879
1687268582.139,37.598,-11.719,8.301,58.105,276.855
1687268582.142,18.066,-14.160,4.883,54.688,-32.227
1687268582.146,29.785,-17.090,5.371,45.410,-88.867
1687268582.150,41.992,-18.555,9.277,48.828,123.535
1687268582.154,26.855,-16.602,2.441,45.898,-44.922
1687268582.158,29.297,-10.254,0.488,45.410,-207.031
1687268582.160,39.551,-7.812,4.395,38.574,-127.441
1687268582.164,30.762,-5.859,2.441,36.133,-129.395
1687268582.168,39.062,-3.418,3.906,48.828,-138.184
1687268582.172,42.969,-2.930,8.301,51.758,-127.930
1687268582.176,29.297,-2.930,13.672,40.039,-48.340
1687268582.180,30.273,-4.395,10.742,43.945,44.922
1687268582.184,31.738,-4.883,8.789,41.504,12.207
1687268582.187,20.508,-3.418,9.277,26.855,-15.137
1687268582.191,20.996,0.000,9.766,32.715,82.031
1687268582.195,33.691,-6.348,12.695,41.504,95.215
1687268582.199,20.996,-9.766,8.789,43.945,-105.469
1687268582.203,7.324,-7.324,2.930,44.434,-172.852
1687268582.205,33.203,-9.277,5.371,55.176,51.758
1687268582.209,13.184,-13.672,4.883,53.223,156.250
1687268582.213,-15.625,-16.602,-0.977,41.016,-28.809
1687268582.217,-16.113,-17.578,-2.930,12.695,-115.234
1687268582.221,-15.625,-15.137,-3.906,3.906,83.496
1687268582.225,-20.508,-15.625,-3.418,5.371,92.773
1687268582.229,-8.301,-11.230,1.953,0.000,-28.809
1687268582.232,7.324,-12.695,-3.418,12.695,-41.992
1687268582.236,-18.555,-20.996,-4.395,23.438,210.938
1687268582.240,-24.902,-19.043,-0.977,13.184,116.699
1687268582.244,-13.672,-13.672,-7.324,9.277,-156.250
1687268582.248,0.977,-12.207,-8.301,18.555,-143.555
1687268582.253,5.859,-11.230,-7.812,3.418,-56.641
1687268582.257,-18.555,-12.207,-5.371,6.836,-124.512
1687268582.261,-13.672,-11.719,-0.977,15.625,-222.168
1687268582.265,1.953,-11.230,-3.418,1.465,-142.090
1687268582.269,-15.137,-14.160,-8.789,0.000,-73.730
1687268582.273,-8.301,-13.184,-9.277,8.789,-17.090
1687268582.277,0.977,-14.648,-5.859,11.230,-50.293
1687268582.280,3.906,-16.602,-4.395,10.254,-29.297
1687268582.284,-6.836,-16.602,-4.883,17.578,202.148
1687268582.288,-12.695,-13.184,-5.859,1.465,-32.715
1687268582.292,1.953,-12.207,-1.465,-3.906,-138.672
1687268582.296,0.488,-15.137,0.000,8.789,-11.719
1687268582.295,0.977,-8.301,-4.395,18.066,-3.906
1687268582.299,-2.930,-3.418,-6.836,18.555,-50.293
1687268582.303,-26.367,-7.812,-3.418,2.930,-56.152
1687268582.307,-19.043,-13.184,-5.859,-8.301,84.961
1687268582.311,-7.324,-12.695,-6.836,-8.301,-1.465
1687268582.315,1.465,-10.742,-0.977,1.465,-118.652
1687268582.319,11.719,-13.672,-0.977,18.555,1.465
1687268582.322,12.695,-9.277,2.930,24.414,344.727
1687268582.326,-4.395,-6.348,2.441,15.625,439.941
1687268582.330,-24.902,-5.859,-2.930,14.648,10.742
1687268582.334,-17.090,-2.930,-2.441,-7.324,-211.914
1687268582.338,-12.207,-3.418,-2.930,-16.602,-164.062
1687268582.340,-7.812,-7.324,-10.742,-3.906,-139.160
1687268582.344,7.324,-8.301,-10.254,-2.441,-142.578
1687268582.348,21.973,-9.766,-4.395,-12.695,-59.570
1687268582.352,-1.953,-7.812,-7.324,-8.301,24.414
1687268582.356,-5.371,-5.371,-9.277,-7.324,-104.004
1687268582.360,13.672,-6.348,-6.348,-10.254,-135.742
1687268582.364,0.977,-0.977,-3.418,3.418,125.977
1687268582.367,-4.395,1.953,-2.441,16.113,355.469
1687268582.371,-12.207,-2.441,-4.883,0.977,27.832
1687268582.375,-27.344,-7.812,-7.324,-5.371,-152.344
1687268582.379,-9.766,-9.766,-3.906,16.113,-51.758
1687268582.383,9.277,-9.277,-0.977,19.531,-90.332
1687268582.385,1.465,-11.230,-4.395,6.836,-204.590
1687268582.389,-0.977,-7.812,-6.348,4.395,-144.043
1687268582.393,-1.465,-6.348,-3.418,2.441,192.871
1687268582.397,-5.859,-10.254,-4.395,-15.137,114.258
1687268582.401,0.977,-11.719,-3.418,-18.066,-123.047
1687268582.405,7.324,-9.766,-1.465,-2.441,-39.551
1687268582.409,9.766,-7.812,0.488,8.789,281.738
1687268582.412,-4.883,-7.324,-1.465,0.488,170.410
1687268582.416,-24.414,-8.789,-7.812,-16.113,-166.016
1687268582.420,-10.254,-7.324,-6.348,-13.184,-126.465
1687268582.424,2.930,-8.301,-6.836,8.301,214.844
1687268582.428,-6.836,-15.137,-10.742,-1.953,89.844
1687268582.431,-21.973,-14.160,-9.277,-24.414,-169.922
1687268582.435,-18.066,-7.324,-10.742,-13.672,-145.020
1687268582.439,-9.277,-9.277,-5.859,-10.254,-140.625
1687268582.443,0.488,-12.207,0.488,5.371,-145.508
1687268582.447,4.395,-9.277,0.977,15.137,-192.871
1687268582.451,-3.906,-6.836,0.000,-0.977,-71.289
1687268582.455,-14.648,-11.230,-5.371,-11.719,71.289
1687268582.458,-13.184,-16.113,-5.859,-7.812,-76.172
1687268582.462,-9.277,-14.160,-2.930,-13.184,-142.578
1687268582.466,-14.160,-14.648,-4.883,-15.137,-20.020
1687268582.470,-21.484,-19.531,-9.277,-5.859,125.488
1687268582.474,-23.438,-19.531,-14.160,-4.883,-77.148
1687268582.489,-12.207,-14.160,-3.906,1.953,-142.578
1687268582.493,-2.930,-7.324,10.742,-9.277,-28.320
1687268582.497,2.441,-6.348,6.348,-10.742,-12.207
1687268582.501,-2.441,-5.859,2.930,-2.441,-54.688
1687268582.505,-15.137,-6.348,0.488,-3.418,-87.402
1687268582.509,-7.812,-8.301,-1.953,6.836,254.883
1687268582.513,-6.836,-9.766,-5.371,-13.184,284.668
1687268582.516,-17.578,-8.789,-7.324,-27.344,-86.426
1687268582.520,-10.254,-5.859,-2.930,-9.766,-90.820
1687268582.524,-0.977,-6.836,0.488,9.766,111.328
1687268582.528,-5.859,-11.230,2.441,11.230,71.289
1687268582.532,-3.418,-10.742,1.465,4.395,-84.961
1687268582.535,0.488,-8.301,-1.465,-0.488,-107.910
1687268582.539,-7.324,-5.371,-3.906,-8.301,-59.082
1687268582.543,-20.508,-5.859,-1.953,-1.953,-165.039
1687268582.547,-16.113,-9.766,-2.441,5.859,-242.188
1687268582.551,-1.465,-11.230,-3.418,3.418,-100.098
1687268582.555,-9.277,-9.766,-3.906,-10.742,108.398
1687268582.559,-19.531,-7.812,-3.906,-17.090,-2.441
1687268582.562,-13.672,-11.230,-5.371,-10.254,-210.938
1687268582.566,-5.371,-15.625,-7.812,-3.418,-36.621
1687268582.570,-12.207,-16.113,-7.812,7.812,206.055
1687268582.574,-15.137,-20.020,-10.254,2.930,-17.578
1687268582.578,-27.832,-21.484,-13.672,-7.324,-124.023
1687268582.580,-38.574,-17.578,-17.578,-23.926,-3.418
1687268582.584,-32.715,-15.625,-14.648,-35.156,-3.906
1687268582.588,-22.461,-16.602,-8.789,-34.668,-64.941
1687268582.592,-0.488,-15.137,-13.672,-40.039,-130.371
1687268582.596,1.953,-14.648,-9.277,-20.508,123.535
1687268582.600,-15.137,-17.578,-6.836,-8.789,200.684
1687268582.604,-9.766,-13.672,-8.301,-13.672,-75.195
1687268582.607,-10.742,-12.695,-3.906,-11.719,-84.961
1687268582.611,-16.113,-11.719,-7.324,-15.625,216.797
1687268582.615,-13.672,-15.137,-17.090,-17.578,70.801
1687268582.619,-13.672,-21.973,-18.555,-17.578,-221.191
1687268582.623,-23.926,-20.020,-15.625,-23.926,-173.828
1687268582.624,-27.832,-15.625,-17.578,-23.926,-121.582
1687268582.628,-16.113,-15.625,-15.625,-10.742,-156.250
1687268582.632,-11.230,-14.160,-11.230,-10.254,-163.086
1687268582.636,-14.160,-13.672,-8.789,-6.836,-15.137
1687268582.640,-15.137,-18.066,-10.254,-18.066,11.719
1687268582.644,-9.766,-21.484,-17.090,-14.160,-17.090
1687268582.648,-16.113,-18.066,-17.090,-5.371,-87.891
1687268582.651,-13.672,-10.742,-19.531,-10.742,-60.059
1687268582.655,-31.738,-22.949,-18.066,-13.672,169.922
1687268582.659,-52.246,-33.691,-12.695,-15.625,-47.363
1687268582.663,-44.922,-27.832,-13.672,-5.371,-174.805
1687268582.667,-24.414,-22.461,-18.066,3.418,-32.715
1687268582.684,-11.719,-16.602,-18.555,-27.344,-63.477
1687268582.688,-7.324,-8.789,-15.137,-33.691,-147.461
1687268582.692,-8.789,-10.254,-18.555,-19.531,-81.055
1687268582.696,-0.488,-14.160,-19.043,-12.207,91.797
1687268582.700,8.301,-13.184,-18.555,-10.254,41.016
1687268582.704,-18.066,-15.137,-17.090,-21.973,-65.918
1687268582.708,-22.461,-14.648,-11.719,-12.695,-16.602
1687268582.711,1.465,-10.254,-9.766,-13.672,371.582
1687268582.715,18.066,-14.648,-14.648,-19.043,324.707
1687268582.719,45.410,-8.789,-17.090,-26.367,-190.918
1687268582.723,45.410,-2.930,-13.184,-21.484,-169.922
1687268582.727,22.949,-8.301,-15.625,-12.695,-66.406
1687268582.715,23.926,-4.883,-15.625,5.371,-159.668
1687268582.719,5.371,-14.160,-6.836,23.926,-184.570
1687268582.723,-16.113,-21.484,-7.812,26.855,-131.836
1687268582.727,-17.090,-19.531,-13.672,5.371,-132.324
1687268582.731,-19.531,-19.043,-12.695,-8.789,-153.320
1687268582.735,-15.137,-21.973,-2.930,-2.930,-151.367
1687268582.739,-27.344,-18.066,0.488,-5.859,-4.883
1687268582.742,-23.926,-11.230,-8.301,11.230,62.988
1687268582.746,-15.625,-15.625,-17.578,-13.184,-22.949
1687268582.750,-12.207,-18.066,-17.578,-29.297,-145.508
1687268582.754,-5.371,-20.996,-15.625,-14.160,8.789
1687268582.758,-9.766,-25.391,-16.602,-12.695,325.684
1687268582.759,-9.277,-20.508,-20.508,-8.789,17.090
1687268582.763,-6.836,-16.602,-20.508,-13.672,-144.043
1687268582.767,10.254,-2.930,-26.855,-34.668,63.965
1687268582.771,20.508,1.465,-29.297,-14.648,-47.363
1687268582.775,-10.742,-16.113,-15.137,-10.254,-152.832
1687268582.779,-25.391,-20.020,-19.531,-53.223,-80.566
1687268582.783,-24.414,-20.020,-10.254,-28.809,305.176
1687268582.786,-41.016,-36.133,0.488,-10.254,416.016
1687268582.790,-41.016,-33.691,-11.230,-45.410,-93.750
1687268582.794,-40.039,-22.949,-12.695,-54.199,-258.789
1687268582.798,-26.855,-31.738,-11.230,-4.883,-46.387
1687268582.802,-5.371,-31.250,-22.461,9.277,-3.906
1687268582.806,-28.809,-23.926,-28.320,-56.152,-121.094
1687268582.810,-16.113,-19.531,-21.484,-60.059,-70.801
1687268582.814,7.812,-27.832,-15.137,-20.996,3.418
1687268582.818,-8.301,-36.621,-29.297,1.465,-129.395
1687268582.822,-37.109,-24.902,-30.273,-48.340,-148.926
1687268582.826,-43.945,-18.555,-12.207,-63.477,34.180
1687268582.830,-38.574,-22.461,-9.766,-19.043,96.191
1687268582.833,-19.043,-18.555,-21.973,-33.691,-66.895
1687268582.837,-11.719,-16.602,-18.066,-46.875,-176.270
1687268582.841,-1.953,-18.555,-5.371,-12.207,-10.742
1687268582.845,-11.719,-27.832,-4.883,-1.465,29.785
1687268582.849,-21.973,-32.227,-16.113,2.930,-175.293
1687268582.864,-3.418,-17.578,-28.320,-7.324,-180.664
1687268582.868,4.883,-12.695,-17.090,-12.695,-17.090
1687268582.872,-9.277,-20.508,-12.207,4.883,37.109
1687268582.876,-15.137,-22.949,-8.789,3.906,-69.824
1687268582.880,-5.859,-21.973,-1.465,-5.371,-64.453
1687268582.884,4.395,-17.578,-7.812,-14.160,338.379
1687268582.888,0.000,-18.066,-22.949,-20.020,461.914
1687268582.891,-3.906,-23.926,-14.648,-0.977,8.301
1687268582.895,0.977,-22.949,-2.930,4.883,-75.195
1687268582.899,-24.414,-24.902,-11.719,-24.902,71.777
1687268582.903,-38.574,-29.297,-16.602,-41.504,-113.281
1687268582.907,-10.742,-25.879,-15.625,-21.484,-198.730
1687268582.911,-8.789,-29.297,-14.160,-3.418,-131.348
1687268582.915,-32.715,-34.668,-20.508,-22.949,-88.867
1687268582.919,-8.789,-18.066,-28.809,1.953,-104.980
1687268582.923,-11.230,-18.066,-24.414,-4.395,-86.426
1687268582.927,-30.762,-28.320,-25.391,-52.246,38.086
1687268582.931,-20.020,-28.809,-28.809,-35.156,117.676
1687268582.935,-26.855,-25.879,-23.438,-29.785,71.289
1687268582.938,-25.879,-24.902,-19.043,-40.527,-58.594
1687268582.942,-30.762,-25.879,-16.602,-49.316,21.973
1687268582.946,-34.180,-23.926,-18.555,-50.781,105.469
1687268582.950,-33.691,-26.855,-19.531,-22.949,-111.816
1687268582.954,-16.113,-23.438,-18.555,-32.227,-83.984
1687268582.954,-19.043,-23.438,-19.043,-32.227,39.062
1687268582.958,-30.762,-22.461,-16.602,-22.949,8.301
1687268582.962,-28.320,-26.367,-23.438,-32.715,18.066
1687268582.966,-32.227,-30.762,-23.438,-25.391,-40.039
1687268582.970,-19.531,-27.344,-18.555,-17.578,125.977
1687268582.974,-10.254,-28.320,-18.555,-20.020,151.367
1687268582.978,-9.277,-26.855,-14.160,-37.109,-32.227
1687268582.981,-24.414,-28.809,-14.648,-28.809,-74.707
1687268582.985,-38.574,-32.227,-19.043,-14.160,218.750
1687268582.989,-20.020,-31.738,-20.508,-23.926,267.578
1687268582.993,-15.625,-27.832,-19.531,-33.203,-114.746
1687268582.997,-37.109,-25.391,-15.625,-42.480,-225.098
1687268583.000,-30.273,-25.879,-19.531,-38.574,-196.289
1687268583.004,-28.320,-22.461,-25.391,-32.715,-173.828
1687268583.008,-34.180,-29.297,-19.531,-31.250,-164.551
1687268583.012,-39.551,-37.598,-17.090,-24.902,-158.691
1687268583.016,-43.945,-34.180,-16.113,-26.855,-78.613
1687268583.020,-52.734,-34.180,-7.324,-29.297,-55.664
1687268583.024,-59.570,-40.039,-5.859,-38.086,-115.234
1687268583.027,-51.270,-41.016,-14.160,-34.668,11.719
1687268583.031,-54.199,-42.480,-24.414,-12.695,267.090
1687268583.035,-45.898,-41.504,-25.879,-55.664,-2.441
1687268583.039,-45.410,-36.133,-20.996,-60.059,-201.660
1687268583.043,-30.273,-30.273,-27.344,-21.973,-33.691
1687268583.044,-21.973,-32.715,-24.414,-34.180,-49.805
1687268583.048,-45.898,-34.668,-13.184,-31.738,-175.293
1687268583.052,-59.570,-33.691,-16.113,-30.273,-75.684
1687268583.056,-54.688,-29.785,-21.973,-30.273,119.141
1687268583.060,-28.320,-28.320,-21.484,-15.137,50.293
1687268583.064,-29.785,-33.203,-19.043,-16.602,-76.172
1687268583.068,-53.711,-32.227,-20.508,-12.695,-52.734
1687268583.071,-32.227,-28.809,-21.484,-12.695,268.066
1687268583.075,-14.160,-35.156,-24.902,-29.297,169.922
1687268583.079,-16.602,-43.945,-23.926,-22.461,-231.445
1687268583.083,-23.926,-38.086,-20.996,1.465,-147.461
1687268583.087,-20.508,-37.109,-23.926,-8.789,11.230
1687268583.093,-7.812,-36.133,-29.297,-17.578,-135.254
1687268583.097,-12.695,-21.973,-27.344,-15.137,-233.398
1687268583.101,-26.367,-29.297,-23.438,-11.719,-85.938
1687268583.105,-16.602,-35.156,-20.020,-10.254,35.645
1687268583.109,-22.949,-26.855,-23.926,-1.953,-23.926
1687268583.113,-22.949,-30.762,-26.855,0.488,-81.055
1687268583.117,-8.301,-32.715,-20.996,-34.668,63.477
1687268583.120,5.859,-27.832,-18.066,-29.297,262.695
1687268583.124,4.395,-20.508,-28.320,-28.320,-67.871
1687268583.128,-31.738,-17.578,-29.297,-26.855,-208.496
1687268583.132,-41.016,-25.879,-21.484,-31.250,-64.453
1687268583.136,-31.738,-31.250,-27.832,-53.711,-50.781
1687268583.150,-27.832,-23.926,-29.785,-41.992,-113.281
1687268583.154,-33.691,-28.809,-20.020,-47.363,-88.379
1687268583.158,-49.805,-37.109,-14.160,-16.113,53.223
1687268583.162,-22.461,-31.250,-12.207,1.465,6.836
1687268583.166,-7.324,-31.738,-17.578,-33.691,-119.141
1687268583.170,-29.297,-37.109,-19.531,-24.902,-65.918
1687268583.174,-36.133,-30.762,-17.578,-32.715,355.957
1687268583.177,-30.762,-25.879,-17.090,-41.504,583.984
1687268583.181,-20.996,-26.855,-20.508,-47.363,71.777
1687268583.185,-14.160,-26.855,-24.902,-54.199,-214.355
1687268583.189,-20.020,-28.809,-23.438,-28.809,-117.188
1687268583.193,-37.598,-33.691,-17.090,-6.836,-132.324
1687268583.195,-40.527,-41.016,-21.973,-23.438,-191.895
1687268583.199,-37.598,-42.480,-30.273,-48.828,-152.344
1687268583.203,-27.832,-45.410,-29.785,-42.969,-112.793
1687268583.207,-56.152,-60.059,-36.621,-47.363,-181.641
1687268583.211,-77.148,-58.594,-45.410,-57.129,-107.422
1687268583.215,-44.922,-47.852,-46.875,-58.105,152.832
1687268583.219,-31.250,-55.664,-45.410,-53.711,255.859
1687268583.222,-46.387,-64.941,-44.434,-52.246,-0.488
1687268583.226,-52.246,-69.336,-47.363,-67.871,-186.035
1687268583.230,-54.199,-66.895,-50.293,-59.082,24.414
1687268583.234,-77.148,-58.105,-53.711,-52.246,320.312
1687268583.238,-77.148,-62.012,-53.223,-41.992,-4.883
1687268583.240,-53.711,-62.988,-52.246,-45.898,-230.957
1687268583.244,-50.781,-58.594,-48.828,-83.008,-85.938
1687268583.248,-35.156,-67.383,-44.922,-82.031,-43.945
1687268583.252,-27.832,-61.523,-44.434,-55.176,-203.125
1687268583.256,-72.754,-58.594,-47.363,-62.500,-173.340
1687268583.260,-78.613,-60.547,-53.223,-77.637,48.828
1687268583.264,-53.223,-56.641,-48.828,-44.922,-14.648
1687268583.267,-54.199,-63.477,-45.410,-29.297,-81.543
1687268583.271,-38.574,-64.941,-38.574,-17.090,-108.398
1687268583.275,-32.227,-54.199,-36.621,-18.555,178.711
1687268583.279,-57.129,-42.969,-46.875,-49.805,413.086
1687268583.283,-64.941,-42.969,-52.246,-78.125,16.113
1687268583.284,-67.383,-53.223,-50.781,-87.891,-162.598
1687268583.288,-88.867,-53.711,-59.082,-96.680,-115.723
1687268583.292,-108.398,-52.734,-58.594,-77.148,-134.277
1687268583.296,-105.469,-60.547,-47.852,-69.336,-106.934
1687268583.300,-73.730,-55.176,-48.340,-105.469,-111.816
1687268583.304,-64.941,-52.734,-50.781,-83.496,-18.555
1687268583.308,-90.332,-62.012,-43.945,-63.477,33.691
1687268583.311,-68.359,-56.641,-44.922,-84.473,-131.348
1687268583.315,-44.434,-53.223,-51.270,-76.172,17.090
1687268583.319,-63.965,-57.129,-53.223,-77.637,430.664
1687268583.323,-86.914,-67.871,-61.523,-90.820,62.012
1687268583.327,-89.844,-75.684,-59.570,-93.750,-220.215
1687268583.330,-72.266,-73.730,-50.293,-93.750,-57.129
1687268583.334,-63.965,-75.684,-55.176,-73.242,-45.898
1687268583.338,-59.570,-76.172,-59.570,-52.246,-97.656
1687268583.342,-78.125,-76.172,-56.152,-82.031,-120.117
1687268583.346,-101.562,-80.078,-60.547,-109.863,92.773
1687268583.350,-94.727,-80.078,-71.777,-118.652,79.102
1687268583.354,-76.660,-72.754,-72.266,-113.770,-36.133
1687268583.357,-69.336,-75.195,-67.871,-91.797,-46.387
1687268583.361,-72.754,-79.102,-67.871,-89.355,150.879
1687268583.365,-93.750,-80.078,-72.266,-97.656,69.336
1687268583.369,-76.172,-92.285,-72.754,-94.727,-176.270
1687268583.373,-68.848,-103.027,-77.148,-83.496,-74.707
1687268583.374,-122.070,-105.957,-86.426,-111.328,-36.621
1687268583.378,-132.324,-116.211,-89.355,-128.418,-153.809
1687268583.382,-121.094,-125.000,-90.332,-87.891,-168.945
1687268583.386,-124.023,-125.488,-93.750,-97.168,-89.844
1687268583.390,-127.930,-127.930,-102.051,-151.855,-24.414
1687268583.394,-130.859,-128.418,-107.910,-166.016,7.324
1687268583.398,-122.559,-131.348,-105.957,-154.785,13.672
1687268583.401,-122.070,-132.324,-102.051,-142.578,102.051
1687268583.405,-134.277,-125.488,-102.539,-141.113,224.609
1687268583.409,-132.812,-123.047,-106.445,-141.113,-26.367
1687268583.413,-141.113,-123.535,-102.539,-143.555,-147.461
1687268583.417,-147.461,-125.000,-100.098,-151.855,-49.805
1687268583.435,-141.113,-125.000,-102.539,-153.809,-71.289
1687268583.439,-138.672,-119.141,-104.004,-143.066,-100.098
1687268583.443,-141.602,-114.746,-101.562,-142.578,-39.551
1687268583.447,-129.395,-113.770,-94.727,-148.926,189.941
1687268583.451,-123.535,-118.164,-94.238,-133.301,170.898
1687268583.455,-140.625,-121.094,-87.402,-141.113,20.020
1687268583.459,-126.953,-117.188,-74.219,-131.836,-28.320
1687268583.462,-127.441,-101.562,-86.426,-147.461,104.492
1687268583.466,-171.387,-83.984,-102.051,-195.312,29.785
1687268583.470,-196.289,-72.754,-98.145,-185.059,-230.469
1687268583.474,-172.852,-62.012,-98.145,-172.852,-219.238
1687268583.478,-190.430,-53.711,-105.469,-229.492,-135.742
1687268583.464,-250.977,-39.062,-112.793,-257.324,-142.090
1687268583.468,-223.633,-27.344,-115.723,-262.207,-166.016
1687268583.472,-236.816,-30.273,-121.582,-304.199,-120.605
1687268583.476,-269.531,-14.160,-126.953,-327.148,-93.262
1687268583.480,-258.301,0.488,-127.930,-334.961,-120.117
1687268583.484,-280.273,-4.883,-134.766,-360.840,-115.234
1687268583.488,-284.668,2.441,-137.695,-375.000,3.906
1687268583.491,-240.234,15.137,-125.488,-329.102,-15.625
1687268583.495,-247.070,17.578,-124.512,-312.012,-142.090
1687268583.499,-238.770,12.207,-128.906,-317.383,-188.965
1687268583.503,-212.402,4.883,-133.789,-280.273,17.090
1687268583.507,-208.496,3.906,-130.371,-253.418,359.375
1687268583.510,-165.039,9.277,-126.953,-261.230,29.785
1687268583.514,-137.207,-3.906,-121.582,-236.816,-165.039
1687268583.518,-136.719,-24.414,-112.793,-212.402,169.922
1687268583.522,-124.023,-35.156,-110.840,-219.238,57.617
1687268583.526,-122.070,-42.480,-110.840,-196.777,-192.383
1687268583.530,-112.793,-44.922,-102.539,-172.852,-71.777
1687268583.534,-97.168,-50.293,-92.773,-147.949,280.273
1687268583.537,-49.805,-55.176,-93.750,-123.047,279.297
1687268583.541,-37.109,-65.430,-91.309,-126.465,-150.879
1687268583.545,-48.340,-69.824,-82.031,-110.352,-138.672
1687268583.549,-33.203,-74.219,-71.777,-83.008,41.504
1687268583.553,-39.062,-85.449,-68.848,-73.730,-130.859
1687268583.556,-58.105,-96.680,-62.500,-39.551,-189.453
1687268583.560,-51.758,-99.121,-53.711,-25.879,-43.945
1687268583.564,-27.832,-99.121,-54.688,-5.859,50.293
1687268583.568,-20.508,-92.773,-54.688,0.000,-68.848
1687268583.572,-17.090,-81.055,-50.293,-29.785,-140.137
1687268583.576,-22.949,-84.473,-49.316,-13.184,83.496
1687268583.580,-22.461,-88.379,-47.363,-21.973,193.848
1687268583.583,-18.555,-81.543,-47.363,-47.363,-29.297
1687268583.587,-14.160,-79.590,-45.898,-41.016,-212.402
1687268583.591,-14.160,-78.613,-41.504,-30.273,-13.672
1687268583.595,-7.324,-73.730,-40.039,-7.324,112.305
1687268583.599,0.000,-70.312,-40.527,-0.977,-155.273
1687268583.615,-20.996,-71.289,-40.039,-7.812,-206.055
1687268583.619,-17.090,-71.777,-40.039,-10.254,-34.668
1687268583.623,6.836,-64.941,-41.504,-20.508,48.828
1687268583.627,10.254,-56.641,-41.016,-28.320,-81.543
1687268583.631,-9.766,-60.547,-36.133,-12.207,-123.047
1687268583.635,-16.602,-59.570,-32.227,-12.207,254.883
1687268583.639,-5.371,-54.688,-32.715,-10.254,274.902
1687268583.642,-9.766,-51.758,-36.621,-11.230,-114.258
1687268583.646,-17.090,-49.805,-37.598,-17.578,-154.297
1687268583.650,-17.090,-56.152,-34.180,-8.301,21.973
1687268583.654,-16.602,-57.617,-39.062,-23.926,-99.609
1687268583.658,-20.020,-52.734,-36.133,-33.203,-148.438
1687268583.659,-39.551,-59.082,-29.297,-15.625,31.738
1687268583.663,-34.180,-56.641,-28.809,-11.719,23.438
1687268583.667,-18.066,-49.316,-29.297,-27.344,-133.789
1687268583.671,-12.695,-45.898,-26.855,-14.160,-174.316
1687268583.675,-21.484,-42.480,-25.391,-21.973,-105.957
1687268583.679,-15.137,-41.016,-29.297,-25.391,-20.508
1687268583.683,-8.789,-35.645,-30.762,-21.484,-39.062
1687268583.686,-25.879,-34.180,-27.344,-12.695,-89.844
1687268583.690,-20.996,-36.621,-23.438,-5.859,13.184
1687268583.694,-16.602,-35.645,-21.484,-15.137,-20.996
1687268583.698,-26.855,-37.109,-20.020,-7.324,-150.391
1687268583.702,-15.625,-35.645,-20.020,-19.531,-136.719
1687268583.705,2.930,-27.344,-15.137,-23.926,103.516
1687268583.709,-8.301,-20.508,-18.555,-9.766,172.852
1687268583.713,-28.320,-21.973,-25.879,-11.230,-17.578
1687268583.717,-5.859,-29.785,-20.508,-8.301,-59.570
1687268583.721,1.953,-26.367,-16.602,10.742,156.738
1687268583.725,-2.930,-20.996,-19.531,7.812,269.043
1687268583.729,-9.277,-21.973,-16.113,-9.766,19.043
1687268583.732,-6.836,-24.414,-10.742,-3.418,-98.145
1687268583.736,6.348,-19.531,-12.695,12.207,131.836
1687268583.740,-2.441,-19.043,-15.625,-16.602,27.832
1687268583.744,-15.625,-19.043,-10.742,-25.879,-231.934
1687268583.748,-2.441,-9.277,1.953,-7.324,-167.480
1687268583.749,-3.906,-6.348,5.859,0.000,-125.977
1687268583.753,-2.930,-9.277,2.930,1.465,-200.684
1687268583.757,-9.277,-6.348,6.348,6.348,-176.270
1687268583.761,4.883,-2.930,6.836,-1.953,-122.070
1687268583.765,12.207,-7.812,-1.465,-32.227,-89.844
1687268583.769,-7.324,-12.207,-3.906,-13.672,53.711
1687268583.773,6.348,-9.766,-1.953,-7.324,39.551
1687268583.776,9.766,-8.789,-1.953,-1.465,145.996
1687268583.780,-11.230,-11.719,-1.953,8.301,370.605
1687268583.784,-11.230,-10.254,-6.348,-16.113,-6.836
1687268583.788,12.695,-5.859,-7.324,19.043,-187.500
1687268583.792,5.859,-5.371,-4.883,18.066,55.176
1687268583.794,-5.859,-10.254,-8.789,-15.137,-46.875
1687268583.798,3.418,-5.371,-7.324,-2.930,-171.875
1687268583.802,9.766,0.488,-1.465,-14.160,-78.125
1687268583.806,1.465,0.488,0.488,-7.324,150.879
1687268583.810,-17.578,-4.883,-1.953,16.113,246.582
1687268583.814,2.930,-2.930,-1.465,8.301,-49.805
1687268583.818,12.695,5.371,3.906,10.254,-110.840
1687268583.821,15.137,3.418,5.859,19.531,247.070
1687268583.825,29.297,4.395,3.906,9.277,245.605
1687268583.829,10.742,1.953,4.395,23.926,-168.945
1687268583.833,-18.066,-2.930,2.930,27.344,-280.762
1687268583.837,-31.738,-4.883,-0.977,7.324,-208.008
1687268583.840,-9.277,-4.395,-0.977,12.695,-210.938
1687268583.844,19.043,0.000,1.953,15.625,-204.590
1687268583.848,24.902,4.395,8.301,8.789,-136.230
1687268583.852,10.254,4.395,10.254,-4.395,-93.262
1687268583.856,24.414,2.930,11.230,4.395,-109.375
1687268583.860,40.039,5.859,5.859,11.230,-71.777
1687268583.864,-1.953,3.418,-0.977,1.953,99.609
1687268583.867,-15.137,1.953,0.977,24.414,333.984
1687268583.871,-3.418,4.883,-2.441,8.301,39.062
1687268583.875,-2.441,0.488,-3.906,1.953,-135.254
1687268583.879,-14.648,-9.766,0.000,4.395,57.617
1687268583.883,-20.996,-10.254,-1.953,-0.488,-0.488
1687268583.885,-24.902,-11.230,-8.789,-1.953,-154.297
1687268583.889,-21.973,-9.766,-6.348,-6.348,-129.883
1687268583.893,-12.207,-4.395,-3.906,-3.418,127.930
1687268583.897,-6.836,-7.324,-11.230,-6.348,61.523
1687268583.901,11.719,-7.324,-13.672,-3.418,-190.918
1687268583.905,8.301,-9.277,-8.789,10.254,-88.867
1687268583.909,0.488,-13.184,-4.883,10.254,292.969
1687268583.912,-6.836,-10.254,-4.883,4.395,220.215
1687268583.916,-23.926,-12.695,-8.301,4.395,-177.734
1687268583.920,-20.508,-15.625,-9.766,13.672,-179.199
1687268583.924,-4.883,-8.789,-0.977,14.648,-101.074
1687268583.928,3.906,-0.977,3.906,20.020,-139.648
1687268583.932,11.230,0.000,0.977,16.113,-150.391
1687268583.936,-4.395,-7.324,-1.465,-0.488,-68.359
1687268583.940,-26.367,-12.695,-2.930,-12.207,33.203
1687268583.944,-13.672,-13.184,-5.371,-1.953,-57.129
1687268583.948,0.977,-12.695,-6.836,-0.977,-153.320
1687268583.952,5.371,-11.230,-7.812,-6.836,59.570
1687268583.956,19.043,-3.418,-6.348,10.254,223.633
1687268583.959,-8.789,-1.465,-1.465,9.277,-39.551
1687268583.963,-34.668,-10.742,-2.441,-5.371,-214.355
1687268583.967,-13.672,-9.766,-3.906,1.953,-91.797
1687268583.971,-8.301,-9.277,-2.441,2.441,-51.270
1687268583.975,-29.785,-14.648,-6.836,-21.484,-156.250
1687268583.990,-35.156,-7.812,-8.301,-12.207,-128.418
1687268583.994,-19.531,-6.348,-6.348,7.812,-19.043
1687268583.998,-18.066,-8.789,-8.789,-7.812,30.273
1687268584.002,-16.602,-12.207,-10.742,-4.883,70.312
1687268584.006,-14.160,-18.066,-12.207,-8.789,-39.551
1687268584.010,-16.113,-18.555,-8.301,-11.230,186.035
1687268584.014,-20.508,-13.672,2.930,9.277,536.621
1687268584.017,-22.461,-17.090,-6.348,-5.371,179.688
1687268584.021,-30.273,-21.484,-13.184,-12.207,-178.711
1687268584.025,-26.367,-19.043,-7.812,-9.766,-196.777
1687268584.029,-10.254,-20.508,-8.789,-0.488,-233.398
1687268584.033,-10.742,-18.066,-10.254,2.930,-223.633
1687268584.034,-19.043,-17.090,-14.648,-34.180,-174.805
1687268584.038,-41.504,-20.996,-16.602,-41.504,-107.910
1687268584.042,-35.156,-18.066,-8.789,-23.438,-102.051
1687268584.046,-14.648,-18.066,-4.883,-9.277,-79.590
1687268584.050,-7.812,-14.160,-5.371,10.254,-68.848
1687268584.054,-2.441,-11.230,-3.418,22.461,-25.879
1687268584.058,-14.160,-13.672,-5.371,-14.648,51.270
1687268584.061,-22.461,-8.301,-5.859,-36.621,22.461
1687268584.065,-16.602,-7.812,-3.906,-13.184,73.242
1687268584.069,0.000,-13.672,-5.371,15.625,354.492
1687268584.073,-8.301,-10.742,-11.719,-3.906,55.664
1687268584.077,-19.043,-4.883,-13.184,-20.020,-185.059
1687268584.080,-12.695,-6.836,-7.324,-2.930,-70.312
1687268584.084,-18.066,-9.766,-6.348,10.742,-79.590
1687268584.088,-14.648,-12.695,-8.789,1.465,0.977
1687268584.092,-0.977,-14.160,-12.695,-0.977,-38.574
1687268584.096,3.418,-7.324,-9.766,0.977,84.961
1687268584.100,-9.277,-7.812,-4.883,-12.207,183.105
1687268584.104,-20.508,-7.812,-8.789,-6.348,-4.883
1687268584.107,-17.090,-7.812,-11.719,-9.766,-48.828
1687268584.111,-5.371,-11.230,-7.812,-8.789,238.281
1687268584.115,-4.883,-14.648,-8.301,-4.883,192.871
1687268584.119,-16.602,-11.230,-14.160,-10.742,-144.043
1687268584.123,-1.953,-4.883,-13.672,-6.836,-177.734
1687268584.154,-4.883,-5.859,-12.207,-10.254,-137.207
1687268584.158,-25.879,-9.277,-14.648,-11.230,-161.621
1687268584.162,-26.855,-19.043,-16.113,-3.418,-142.578
1687268584.166,-6.836,-18.555,-12.207,-14.160,-81.543
1687268584.170,-9.766,-10.254,-11.230,-9.766,-113.281
1687268584.174,-6.348,-13.184,-17.090,-1.465,-93.750
1687268584.178,6.348,-7.324,-18.555,-2.930,-110.352
1687268584.181,7.812,1.953,-14.648,2.930,-10.742
1687268584.185,10.254,-4.883,-10.742,2.441,191.895
1687268584.189,-5.371,-11.719,-7.812,-9.766,-76.172
1687268584.193,-24.414,-17.578,-9.277,-5.859,-136.230
1687268584.197,-17.578,-18.066,-10.254,-11.719,47.852
1687268584.169,-13.672,-14.160,-10.742,-12.207,-45.410
1687268584.173,-31.738,-12.695,-7.324,6.836,-142.090
1687268584.177,-28.320,-10.742,-4.883,-4.395,-17.578
1687268584.181,-6.348,-8.301,-6.348,-6.348,141.113
1687268584.185,-14.648,-8.789,-7.324,3.906,6.836
1687268584.189,-25.391,-9.277,-7.324,-2.441,-102.051
1687268584.193,-17.578,-10.742,-10.742,-21.973,34.668
1687268584.196,-7.812,-7.324,-14.160,-14.648,36.133
1687268584.200,-11.719,-3.418,-12.207,9.277,-110.352
1687268584.204,-20.508,-4.883,-12.207,4.883,-186.523
1687268584.208,-20.508,-12.695,-21.973,-3.418,-39.551
1687268584.212,-19.531,-15.137,-21.484,5.859,109.375
1687268584.230,-8.789,-12.207,-17.578,-4.395,50.781
1687268584.234,-9.766,-15.625,-18.555,-20.996,-12.695
1687268584.238,-32.227,-11.719,-17.090,-9.277,-48.828
1687268584.242,-31.738,-14.648,-15.625,-16.113,237.305
1687268584.246,-34.668,-18.066,-20.996,-22.461,129.883
1687268584.250,-30.273,-13.184,-25.391,-14.648,-151.855
1687268584.254,-17.578,-16.113,-17.578,-28.320,38.574
1687268584.257,-12.207,-18.066,-13.184,-27.832,231.445
1687268584.261,-15.137,-15.625,-21.484,-17.090,-64.941
1687268584.265,-13.672,-11.719,-22.461,-10.742,-183.594
1687268584.269,-7.812,-9.277,-11.719,-11.719,-65.918
1687268584.273,-26.367,-13.184,-11.230,-8.301,-120.605
1687268584.259,-32.227,-16.113,-15.625,-21.484,-219.727
1687268584.263,-29.297,-19.531,-15.137,-39.062,-177.734
1687268584.267,-25.879,-19.531,-14.160,-35.156,39.551
1687268584.271,-23.438,-19.531,-14.648,-22.461,57.129
1687268584.275,-29.785,-19.043,-17.578,-11.719,-124.023
1687268584.279,-13.672,-19.043,-17.090,-17.578,22.949
1687268584.283,-12.695,-19.043,-15.625,-14.160,362.305
1687268584.286,-21.484,-24.902,-21.973,-22.461,168.457
1687268584.290,-31.250,-26.367,-23.926,-27.344,-178.711
1687268584.294,-41.992,-15.137,-13.672,-13.184,-184.082
1687268584.298,-32.715,-10.254,-10.254,-17.578,160.645
1687268584.302,-29.297,-12.207,-17.578,-24.902,92.285
1687268584.306,-34.180,-15.625,-20.996,-28.320,-227.539
1687268584.310,-26.367,-15.625,-14.160,-25.391,-184.082
1687268584.314,-13.672,-7.812,-8.301,-18.555,-77.148
1687268584.318,-16.113,-7.812,-11.230,-22.949,-147.949
1687268584.322,-28.320,-15.625,-13.672,-31.738,-214.844
1687268584.326,-25.879,-20.020,-13.672,-9.766,-78.125
1687268584.330,-17.578,-13.184,-9.766,-7.812,85.938
1687268584.333,-28.809,-10.742,-10.254,-16.113,-6.348
1687268584.337,-25.391,-14.160,-11.230,-0.977,-204.590
1687268584.341,-30.762,-10.254,-8.789,-4.883,-17.090
1687268584.345,-37.109,-16.602,-7.812,-9.277,257.324
1687268584.349,-28.320,-17.578,-7.812,-20.996,-15.625
1687268584.365,-25.391,-8.789,-6.836,-28.809,-158.691
1687268584.369,-22.949,-12.207,-11.230,-14.648,-10.742
1687268584.373,-17.578,-12.695,-10.254,-17.090,12.207
1687268584.377,-21.484,-11.230,-8.301,-18.066,-128.906
1687268584.381,-27.344,-14.648,-12.207,-3.906,-165.527
1687268584.385,-9.277,-15.625,-9.277,-2.930,168.457
1687268584.389,-6.348,-13.672,-7.812,-10.254,255.371
1687268584.392,-11.230,-11.230,-9.277,-17.578,-46.875
1687268584.396,-3.906,-13.184,-10.254,-20.996,42.480
1687268584.400,-20.020,-14.160,-11.719,-17.578,244.141
1687268584.404,-22.461,-11.719,-11.719,-24.902,9.766
1687268584.408,-4.883,-9.277,-12.207,-17.090,-211.914
1687268584.410,11.230,-3.906,-12.207,-8.789,-160.156
1687268584.414,14.160,0.488,-11.230,-15.137,-119.629
1687268584.418,6.348,-3.418,-11.230,-32.227,-146.484
1687268584.422,5.859,-3.418,-13.184,-33.203,-180.664
1687268584.426,5.371,-2.930,-17.578,-29.297,-108.887
1687268584.430,-1.465,-6.348,-14.160,-10.254,19.043
1687268584.434,-10.742,-9.766,-13.672,2.930,46.875
1687268584.437,-34.180,-13.672,-20.020,-11.719,-23.438
1687268584.441,-33.203,-13.184,-14.160,-1.953,22.461
1687268584.445,-33.203,-12.207,-10.254,-0.977,191.406
1687268584.449,-49.805,-12.207,-9.277,-12.695,23.926
1687268584.453,-44.434,-14.160,-11.719,-20.508,-92.773
1687268584.455,-42.969,-17.578,-15.625,-23.926,-24.902
1687268584.459,-41.016,-15.625,-18.555,-31.738,-29.785
1687268584.463,-36.133,-16.113,-18.555,-38.574,-132.324
1687268584.467,-34.180,-13.672,-15.137,-32.715,-166.992
1687268584.471,-33.691,-6.348,-14.160,-19.531,78.613
1687268584.475,-42.969,-5.859,-14.160,-19.043,94.238
1687268584.479,-33.691,-10.254,-16.602,-28.320,-26.855
1687268584.482,-20.508,-8.789,-16.113,-26.855,-52.246
1687268584.486,-28.320,-6.836,-13.672,-17.090,131.836
1687268584.490,-30.762,-12.695,-17.578,-23.438,116.699
1687268584.494,-26.367,-13.672,-19.043,-19.531,-124.512
1687268584.498,-16.602,-6.348,-12.695,-12.207,-141.113
1687268584.502,-8.789,-1.953,-16.602,-24.414,-103.027
1687268584.506,-25.879,-6.836,-20.020,-25.879,-100.586
1687268584.510,-28.809,-13.184,-22.461,-31.250,-146.973
1687268584.514,-14.648,-8.789,-16.113,-31.250,-77.148
1687268584.518,-26.855,-8.301,-11.719,-28.320,15.137
1687268584.522,-31.250,-16.113,-20.020,-22.461,-19.043
1687268584.526,-14.160,-17.090,-22.461,-11.230,-92.285
1687268584.529,-11.230,-14.160,-25.391,-12.207,5.371
1687268584.533,-24.902,-19.531,-26.855,-5.859,214.844
1687268584.537,-23.926,-20.020,-29.297,-33.691,-58.105
1687268584.541,-19.043,-14.648,-24.414,-54.199,-214.844
1687268584.545,-23.438,-16.113,-21.484,-37.598,-87.402
1687268584.545,-12.695,-16.602,-28.809,-33.203,-113.770
1687268584.549,-8.789,-17.578,-20.996,-25.391,-151.367
1687268584.553,-20.508,-17.090,-15.625,-18.066,-30.762
1687268584.557,-32.227,-16.113,-18.066,-21.973,90.820
1687268584.561,-32.227,-17.578,-21.484,-26.855,-16.602
1687268584.565,-19.043,-14.160,-18.555,-21.484,-63.477
1687268584.569,-15.625,-9.766,-14.648,-22.461,-13.184
1687268584.572,-17.090,-13.672,-16.602,-14.648,208.008
1687268584.576,-16.602,-16.113,-21.973,-10.254,393.555
1687268584.580,-14.160,-11.719,-23.438,-14.648,22.461
1687268584.584,-15.625,-6.836,-18.066,-19.043,-198.730
1687268584.588,-13.184,-6.836,-16.113,-18.066,-124.023
1687268584.590,-19.043,-8.789,-20.020,-24.414,-200.195
1687268584.594,-26.855,-9.277,-23.926,-32.227,-216.309
1687268584.598,-23.926,-10.742,-23.926,-23.438,-107.422
1687268584.602,-23.438,-11.230,-21.973,-12.695,-108.887
1687268584.606,-18.066,-14.160,-18.555,-1.953,-111.816
1687268584.610,-19.043,-13.184,-20.508,-18.066,10.254
1687268584.614,-27.344,-16.602,-20.020,-37.109,145.020
1687268584.617,-16.113,-23.438,-20.020,-24.414,268.555
1687268584.621,-11.719,-22.461,-21.973,-15.137,20.020
1687268584.625,-20.996,-20.020,-17.578,-9.766,-146.484
1687268584.629,-15.625,-17.578,-16.602,-23.926,59.570
1687268584.633,-10.742,-17.090,-20.020,-41.016,210.449
1687268584.634,-12.695,-10.742,-17.578,-21.484,-99.609
1687268584.638,-6.836,-5.859,-13.672,-16.602,-127.930
1687268584.642,-11.719,-13.672,-15.137,-20.996,116.699
1687268584.646,-15.625,-18.066,-12.207,-17.578,41.016
1687268584.650,-9.766,-10.254,-8.301,-23.438,-132.812
1687268584.654,-7.324,-8.301,-9.766,-10.254,-56.152
1687268584.658,-3.906,-5.859,-11.719,0.977,267.090
1687268584.661,-14.160,-3.906,-10.254,1.465,133.301
1687268584.665,-21.973,-7.324,-4.395,-13.672,-211.426
1687268584.669,-8.301,-6.836,-5.371,-10.742,-166.016
1687268584.673,-0.977,-5.371,-7.324,-8.301,125.000
1687268584.677,-6.836,0.488,-7.324,-5.859,-27.832
1687268584.680,-14.160,1.953,-2.930,3.418,-225.098
1687268584.684,-16.113,-3.418,-7.812,3.418,-143.555
1687268584.688,-13.184,-7.324,-14.648,-3.418,-145.020
1687268584.692,-5.371,-6.836,-10.254,-8.301,-163.086
1687268584.696,-9.766,-6.348,-7.324,-0.488,-194.824
1687268584.700,-9.277,-5.371,-5.371,3.418,-71.777
1687268584.704,-6.348,-7.324,-8.789,4.883,142.090
1687268584.707,-6.348,-8.789,-12.207,1.953,1.465
1687268584.711,-9.277,-5.859,-5.859,5.371,-202.148
1687268584.715,-8.301,-2.441,-2.441,9.766,-62.988
1687268584.719,-10.742,-9.766,-4.883,17.090,44.434
1687268584.723,-17.090,-8.789,0.000,13.184,-26.855
1687268584.739,-10.742,-2.930,0.488,-5.859,-80.078
1687268584.743,-9.277,-6.348,-7.812,-6.836,101.562
1687268584.747,-13.184,-12.207,-8.789,-8.301,104.492
1687268584.751,-15.625,-13.184,-9.766,-10.254,-153.809
1687268584.755,-8.301,-7.324,-10.742,-6.348,-125.488
1687268584.759,-14.648,-9.277,-7.812,-2.441,222.656
1687268584.763,-30.762,-14.648,-17.090,0.977,286.621
1687268584.766,-26.367,-11.719,-18.555,-9.766,-66.895
1687268584.770,-7.812,-9.766,-10.742,2.930,-170.410
1687268584.774,-21.973,-13.672,-7.812,14.160,-1.953
1687268584.778,-38.574,-16.602,-12.207,-10.742,-72.754
1687268584.782,-29.785,-17.578,-20.996,-28.809,-225.098
1687268584.785,-19.043,-20.020,-20.508,-33.691,-168.457
1687268584.789,-30.273,-19.043,-24.414,-18.066,-47.363
1687268584.793,-37.109,-13.672,-29.297,-14.648,-99.121
1687268584.797,-14.648,-13.184,-21.484,-11.719,-153.320
1687268584.801,-8.301,-17.578,-20.508,-16.113,-51.270
1687268584.805,-25.879,-23.438,-17.578,-14.160,131.836
1687268584.809,-27.344,-20.508,-13.184,-6.836,50.781
1687268584.812,-14.160,-12.207,-13.672,-8.301,-88.379
1687268584.816,-7.324,-7.812,-13.672,-10.742,9.277
1687268584.820,-24.902,-9.277,-14.160,-16.113,191.895
1687268584.824,-31.738,-18.066,-18.066,-20.996,-28.809
1687268584.828,-12.695,-16.602,-20.996,-12.695,-152.344
1687268584.830,-9.766,-12.695,-21.484,-18.555,-66.406
1687268584.834,-17.090,-16.113,-20.508,-19.531,-62.500
1687268584.838,-29.297,-12.695,-18.555,-15.137,-76.660
1687268584.842,-24.902,-7.324,-13.672,-24.902,-95.215
1687268584.846,-20.020,-10.254,-12.207,-13.672,172.363
1687268584.850,-17.090,-10.254,-9.277,0.977,267.578
1687268584.854,-11.230,-9.277,-8.789,0.977,-37.109
1687268584.857,-20.020,-16.113,-13.184,-1.465,-33.691
1687268584.861,-17.090,-16.113,-14.160,8.789,208.496
1687268584.865,-16.602,-13.184,-12.207,5.371,56.641
1687268584.869,-25.879,-14.160,-11.719,-34.668,-187.988
1687268584.873,-22.461,-11.719,-11.230,-34.180,-152.344
1687268584.874,-6.348,-10.742,-20.020,-24.902,-104.980
1687268584.878,1.953,-8.301,-21.484,-24.902,-128.906
1687268584.882,-1.465,-8.789,-17.090,-13.672,-153.809
1687268584.886,-1.953,-10.254,-15.625,-1.465,-86.914
1687268584.890,0.000,-7.812,-15.625,-27.344,-55.664
1687268584.894,-8.789,-9.277,-16.602,-20.508,-8.789
1687268584.898,-26.367,-10.254,-13.184,0.000,-34.180
1687268584.901,-14.160,-4.395,-10.254,-13.184,87.891
1687268584.905,0.488,-2.441,-8.789,-2.930,357.422
1687268584.909,-15.137,-2.930,-15.625,-11.230,58.105
1687268584.913,-13.184,-5.859,-21.484,-26.367,-206.055
1687268584.917,-7.812,-14.160,-13.184,-12.207,-48.828
1687268584.920,-26.367,-18.555,-14.160,-10.254,-56.641
1687268584.924,-25.879,-14.160,-16.113,-9.766,-169.434
1687268584.928,-5.371,-9.277,-9.277,-6.836,-59.570
1687268584.932,-12.695,-14.648,-7.812,3.906,133.301
1687268584.936,-15.137,-9.766,-7.812,-2.930,62.500
1687268584.940,-10.742,-6.836,-7.812,-24.902,-51.758
1687268584.944,-15.137,-10.254,-10.742,-33.203,2.441
1687268584.947,-13.184,-7.812,-10.254,-17.578,199.219
1687268584.951,-3.418,-8.789,-11.230,-2.441,131.836
1687268584.955,-4.395,-8.789,-14.160,-31.250,-140.625
1687268584.959,-20.508,-11.230,-10.742,-42.480,-99.121
1687268584.963,-20.996,-15.137,-11.230,-20.996,42.480
1687268584.965,-11.230,-13.672,-14.648,-17.090,-78.125
1687268584.969,-13.184,-17.090,-13.184,-13.184,-201.172
1687268584.973,-24.414,-18.555,-10.742,0.488,-210.449
1687268584.977,-18.066,-9.766,-8.301,-5.859,-172.363
1687268584.981,7.812,-5.371,-6.348,-3.418,-132.324
1687268584.985,-13.672,-4.883,-7.812,2.930,-32.227
1687268584.989,-23.438,-7.324,-10.254,8.789,197.754
1687268584.992,-8.301,-8.789,-9.277,4.395,326.660
1687268584.996,-10.742,-8.301,-11.719,-32.227,-50.293
1687268585.000,-16.602,-8.789,-10.742,-26.367,-213.867
1687268585.004,-22.949,-9.766,-10.254,-6.836,-100.098
1687268585.008,-29.297,-10.254,-12.207,-29.297,-54.199
1687268585.010,-28.809,-8.301,-21.484,-38.086,-108.887
1687268585.014,-22.949,-6.836,-20.020,-29.297,-150.879
1687268585.018,-26.855,-8.301,-12.695,-12.695,103.516
1687268585.022,-30.762,-15.625,-14.648,-18.066,89.355
1687268585.026,-17.578,-15.137,-15.137,-39.062,-139.160
1687268585.030,-14.648,-10.254,-13.672,-43.945,-86.426
1687268585.034,-28.809,-2.930,-12.207,-20.508,275.879
1687268585.037,-33.691,3.418,-13.672,-13.184,334.961
1687268585.041,-39.551,0.000,-17.090,-32.227,-88.867
1687268585.045,-31.250,-1.465,-11.719,-41.016,-156.250
1687268585.049,-26.367,-1.465,-4.883,-42.969,-129.395
1687268585.053,-46.875,1.953,-10.254,-42.969,-207.031
1687268585.057,-46.875,5.371,-13.184,-41.992,-240.234
1687268585.061,-39.551,5.859,-12.207,-44.434,-132.324
1687268585.065,-60.547,8.789,-19.043,-55.176,-16.602
1687268585.069,-63.477,11.719,-18.555,-64.453,-73.730
1687268585.073,-63.477,15.625,-20.020,-75.684,-200.684
1687268585.077,-92.773,26.367,-29.785,-69.824,-11.719
1687268585.081,-102.539,24.902,-30.762,-64.941,243.652
1687268585.084,-86.426,36.133,-22.461,-90.820,-21.973
1687268585.088,-96.191,47.852,-23.438,-93.750,-136.230
1687268585.092,-109.863,42.969,-29.297,-106.445,-43.945
1687268585.096,-111.816,45.410,-29.297,-137.207,-54.199
1687268585.100,-112.793,56.152,-29.297,-118.652,-140.625
1687268585.114,-130.371,62.988,-24.414,-124.512,-112.793
1687268585.118,-121.582,62.012,-14.160,-139.160,-21.484
1687268585.122,-89.355,64.453,-13.184,-124.512,63.965
1687268585.126,-96.680,63.965,-10.742,-128.906,15.137
1687268585.130,-131.348,67.383,-10.742,-129.395,-38.086
1687268585.134,-140.137,72.266,-8.301,-118.164,272.461
1687268585.138,-133.301,66.895,-10.254,-137.695,591.309
1687268585.141,-120.117,68.848,-13.672,-153.809,154.297
1687268585.145,-101.074,71.777,-7.812,-131.348,-168.457
1687268585.149,-107.422,71.289,-6.348,-120.117,-38.086
1687268585.153,-114.746,62.012,-9.277,-117.676,-146.484
1687268585.157,-94.238,51.758,-12.695,-93.750,-234.375
1687268585.160,-78.613,45.410,-11.719,-87.402,-128.418
1687268585.164,-83.008,40.039,-13.184,-93.750,-86.426
1687268585.168,-64.453,34.668,-22.461,-87.402,-140.625
1687268585.172,-45.898,25.879,-24.902,-74.219,-169.922
1687268585.176,-22.461,16.113,-26.367,-48.340,-110.352
1687268585.180,-3.418,6.836,-28.809,-31.250,-17.578
1687268585.184,-15.137,-0.977,-24.414,-20.020,3.906
1687268585.187,-8.789,-2.930,-14.160,-17.090,-32.715
1687268585.191,3.906,-9.277,-14.648,-4.883,48.828
1687268585.195,19.531,-15.625,-14.160,33.203,366.211
1687268585.199,26.855,-20.508,-10.254,31.250,123.047
1687268585.203,31.738,-26.855,-11.719,14.648,-176.270
1687268585.205,34.668,-28.320,-13.184,30.273,-103.027
1687268585.209,30.273,-31.250,-11.719,39.062,-107.910
1687268585.213,32.715,-37.109,-14.160,38.086,-46.387
1687268585.217,38.086,-36.133,-16.113,49.805,-83.008
1687268585.221,35.645,-40.039,-9.766,70.312,5.371
1687268585.225,39.062,-44.434,-2.441,66.895,61.523
1687268585.229,52.734,-41.016,-5.859,61.035,-23.926
1687268585.232,50.293,-35.645,-10.742,53.223,-61.523
1687268585.236,48.828,-36.621,-7.812,60.059,171.387
1687268585.240,43.945,-46.387,-7.324,65.430,211.914
1687268585.244,34.668,-52.246,-8.301,58.105,-134.277
1687268585.248,41.992,-48.340,-5.859,57.617,-159.180
1687268585.250,41.992,-43.945,0.000,62.500,-39.551
1687268585.254,42.480,-41.504,-4.395,59.082,-125.000
1687268585.258,38.574,-43.457,-5.371,44.922,-166.992
1687268585.262,37.598,-42.969,5.371,41.992,-139.648
1687268585.266,39.062,-38.574,5.859,50.293,-56.152
1687268585.270,31.738,-34.668,5.371,55.176,-41.992
1687268585.274,30.762,-34.180,10.254,50.781,-56.641
1687268585.277,33.691,-34.180,4.395,55.664,102.539
1687268585.281,32.715,-31.250,3.418,58.594,363.770
1687268585.285,26.855,-27.344,-0.977,49.316,27.832
1687268585.289,20.996,-26.367,-6.836,41.504,-181.641
1687268585.293,31.738,-23.438,2.441,41.016,42.480
1687268585.294,35.645,-22.949,0.977,38.086,-20.020
1687268585.298,25.391,-25.391,-8.301,24.414,-173.340
1687268585.302,23.926,-21.973,-4.395,27.832,-109.863
1687268585.306,20.508,-17.578,-0.488,52.246,155.273
1687268585.310,19.043,-21.973,-7.324,37.109,170.898
1687268585.314,30.273,-24.902,-11.719,-8.789,-62.012
1687268585.318,37.598,-22.461,-8.301,-8.301,-23.438
1687268585.321,38.086,-16.113,-4.883,3.906,219.238
1687268585.325,44.434,-15.625,-4.395,14.648,97.656
1687268585.329,27.344,-19.531,-7.812,19.531,-164.551
1687268585.333,4.395,-22.949,-9.277,38.574,-170.410
1687268585.337,-21.973,-32.715,-12.207,38.086,-126.953
1687268585.341,-38.574,-30.762,-12.207,17.578,-152.832
1687268585.345,-28.809,-27.344,-11.230,13.184,-167.969
1687268585.349,-26.367,-24.902,-13.672,18.066,0.000
1687268585.353,-33.203,-21.973,-15.137,28.320,27.832
1687268585.357,-15.137,-25.879,-11.230,19.531,-163.574
1687268585.361,-0.488,-28.320,-7.812,10.742,-148.438
1687268585.365,6.348,-26.367,-8.301,17.578,98.633
1687268585.368,-0.977,-24.414,-12.207,-4.883,339.355
1687268585.372,-18.555,-26.855,-17.090,-13.672,52.246
1687268585.376,-22.949,-26.367,-13.184,11.230,-200.195
1687268585.380,-16.602,-23.926,-11.230,-6.348,-79.102
1687268585.384,-12.207,-25.391,-11.719,-18.555,-92.285
1687268585.400,-8.789,-23.438,-8.301,-2.930,-165.039
1687268585.404,-6.348,-16.602,-9.277,6.348,-122.559
1687268585.408,-9.766,-13.672,-15.137,-5.859,155.273
1687268585.412,-3.906,-12.207,-19.531,-15.137,90.332
1687268585.416,3.418,-11.230,-20.996,-13.672,-118.652
1687268585.420,-2.930,-11.719,-20.020,-2.441,-51.758
1687268585.424,-3.418,-10.742,-13.672,2.441,225.098
1687268585.427,11.719,-11.719,-17.090,-2.930,270.508
1687268585.431,12.207,-16.602,-21.973,-14.648,-132.324
1687268585.435,-6.348,-14.648,-16.113,-2.930,-202.148
1687268585.439,-8.301,-11.719,-8.301,12.207,-101.562
1687268585.443,-13.184,-12.207,-9.766,-3.418,-165.039
1687268585.445,-11.719,-11.230,-11.230,-1.953,-202.637
1687268585.449,-13.672,-14.160,-10.742,15.137,-183.594
1687268585.453,-24.902,-15.137,-13.184,-6.836,-114.746
1687268585.457,-7.812,-14.648,-10.254,-7.324,-114.746
1687268585.461,4.883,-10.742,-8.301,12.207,-138.672
1687268585.465,-7.324,-6.348,-10.742,-0.488,-0.488
1687268585.469,-10.742,-10.742,-13.672,-16.113,109.375
1687268585.472,-4.395,-10.254,-13.672,-15.137,6.836
1687268585.476,-28.320,-8.789,-10.254,-18.066,-116.211
1687268585.480,-30.762,-7.812,-11.719,-23.438,-38.574
1687268585.484,-5.371,-11.230,-14.648,-0.488,308.594
1687268585.488,-5.371,-16.113,-17.578,-10.742,82.520
1687268585.490,-26.855,-12.695,-17.090,-29.785,-209.473
1687268585.494,-25.391,-9.277,-13.672,-25.391,-36.133
1687268585.498,-19.043,-11.719,-16.113,-18.066,12.695
1687268585.502,-28.809,-14.648,-15.137,-18.555,-142.090
1687268585.506,-30.762,-15.625,-11.719,-35.645,-167.480
1687268585.510,-3.906,-14.648,-13.184,-13.184,148.438
1687268585.514,8.789,-9.766,-16.602,-6.836,253.906
1687268585.517,-6.348,-6.836,-13.184,-19.531,4.883
1687268585.521,-20.020,-15.625,-9.277,-10.742,-119.629
1687268585.525,-12.207,-20.508,-9.766,3.906,288.086
1687268585.529,-2.441,-14.160,-10.742,-8.789,510.254
1687268585.533,-13.672,-14.160,-12.695,-26.855,-17.578
1687268585.536,-9.766,-14.648,-12.207,-5.859,-175.293
1687268585.540,-3.418,-9.766,-9.277,-7.324,-144.043
1687268585.544,-12.207,-6.836,-4.883,-17.090,-221.191
1687268585.548,-4.395,-8.301,-0.488,-1.465,-209.961
1687268585.552,-3.906,-10.254,1.465,9.277,-162.109
1687268585.556,1.465,-9.277,-1.465,11.230,-23.438
1687268585.560,2.930,-8.301,-2.441,-8.301,29.785
1687268585.563,-23.438,-12.695,-8.301,-33.691,-123.535
1687268585.567,-18.066,-10.742,-10.742,-27.832,-44.434
1687268585.571,-11.719,-3.906,-4.883,-19.043,250.488
1687268585.575,-19.043,-7.324,-8.789,-15.137,-24.902
1687268585.579,-6.836,-12.695,-12.695,-6.348,-198.242
1687268585.580,-5.859,-10.742,-9.766,-4.883,11.719
1687268585.584,-22.949,-8.301,-10.742,-16.602,-14.648
1687268585.588,-20.020,-8.789,-13.184,-11.719,-72.266
1687268585.592,-9.766,-5.859,-14.160,-7.812,-92.773
1687268585.596,-4.395,-1.465,-8.789,-3.906,134.766
1687268585.600,-1.953,-2.930,-4.395,-1.465,268.066
1687268585.604,5.859,-3.906,-5.859,-11.230,-33.691
1687268585.607,-1.953,-0.488,-2.930,2.930,-150.879
1687268585.611,-14.160,-1.465,-0.977,3.906,147.949
1687268585.615,-20.020,-7.324,-9.277,-5.859,82.031
1687268585.619,-20.508,-6.836,-6.836,2.930,-198.730
1687268585.623,-19.043,-4.883,-5.371,7.324,-84.473
1687268585.625,-19.531,-12.207,-9.766,7.324,-43.945
1687268585.629,-2.930,-14.160,-8.301,0.000,-165.527
1687268585.633,-1.953,-2.441,-8.789,-0.488,-209.473
1687268585.637,-21.973,0.977,-7.324,15.137,-117.676
1687268585.641,-23.926,-5.859,-6.348,3.906,20.508
1687268585.645,-15.137,-10.254,-9.766,-17.090,65.430
1687268585.649,-17.578,-13.184,-11.719,-12.695,12.207
1687268585.652,-14.160,-13.672,-13.672,-4.395,10.254
1687268585.656,-5.371,-9.766,-10.742,8.301,180.176
1687268585.660,-20.020,-9.766,-13.184,-0.977,-42.480
1687268585.664,-28.809,-13.672,-17.578,-24.902,-233.887
1687268585.668,-12.695,-14.160,-14.160,-12.695,-57.617
1687268585.669,-4.883,-9.766,-14.648,-6.836,-20.020
1687268585.673,4.395,-6.836,-13.672,-25.879,-76.660
1687268585.677,7.324,-5.859,-12.207,-24.414,-6.348
1687268585.681,-3.418,-10.742,-13.184,-14.648,70.801
1687268585.685,-16.113,-14.648,-14.160,-6.836,-2.930
1687268585.689,-30.273,-17.090,-16.113,-8.789,-98.145
1687268585.693,-18.555,-19.531,-25.391,-10.254,22.461
1687268585.696,17.578,-5.371,-34.180,23.926,343.750
1687268585.700,14.648,-3.906,-20.508,38.086,337.402
1687268585.704,-20.996,-21.973,-4.395,-2.930,-68.848
1687268585.708,-22.949,-27.832,-0.977,-12.695,-125.977
1687268585.712,-25.391,-26.855,0.000,7.324,-116.699
1687268585.715,-21.484,-23.926,4.883,19.531,-189.453
1687268585.719,-11.719,-27.832,8.301,12.695,-201.660
1687268585.723,-4.395,-27.832,15.625,14.160,-160.156
1687268585.727,-1.953,-24.414,16.113,8.301,-84.961
1687268585.731,-2.930,-24.902,19.531,12.207,-55.176
1687268585.735,-9.277,-28.809,27.344,20.996,-62.988
1687268585.739,-18.555,-29.297,26.367,20.996,129.883
1687268585.742,-1.465,-31.250,27.344,19.531,444.824
1687268585.746,13.184,-36.621,27.832,31.738,97.656
1687268585.750,6.348,-37.598,27.832,46.875,-198.730
1687268585.754,-7.812,-42.480,30.273,54.688,-52.246
1687268585.758,6.836,-44.922,34.668,61.523,-14.648
1687268585.760,29.785,-41.016,34.668,70.801,-103.027
1687268585.764,31.250,-26.367,27.832,72.754,-116.699
1687268585.768,24.414,-19.531,24.414,66.406,93.262
1687268585.772,23.438,-22.461,23.438,67.871,-0.488
1687268585.776,18.066,-22.949,20.508,59.082,-220.703
1687268585.780,21.973,-19.043,20.020,48.340,-96.191
1687268585.784,21.484,-16.602,17.090,52.734,265.625
1687268585.787,4.883,-17.090,12.207,35.645,245.117
1687268585.791,7.324,-18.066,8.789,25.391,-150.879
1687268585.795,6.836,-15.625,9.277,17.090,-161.621
1687268585.799,0.977,-10.742,5.859,9.766,-4.395
1687268585.803,4.883,-8.789,2.441,12.695,-110.352
1687268585.821,2.441,-9.766,4.395,20.996,-181.641
1687268585.825,0.977,-11.719,5.859,42.969,-128.906
1687268585.829,3.418,-10.742,5.859,30.762,-100.098
1687268585.833,3.906,-7.812,4.395,5.371,-111.816
1687268585.837,9.277,-6.836,0.488,9.277,-122.559
1687268585.841,6.836,-6.348,-2.930,20.996,20.020
1687268585.845,9.766,-9.277,-6.836,3.906,170.898
1687268585.848,9.766,-10.742,-8.301,-3.906,-49.316
1687268585.852,8.789,-7.324,-6.836,5.371,-161.133
1687268585.856,6.348,-8.301,-2.441,2.441,-43.945
1687268585.860,7.812,-4.395,-0.977,9.277,0.000
1687268585.864,-1.465,-2.930,-4.883,5.859,-119.629
1687268585.865,-4.395,-7.812,-2.930,4.883,-120.117
1687268585.869,0.488,-8.301,1.953,22.949,104.980
1687268585.873,8.789,-10.254,-0.977,20.996,154.297
1687268585.877,5.859,-10.742,-2.930,19.043,-82.520
1687268585.881,-8.301,-9.277,-3.418,23.438,-87.891
1687268585.885,-7.812,-7.812,-0.488,34.180,70.312
1687268585.889,3.418,-10.254,-7.324,22.461,29.785
1687268585.892,5.371,-10.742,-17.090,-11.719,-81.543
1687268585.896,-6.348,-13.184,-15.137,-23.926,-115.234
1687268585.900,-7.324,-13.184,-13.184,0.000,226.074
1687268585.904,-17.090,-11.230,-12.207,14.648,313.965
1687268585.908,-8.789,-10.742,-7.812,-8.301,-83.008
1687268585.909,-10.742,-5.859,-3.906,-5.859,-157.227
1687268585.913,-9.766,-4.883,-2.930,-0.488,-83.496
1687268585.917,5.859,-3.418,-2.930,-6.836,-100.586
1687268585.921,-11.719,-1.465,-4.395,-3.418,-121.094
1687268585.925,-23.438,-7.324,-9.277,6.348,-82.031
1687268585.929,-14.160,-11.230,-8.789,12.207,25.391
1687268585.933,-10.254,-9.766,-6.348,7.812,-28.809
1687268585.936,-9.766,-4.883,-7.324,-8.301,-118.164
1687268585.940,11.230,-3.418,-9.277,-14.648,-7.324
1687268585.944,20.996,-11.719,-9.277,11.230,322.754
1687268585.948,7.324,-19.531,-4.395,27.344,98.145
1687268585.952,-7.324,-13.184,-7.324,8.789,-158.691
1687268585.955,-12.695,-3.906,-14.648,-7.324,-77.148
1687268585.959,-15.625,-5.859,-15.137,-14.160,-66.895
1687268585.963,-17.578,-10.254,-15.137,-19.531,-37.598
1687268585.967,-7.812,-4.883,-20.020,-20.508,-137.207
1687268585.971,3.906,-1.465,-21.484,-10.254,4.883
1687268585.975,-11.230,-7.324,-19.043,-9.766,95.215
1687268585.979,-17.090,-12.207,-16.602,-2.441,-13.184
1687268585.982,-13.672,-15.625,-17.578,-4.395,-55.664
1687268585.986,-19.043,-14.648,-19.043,-6.348,156.738
1687268585.990,-20.996,-14.160,-20.996,3.418,191.406
1687268585.994,-20.996,-15.137,-24.902,-2.441,-173.828
1687268585.998,-11.230,-14.648,-23.926,-18.555,-179.688
1687268586.001,-3.906,-10.254,-21.484,0.977,21.973
1687268586.005,-15.137,-12.207,-20.020,-11.719,-85.938
1687268586.009,-11.719,-14.160,-16.602,-29.297,-158.691
1687268586.013,-7.812,-16.113,-17.578,-23.926,-57.617
1687268586.017,-14.160,-17.578,-19.043,-13.672,-87.402
1687268586.021,-22.949,-17.090,-14.648,7.324,-46.387
1687268586.025,-29.297,-20.508,-14.160,1.465,-23.926
1687268586.028,1.465,-12.207,-14.648,-0.488,-25.879
1687268586.032,11.719,-7.812,-10.254,20.020,355.469
1687268586.036,1.465,-9.766,-14.648,8.301,95.215
1687268586.040,14.648,-1.953,-17.578,-4.395,-242.676
1687268586.044,18.555,-1.953,-13.672,-6.348,-106.934
1687268586.044,-0.488,-4.883,-15.625,-1.953,-88.867
1687268586.048,-11.230,-1.465,-13.672,7.324,-148.926
1687268586.052,-3.906,-6.836,-10.742,-4.395,-112.793
1687268586.056,-0.488,-8.789,-9.277,-0.977,43.945
1687268586.060,-15.137,-7.324,-9.766,4.883,31.738
1687268586.064,-26.855,-16.113,-8.789,0.488,-90.332
1687268586.068,-25.879,-21.484,-9.277,2.441,-104.980
1687268586.071,-20.508,-15.625,-12.695,-6.348,147.949
1687268586.075,-21.973,-12.695,-12.695,-1.465,104.004
1687268586.079,-22.461,-14.160,-9.277,4.883,-195.801
1687268586.083,-18.555,-11.230,-10.742,4.395,-45.898
1687268586.087,-9.277,-9.277,-12.207,-11.230,100.098
1687268586.089,-2.441,-11.719,-7.812,-31.250,-119.629
1687268586.093,-16.113,-14.160,-9.277,-42.969,-209.961
1687268586.097,-28.809,-13.672,-12.207,-33.203,-91.309
1687268586.101,-36.133,-16.113,-14.160,-31.250,12.207
1687268586.105,-37.109,-16.602,-15.625,-28.809,-86.426
1687268586.109,-20.020,-14.160,-16.602,-13.672,-93.262
1687268586.113,4.395,-11.230,-15.137,-13.672,156.250
1687268586.116,-11.719,-11.719,-13.672,1.953,453.613
1687268586.120,-16.602,-14.160,-19.043,23.926,76.660
1687268586.124,30.273,-8.301,-12.207,54.688,-225.586
1687268586.128,20.508,-4.883,-6.836,32.715,-88.867
1687268586.132,-35.645,-0.977,-21.484,-47.852,-122.559
1687268586.135,-47.363,0.977,-21.484,-61.523,-160.156
1687268586.139,-47.852,4.395,-20.996,-43.457,-76.660
1687268586.143,-75.684,1.953,-28.320,-78.125,127.441
1687268586.147,-89.844,-6.836,-31.738,-101.562,208.496
1687268586.151,-93.262,-5.859,-50.781,-134.766,-90.332
1687268586.155,-121.094,-3.418,-58.105,-169.922,-112.793
1687268586.159,-132.812,0.977,-32.715,-145.508,196.777
1687268586.162,-128.906,-0.977,-20.996,-151.367,114.258
1687268586.166,-115.723,5.859,-20.508,-164.551,-188.477
1687268586.170,-102.539,9.766,-12.207,-150.391,-186.523
1687268586.174,-124.023,2.441,-6.348,-132.324,-61.035
1687268586.178,-144.531,-4.395,-14.648,-120.117,-91.309
1687268586.181,-127.441,-3.418,-22.949,-115.234,-128.418
1687268586.185,-84.473,-1.953,-19.531,-96.680,-55.176
1687268586.189,-59.570,0.977,-12.695,-76.172,-45.410
1687268586.193,-69.824,-0.977,-9.766,-69.824,-65.918
1687268586.197,-67.871,-8.301,-14.648,-60.059,-141.113
1687268586.201,-53.223,-8.301,-14.648,-51.758,6.348
1687268586.205,-46.875,-9.766,-12.695,-45.410,457.031
1687268586.208,-41.016,-11.719,-19.531,-30.762,126.953
1687268586.212,-34.180,-11.230,-25.879,-17.578,-217.285
1687268586.216,-36.621,-14.648,-24.414,-27.344,-88.379
1687268586.220,-27.344,-12.207,-26.855,-40.527,-109.863
1687268586.224,-19.531,-11.230,-27.344,-41.016,-185.547
1687268586.240,-32.715,-17.090,-20.508,-41.016,-175.293
1687268586.244,-21.484,-13.672,-19.043,-36.133,11.719
1687268586.248,-14.648,-11.230,-20.996,-32.715,60.059
1687268586.252,-24.414,-14.160,-20.996,-32.715,-102.051
1687268586.256,-20.508,-10.254,-22.949,-24.902,-123.047
1687268586.260,-10.254,-14.648,-22.949,-31.250,239.746
1687268586.264,-22.461,-15.137,-22.949,-21.484,418.945
1687268586.267,-15.625,-8.301,-23.926,-21.484,36.621
1687268586.271,5.859,-3.906,-21.484,-24.414,-108.887
1687268586.275,6.348,-6.348,-16.602,-14.648,173.828
1687268586.279,-7.324,-10.254,-16.113,-12.695,76.172
1687268586.283,3.418,-9.766,-17.090,-9.766,-219.238
1687268586.284,2.441,-8.301,-16.602,-32.227,-194.824
1687268586.288,-15.625,-5.371,-10.742,-23.438,-119.141
1687268586.292,-19.531,-6.836,-6.836,-14.160,-130.859
1687268586.296,-11.230,-4.395,-11.230,-15.625,-139.648
1687268586.300,-5.859,-3.906,-8.789,-4.883,-59.082
1687268586.304,-3.418,-10.254,-8.301,-8.789,86.914
1687268586.308,-10.742,-12.207,-12.207,0.977,57.129
1687268586.311,-17.090,-15.137,-10.742,13.184,-147.949
1687268586.315,-13.184,-18.555,-8.301,13.184,-57.617
1687268586.319,0.488,-14.160,-5.859,7.324,294.922
1687268586.323,-9.277,-11.230,-9.277,-12.695,29.297
1687268586.327,-33.691,-15.625,-14.648,-23.438,-194.824
1687268586.329,-32.227,-14.648,-15.137,-8.789,-83.984
1687268586.333,-14.648,-11.719,-15.625,-3.418,-46.387
1687268586.337,-12.207,-17.090,-17.090,-19.531,-22.461
1687268586.341,-18.555,-18.066,-20.020,-44.922,-108.398
1687268586.345,-12.695,-15.137,-13.672,-40.039,27.344
1687268586.349,-1.465,-12.207,-12.207,-15.625,83.496
1687268586.353,-4.395,-9.766,-16.602,-17.090,-17.090
1687268586.356,-26.367,-6.348,-11.230,-1.465,-18.066
1687268586.360,-27.344,-4.395,-3.906,11.230,123.535
1687268586.364,-17.090,-4.395,-4.395,-20.020,40.527
1687268586.368,-6.836,-2.441,-8.301,-23.926,-256.348
1687268586.372,0.000,-3.906,-10.254,-3.906,-179.688
1687268586.374,-0.977,-7.324,-7.324,-2.930,-11.230
1687268586.378,-1.465,-11.230,-9.277,0.977,-145.508
1687268586.382,3.418,-11.230,-9.277,11.230,-252.441
1687268586.386,-6.836,-6.836,-7.324,13.672,-168.945
1687268586.390,-11.719,-16.113,-4.883,-1.953,-108.887
1687268586.394,10.254,-26.855,1.953,4.883,-37.598
1687268586.398,10.254,-18.066,-3.418,-5.371,-73.242
1687268586.401,-21.484,-7.812,-18.555,-34.180,-51.758
1687268586.405,-30.762,-4.883,-24.902,-26.367,222.656
1687268586.409,-8.789,-8.301,-27.344,-21.973,53.223
1687268586.413,-1.953,-11.230,-29.297,-21.973,-111.816
1687268586.417,-14.648,-10.254,-32.715,-14.648,-58.594
1687268586.420,-17.090,0.488,-39.551,-12.695,-112.305
1687268586.424,-8.789,5.859,-34.668,-4.395,-86.426
1687268586.428,-15.625,1.953,-35.645,-16.113,-7.324
1687268586.432,-21.484,0.000,-36.133,-26.855,187.500
1687268586.436,-12.695,-3.418,-32.715,-40.527,206.543
1687268586.440,-11.719,-0.977,-34.668,-37.109,-75.195
1687268586.444,-3.418,2.930,-31.738,-25.391,-71.289
1687268586.447,1.953,-1.953,-20.996,-7.324,191.406
1687268586.451,-2.930,-9.766,-23.926,9.766,126.953
1687268586.455,-13.672,-14.648,-34.668,-13.184,-165.527
1687268586.459,-9.277,-11.719,-29.297,-32.715,-119.629
1687268586.463,1.953,-8.301,-21.484,-30.273,-28.809
1687268586.464,-14.648,-6.836,-22.461,-34.180,-96.680
1687268586.468,-17.578,-4.395,-21.484,-25.879,-76.172
1687268586.472,-14.648,-7.324,-18.066,-7.812,-33.203
1687268586.476,-20.996,-10.254,-18.555,-25.391,13.672
1687268586.480,-17.090,-11.230,-20.020,-25.879,1.465
1687268586.484,-5.859,-10.254,-13.672,-6.348,-90.332
1687268586.488,0.977,-6.348,-5.859,8.301,103.027
1687268586.491,-4.883,-5.859,-6.836,8.789,381.348
1687268586.495,-18.066,-8.789,-12.695,-5.859,116.699
1687268586.499,-11.230,-6.836,-16.602,-13.184,-180.176
1687268586.503,-5.371,-8.789,-10.254,-15.137,-157.227
1687268586.507,-11.230,-15.137,-10.254,-13.184,-141.602
1687268586.524,-18.066,-17.578,-20.996,-12.695,-189.453
1687268586.528,-20.020,-20.996,-20.020,-22.461,-213.379
1687268586.532,-24.902,-18.555,-12.207,-12.695,-7.324
1687268586.536,-13.184,-12.207,-17.090,-9.277,20.996
1687268586.540,-4.883,-6.348,-14.648,-2.930,-88.867
1687268586.544,-20.020,-8.301,-7.324,-9.277,38.086
1687268586.548,-14.160,-9.277,-10.254,-20.508,322.754
1687268586.551,-15.137,-10.254,-14.648,-5.371,340.820
1687268586.555,-21.484,-18.555,-16.113,-20.508,-64.941
1687268586.559,-19.043,-19.043,-13.184,-18.066,-175.781
1687268586.563,-15.137,-9.766,-15.137,-8.301,59.082
1687268586.567,-18.066,-9.766,-20.996,-12.207,-56.152
1687268586.555,-20.020,-15.137,-17.578,0.977,-226.562
1687268586.559,-9.766,-7.812,-11.230,-0.977,-172.363
1687268586.563,-1.953,-6.836,-9.766,-3.906,-88.867
1687268586.567,-11.719,-13.672,-7.812,-5.859,-104.004
1687268586.571,-18.066,-19.043,-10.254,-16.602,-146.484
1687268586.575,-17.578,-16.113,-14.648,-31.250,-12.207
1687268586.579,-33.203,-12.695,-15.625,-41.016,65.918
1687268586.582,-33.691,-17.090,-18.555,-31.250,-39.062
1687268586.586,-20.020,-17.090,-21.484,-15.137,-122.070
1687268586.590,-8.301,-11.230,-20.020,-23.438,34.668
1687268586.594,-2.441,-5.859,-14.160,-9.277,354.980
1687268586.598,-8.789,-8.301,-17.578,12.695,93.750
1687268586.614,-19.043,-13.184,-20.508,12.695,-180.176
1687268586.618,-31.250,-9.766,-20.996,-4.883,-37.598
1687268586.622,-30.762,-9.277,-21.973,-30.273,-66.895
1687268586.626,-21.484,-9.766,-17.578,-33.691,-182.129
1687268586.630,-26.855,-14.160,-16.113,-22.949,-176.270
1687268586.634,-20.020,-14.160,-9.277,-18.066,179.199
1687268586.638,-14.160,-9.766,-9.766,-9.277,298.828
1687268586.641,-21.973,-14.160,-15.137,-13.672,-137.695
1687268586.645,-25.391,-19.531,-15.137,-41.504,-235.352
1687268586.649,-17.578,-22.949,-16.602,-31.250,87.402
1687268586.653,-14.648,-23.926,-17.578,-4.883,89.844
1687268586.657,-8.789,-22.461,-18.555,-9.277,-10.742
1687268586.660,-9.766,-17.090,-19.531,-26.367,-19.531
1687268586.664,-29.785,-14.160,-20.020,-20.996,16.113
1687268586.668,-33.203,-14.648,-20.020,-20.508,-32.715
1687268586.672,-22.461,-11.719,-13.672,-8.789,-124.023
1687268586.676,1.465,-6.836,-7.324,9.766,-65.918
1687268586.680,2.441,-7.812,-5.859,5.859,-11.230
1687268586.684,-17.090,-9.766,-4.883,25.391,-73.730
1687268586.687,-20.508,-10.742,-4.883,19.043,-166.992
1687268586.691,-5.859,-9.277,-0.977,13.672,-41.504
1687268586.695,-2.441,-3.418,-4.883,15.625,259.766
1687268586.699,-21.973,-5.859,-8.789,-15.625,-3.906
1687268586.703,-19.043,-15.137,-9.766,-37.598,-167.969
1687268586.705,-7.812,-15.625,-17.578,-29.297,-61.035
1687268586.709,-17.578,-18.066,-18.066,-28.809,-85.938
1687268586.713,-23.438,-19.531,-14.160,-37.109,-41.504
1687268586.717,-15.625,-6.836,-12.695,-29.785,-16.113
1687268586.721,-10.742,-1.953,-10.254,-9.277,77.148
1687268586.725,-3.418,-7.324,-11.719,-7.812,103.027
1687268586.729,2.441,-8.301,-11.230,-14.648,28.320
1687268586.732,9.277,-1.465,-11.719,-15.625,-74.707
1687268586.736,6.836,-2.441,-18.066,-2.441,168.945
1687268586.740,-7.812,-11.230,-17.090,4.883,330.078
1687268586.744,-24.902,-13.672,-11.230,-7.812,-78.613
1687268586.748,-26.367,-7.812,-6.836,1.953,-159.668
1687268586.750,-11.719,-7.812,-7.324,5.371,-97.656
1687268586.754,-16.113,-13.184,-6.836,-9.766,-138.184
1687268586.758,-21.484,-12.207,-11.230,-29.297,-165.039
1687268586.762,-9.277,-9.277,-10.742,-25.391,-161.133
1687268586.766,-19.531,-6.348,-6.836,-18.066,-39.062
1687268586.770,-20.508,-3.906,-8.789,-18.066,-25.391
1687268586.774,-12.207,-4.883,-8.301,-10.254,-92.773
1687268586.777,-13.672,-6.836,-4.395,-0.977,7.812
1687268586.781,-8.789,0.000,-3.418,3.418,355.469
1687268586.785,-10.254,-2.930,-14.648,-7.324,174.805
1687268586.789,-8.301,-4.395,-18.066,-10.254,-121.582
1687268586.793,-5.859,7.812,-16.113,1.465,-93.262
1687268586.794,-8.789,3.906,-20.508,7.812,-136.230
1687268586.798,-8.789,-6.836,-21.484,-5.371,-128.906
1687268586.802,-13.672,-9.277,-15.137,-2.930,-71.289
1687268586.806,-15.137,-8.301,-15.137,-13.184,67.383
1687268586.810,-19.531,-10.254,-16.602,-35.156,82.520
1687268586.814,-18.555,-7.812,-14.160,-29.297,-11.230
1687268586.818,-9.277,-0.977,-15.625,-14.160,-52.734
1687268586.821,-3.418,0.977,-14.160,-3.418,207.520
1687268586.825,-0.488,-1.953,-13.184,1.465,286.133
1687268586.829,-3.906,-3.906,-18.066,-27.832,-141.602
1687268586.833,-11.230,-5.859,-16.113,-31.738,-191.406
1687268586.837,-12.695,-8.789,-13.672,-1.953,-35.645
1687268586.840,-15.137,-11.230,-12.207,-13.184,-151.855
1687268586.844,3.418,-2.441,-11.230,-15.625,-214.355
1687268586.848,14.648,1.953,-9.277,-3.418,-145.020
1687268586.852,5.371,-2.930,-7.812,-5.371,-139.648
1687268586.856,11.230,-3.418,-6.836,-0.977,-172.852
1687268586.860,-4.395,-5.371,-11.719,-13.184,-168.945
1687268586.864,-21.973,-8.301,-11.719,-5.859,2.930
1687268586.867,-17.578,-9.766,-8.789,14.648,288.574
1687268586.871,-14.648,-13.672,-8.789,5.859,40.039
1687268586.875,-19.531,-19.531,-10.254,-7.812,-109.863
1687268586.879,-17.578,-20.020,-10.742,3.906,-4.395
1687268586.883,1.953,-5.859,-6.348,8.789,-0.977
1687268586.884,-9.766,1.953,-8.301,-6.836,-141.113
1687268586.888,-24.902,-8.301,-13.672,-10.254,-134.766
1687268586.892,-9.766,-7.324,-10.742,-7.812,96.680
1687268586.896,-7.324,-2.930,-9.277,-12.695,-1.953
1687268586.900,-27.832,-11.230,-12.207,-22.461,-190.430
1687268586.904,-24.414,-13.184,-6.348,-17.090,-40.527
1687268586.908,-10.742,-13.672,0.000,-4.883,186.523
1687268586.911,-19.043,-16.113,-6.348,-3.418,66.406
1687268586.915,-19.043,-16.602,-12.207,-15.137,-164.062
1687268586.919,-20.996,-10.254,-8.301,-10.254,-92.285
1687268586.923,-11.230,-6.836,-8.301,-3.906,134.766
1687268586.927,-9.766,-9.766,-14.160,-18.066,88.379
1687268586.932,-30.273,-10.254,-20.996,-33.203,-75.684
1687268586.936,-21.484,-10.742,-18.555,-36.621,-102.539
1687268586.940,-10.254,-5.859,-12.695,-27.832,30.273
1687268586.944,-23.926,-8.789,-19.531,-18.066,-36.133
1687268586.948,-26.367,-9.766,-20.508,-22.949,-131.836
1687268586.952,-20.996,-6.836,-12.207,-29.785,59.570
1687268586.956,-30.273,-8.301,-9.766,-23.438,200.684
1687268586.959,-38.574,-8.789,-9.277,-23.926,-10.742
1687268586.963,-41.504,-12.207,-9.277,-41.016,-149.902
1687268586.967,-45.898,-7.812,-13.184,-44.434,-62.988
1687268586.971,-49.805,-8.789,-17.090,-38.086,-47.852
1687268586.975,-40.527,-7.324,-20.020,-48.828,-176.758
1687268586.990,-44.434,-3.418,-24.902,-66.406,-145.020
1687268586.994,-48.340,1.953,-26.367,-79.102,-12.695
1687268586.998,-35.645,3.418,-20.508,-89.355,-14.160
1687268587.002,-39.551,-1.465,-22.949,-83.984,-58.105
1687268587.006,-41.504,11.719,-29.785,-62.988,-84.473
1687268587.010,-78.613,21.973,-32.227,-69.824,245.605
1687268587.014,-119.141,20.508,-20.508,-75.195,564.453
1687268587.017,-125.488,16.602,-26.855,-89.844,92.773
1687268587.021,-134.766,23.926,-39.062,-109.863,-238.770
1687268587.025,-146.973,31.738,-32.227,-124.512,-158.691
1687268587.029,-157.227,36.621,-40.039,-145.020,-144.531
1687268587.033,-157.715,51.758,-47.852,-145.508,-210.449
1687268587.034,-135.254,55.176,-33.203,-143.066,-180.176
1687268587.038,-148.926,51.270,-37.109,-164.551,-41.016
1687268587.042,-182.129,55.176,-46.387,-193.848,-119.141
1687268587.046,-182.129,62.500,-38.086,-187.500,-182.129
1687268587.050,-174.805,59.082,-39.062,-198.730,-75.195
1687268587.054,-181.152,54.199,-44.922,-210.449,26.855
1687268587.058,-194.824,48.340,-40.527,-211.914,11.230
1687268587.061,-192.383,43.457,-39.062,-224.121,-74.707
1687268587.065,-176.758,45.410,-37.109,-199.219,-115.234
1687268587.069,-173.340,41.992,-33.203,-190.430,248.047
1687268587.073,-167.480,43.457,-35.645,-184.082,133.301
1687268587.077,-139.160,49.805,-39.062,-167.969,-169.434
1687268587.080,-116.211,47.363,-43.945,-171.875,-113.770
1687268587.084,-107.910,31.738,-39.551,-168.457,-67.871
1687268587.088,-108.887,21.973,-30.273,-153.809,-20.508
1687268587.092,-102.051,23.438,-33.691,-140.625,-68.359
1687268587.096,-78.125,20.020,-33.203,-118.652,40.039
1687268587.100,-66.406,6.348,-28.809,-94.238,27.344
1687268587.104,-59.570,7.812,-27.832,-83.984,-88.867
1687268587.107,-57.129,11.230,-36.621,-90.820,-6.836
1687268587.111,-33.203,0.000,-37.109,-60.547,225.586
1687268587.115,-12.695,-11.230,-34.180,-38.574,253.418
1687268587.119,-20.996,-8.301,-37.598,-45.898,-119.629
1687268587.123,-8.789,-11.719,-32.227,-39.062,-221.191
1687268587.124,4.883,-23.926,-23.926,-35.156,-139.648
1687268587.128,5.859,-30.273,-16.113,-7.812,-136.230
1687268587.132,29.297,-21.973,-12.695,20.020,-179.199
1687268587.136,62.012,-11.230,-4.395,43.945,-133.301
1687268587.140,84.473,-16.113,9.277,78.613,-70.801
1687268587.144,95.703,-27.832,20.996,114.258,-80.078
1687268587.148,111.328,-24.414,26.855,110.840,-85.449
1687268587.151,133.301,-15.625,32.715,117.188,22.461
1687268587.155,154.785,-11.230,39.551,150.879,250.000
1687268587.159,158.691,-13.672,45.410,155.273,29.785
1687268587.163,150.391,-25.879,49.805,161.621,-98.145
1687268587.167,156.250,-33.691,54.199,179.688,-5.371
1687268587.170,177.246,-29.297,53.223,188.477,-72.754
1687268587.174,201.172,-30.762,53.223,191.406,-145.020
1687268587.178,188.965,-36.621,62.012,205.566,-93.750
1687268587.182,174.316,-40.527,63.965,213.867,48.828
1687268587.186,176.270,-50.293,57.617,216.309,54.688
1687268587.190,173.340,-53.711,56.641,199.219,-1.465
1687268587.194,182.129,-42.969,56.152,190.430,58.594
1687268587.197,180.176,-44.922,45.410,197.266,223.633
1687268587.201,168.945,-55.664,46.875,181.641,143.066
1687268587.205,170.410,-49.805,50.293,184.570,-153.320
1687268587.209,156.738,-52.246,42.969,198.730,-171.875
1687268587.213,151.855,-56.152,40.527,201.172,-103.027
1687268587.217,154.297,-48.828,42.480,197.266,-90.332
1687268587.221,131.348,-46.387,42.480,183.594,-186.523
1687268587.225,139.648,-43.457,46.875,176.758,-155.273
1687268587.229,144.043,-40.039,53.711,178.223,31.738
1687268587.233,139.160,-49.805,55.176,180.664,-36.621
1687268587.237,134.766,-59.082,51.758,166.016,-88.379
1687268587.241,107.422,-69.336,42.969,155.762,87.891
1687268587.244,89.844,-72.754,38.574,165.039,282.715
1687268587.248,82.031,-68.359,32.715,142.090,26.855
1687268587.252,81.543,-62.988,28.320,103.027,-194.824
1687268587.256,83.496,-58.105,28.809,80.078,-122.070
1687268587.260,73.730,-56.641,29.297,81.055,-98.145
1687268587.260,80.566,-57.617,32.227,85.938,-120.117
1687268587.264,78.613,-65.918,31.738,80.566,-131.836
1687268587.268,74.219,-61.523,32.715,82.031,71.777
1687268587.272,82.520,-42.480,40.527,100.586,83.984
1687268587.276,71.289,-29.785,43.945,90.332,-136.719
1687268587.280,65.430,-23.926,48.340,89.355,-104.492
1687268587.284,78.613,-19.043,51.758,100.098,269.531
1687268587.287,82.031,-18.555,54.199,107.422,500.977
1687268587.291,67.871,-21.484,57.617,104.004,50.781
1687268587.295,65.918,-13.672,59.082,95.703,-231.445
1687268587.299,67.383,-10.742,55.176,95.215,-120.605
1687268587.303,65.918,-7.324,52.734,96.680,-142.578
1687268587.305,62.012,-2.930,51.270,93.262,-159.180
1687268587.309,64.941,0.977,49.316,91.797,-107.910
1687268587.313,57.129,5.371,48.828,90.332,-80.078
1687268587.317,53.223,6.836,51.270,97.168,-123.535
1687268587.321,60.059,8.789,49.805,94.238,-122.070
1687268587.325,68.359,11.230,37.598,73.730,14.160
1687268587.329,67.871,16.113,36.621,84.473,146.973
1687268587.332,48.828,15.137,37.598,79.102,39.062
1687268587.336,38.086,12.695,36.133,66.895,-175.293
1687268587.340,47.363,16.602,41.016,80.078,-62.988
1687268587.344,50.293,19.531,44.434,85.938,160.156
1687268587.348,45.898,17.090,35.645,59.570,-76.172
1687268587.365,47.363,6.348,26.367,38.086,-191.895
1687268587.369,39.551,7.812,29.297,40.527,-31.738
1687268587.373,36.621,7.812,25.391,43.457,32.715
1687268587.377,30.273,-4.395,16.602,40.527,-69.824
1687268587.381,37.109,-10.254,17.578,52.734,-167.480
1687268587.385,37.109,-6.348,21.484,66.406,183.105
1687268587.389,28.809,2.930,9.277,37.109,346.680
1687268587.392,31.250,1.465,-1.953,30.762,-62.500
1687268587.396,43.945,-2.930,0.488,66.406,-86.426
1687268587.400,52.246,4.395,9.277,83.984,154.785
1687268587.404,52.734,0.488,9.277,74.707,-21.973
1687268587.408,43.457,-7.324,1.465,65.918,-253.418
1687268587.409,44.922,-7.812,0.977,54.688,-179.688
1687268587.413,44.922,-11.230,-4.883,44.922,-112.793
1687268587.417,33.691,-5.371,-3.906,32.715,-150.879
1687268587.421,41.504,-2.441,4.883,21.484,-186.035
1687268587.425,35.645,-5.371,2.930,23.926,-103.516
1687268587.429,29.785,-1.465,1.465,38.086,68.359
1687268587.433,42.969,0.488,4.395,53.711,168.945
1687268587.436,29.297,-0.977,4.883,40.527,10.254
1687268587.440,13.672,2.441,9.277,40.527,-45.410
1687268587.444,21.484,-0.977,14.648,58.594,243.164
1687268587.448,20.996,-5.859,14.648,55.176,88.867
1687268587.452,15.625,-4.395,9.277,42.969,-161.621
1687268587.455,18.555,-5.371,1.953,30.273,-20.508
1687268587.459,7.324,-6.836,0.977,20.020,53.711
1687268587.463,0.977,0.977,2.441,14.648,-67.383
1687268587.467,-2.930,2.441,-0.977,13.672,-141.113
1687268587.471,2.441,-3.418,-0.488,20.996,-2.930
1687268587.475,15.625,-6.348,1.465,32.227,85.938
1687268587.479,16.602,-0.977,-0.977,23.438,-74.219
1687268587.482,11.230,1.953,-5.859,16.602,-171.875
1687268587.486,18.066,-0.488,-4.395,25.879,41.992
1687268587.490,25.391,5.371,-3.418,25.879,46.875
1687268587.494,11.719,1.953,-4.395,19.043,-212.402
1687268587.498,8.789,-2.441,-0.977,16.602,-219.238
1687268587.502,15.625,6.836,4.883,17.090,-85.938
1687268587.506,18.066,14.648,7.812,7.812,-92.773
1687268587.510,24.902,13.184,6.348,3.418,-173.340
1687268587.514,38.574,17.578,9.766,18.066,-110.352
1687268587.518,23.438,12.207,10.254,11.230,-2.441
1687268587.522,8.301,4.395,2.930,-3.418,-56.641
1687268587.526,13.672,8.789,1.953,0.977,-78.613
1687268587.529,13.672,8.301,6.348,20.996,43.945
1687268587.533,13.184,5.371,6.836,22.949,238.770
1687268587.537,13.184,5.859,4.883,-3.418,-12.207
1687268587.541,5.859,3.906,3.906,-5.859,-226.074
1687268587.545,10.254,4.883,0.000,6.836,-96.680
1687268587.544,3.906,3.906,-2.441,10.254,-83.984
1687268587.548,-9.277,0.977,2.930,11.719,-86.426
1687268587.552,-3.418,0.000,0.488,5.371,18.066
1687268587.556,-6.348,-0.977,-5.371,3.418,90.820
1687268587.560,0.488,4.395,-4.883,15.625,-28.809
1687268587.564,41.504,23.926,-3.418,39.062,-85.938
1687268587.568,62.988,24.902,3.906,35.156,-52.734
1687268587.571,20.508,0.488,17.578,18.555,142.090
1687268587.575,-7.812,-11.719,22.461,20.020,342.285
1687268587.579,-2.930,-9.277,17.090,21.973,4.883
1687268587.583,9.766,-11.719,20.996,41.504,-182.129
1687268587.587,28.809,-15.137,26.855,50.293,-68.359
1687268587.589,40.527,-9.766,24.902,41.016,-129.395
1687268587.593,24.902,-12.695,18.066,22.461,-189.453
1687268587.597,-1.465,-18.066,17.090,12.207,-167.480
1687268587.601,-12.207,-16.602,20.020,12.207,-120.605
1687268587.605,-4.395,-9.766,18.066,10.742,-97.656
1687268587.609,10.254,-8.301,12.207,20.508,-48.340
1687268587.613,18.555,-5.859,16.113,19.531,124.023
1687268587.616,20.996,-1.953,16.602,28.320,392.090
1687268587.620,0.977,-2.930,7.812,23.438,70.312
1687268587.624,2.930,-3.906,9.277,10.742,-206.055
1687268587.628,11.719,3.906,9.766,16.602,-93.262
1687268587.632,-2.930,3.418,6.348,11.719,-90.332
1687268587.635,18.066,3.906,11.719,24.902,-152.832
1687268587.639,31.250,9.766,11.719,29.785,-161.133
1687268587.643,23.926,8.789,9.277,26.855,134.277
1687268587.647,17.090,7.324,6.836,41.016,94.727
1687268587.651,7.324,5.371,5.371,27.832,-215.332
1687268587.655,5.371,0.000,2.930,35.156,-103.027
1687268587.659,11.719,-0.488,2.441,25.391,139.648
1687268587.662,14.648,4.395,4.883,12.207,32.715
1687268587.666,19.043,3.906,-3.418,12.207,-92.773
1687268587.670,25.879,0.000,-6.836,10.254,-135.742
1687268587.674,21.973,7.812,5.859,27.832,150.879
1687268587.678,11.230,15.137,9.277,22.461,133.789
1687268587.680,13.184,15.137,7.812,26.855,-169.434
1687268587.684,21.484,18.555,12.695,43.945,-131.836
1687268587.688,21.484,22.949,11.719,27.832,-89.844
1687268587.692,20.996,23.926,9.766,18.555,-160.645
1687268587.696,26.855,26.855,15.625,37.598,-255.371
1687268587.700,28.320,24.414,16.113,41.016,-68.359
1687268587.704,21.973,20.996,9.766,32.715,224.609
1687268587.707,25.391,17.578,7.324,20.996,1.465
1687268587.711,33.691,13.184,8.789,21.484,-183.105
1687268587.715,39.062,15.625,5.859,17.578,-86.426
1687268587.719,26.855,13.672,2.930,2.930,56.152
1687268587.723,6.348,12.207,6.348,10.254,-33.203
1687268587.739,3.906,13.184,8.789,17.090,-165.039
1687268587.743,10.742,14.160,8.301,20.508,103.027
1687268587.747,20.508,16.113,9.766,23.438,496.094
1687268587.751,15.137,12.695,2.930,13.672,116.699
1687268587.755,17.090,15.625,3.906,13.184,-185.547
1687268587.759,22.461,19.531,7.324,12.695,202.148
1687268587.763,10.254,16.113,5.859,28.809,350.586
1687268587.766,-6.348,18.066,7.812,8.789,-143.555
1687268587.770,-5.371,16.113,6.348,-8.301,-272.461
1687268587.774,-0.488,10.254,1.465,-1.953,-65.918
1687268587.778,0.000,7.324,-3.906,-8.789,-113.281
1687268587.782,2.930,10.742,-2.441,0.000,-230.957
1687268587.784,-0.488,8.789,-0.488,6.836,-183.594
1687268587.788,-12.207,1.953,-4.395,-5.371,-27.344
1687268587.792,-12.695,0.000,-10.742,-4.883,-47.852
1687268587.796,1.465,2.930,-10.254,3.906,-97.656
1687268587.800,-0.977,-0.488,-6.348,-5.859,-33.691
1687268587.804,-9.766,-3.906,-10.254,-11.230,36.133
1687268587.808,-10.254,0.488,-14.160,-5.859,-30.762
1687268587.811,4.883,6.348,-10.742,6.836,-103.516
1687268587.815,29.785,13.184,-11.230,5.371,-72.266
1687268587.819,49.316,14.648,-14.648,-4.883,198.730
1687268587.823,32.715,5.371,-13.184,-10.254,-60.059
1687268587.827,4.883,0.000,-5.859,0.000,-267.578
1687268587.830,-12.695,-0.488,-5.371,6.836,-77.637
1687268587.834,-28.320,-4.395,-4.883,5.371,-45.410
1687268587.838,-31.738,-10.254,-0.488,11.230,-85.449
1687268587.842,-30.762,-9.277,-4.883,-3.418,-41.992
1687268587.846,-26.367,-8.789,-8.789,-15.137,102.539
1687268587.850,-28.809,-6.836,-8.301,-2.441,184.082
1687268587.854,-31.738,-3.906,-11.719,-3.418,-69.824
1687268587.857,-33.691,-6.836,-12.207,-1.953,-151.855
1687268587.861,-34.668,-9.277,-9.766,-0.977,77.148
1687268587.865,-28.320,-10.742,-7.812,-1.953,30.762
1687268587.869,-30.762,-7.324,-10.254,-14.160,-129.395
1687268587.873,-23.438,-4.395,-9.766,-22.461,-47.363
1687268587.874,-14.160,-10.742,-9.277,-16.113,131.836
1687268587.878,-27.344,-9.766,-12.695,-24.902,63.965
1687268587.882,-25.879,-3.418,-14.648,-12.695,-69.336
1687268587.886,-7.324,2.441,-14.648,-1.465,-27.344
1687268587.890,1.465,0.488,-13.672,-11.230,11.719
1687268587.894,-8.301,-7.324,-11.719,-23.926,8.301
1687268587.898,-12.695,-11.230,-11.719,-19.043,-8.301
1687268587.901,-15.625,-9.277,-13.672,-16.602,28.809
1687268587.905,-24.414,-12.695,-16.113,-11.719,343.750
1687268587.909,-25.391,-16.602,-15.137,-9.277,162.109
1687268587.913,-27.344,-10.742,-11.230,-20.996,-155.273
1687268587.917,-25.391,-5.371,-14.648,-28.809,-85.449
1687268587.919,-18.066,-9.277,-15.137,-34.180,-110.840
1687268587.923,-10.742,-7.812,-15.625,-23.926,-157.227
1687268587.927,-10.742,-5.371,-12.207,-14.648,-30.762
1687268587.931,-20.996,-9.277,-8.789,2.930,155.273
1687268587.935,-15.625,-9.277,-6.836,12.695,143.555
1687268587.939,7.812,-0.977,-9.766,8.789,38.086
1687268587.943,13.672,-1.953,-13.184,-0.488,41.016
1687268587.946,-20.508,-17.578,-6.836,-20.020,197.266
1687268587.950,-38.086,-27.344,-9.766,-26.367,232.422
1687268587.954,-20.020,-28.809,-16.113,-1.953,-60.059
1687268587.958,-10.254,-28.809,-10.254,17.090,-141.602
1687268587.962,-25.391,-23.438,-6.348,12.695,50.781
1687268587.964,-27.832,-24.414,-9.277,-4.395,-26.855
1687268587.968,-13.672,-21.484,-7.812,-11.230,-152.832
1687268587.972,-8.301,-15.137,-7.324,-2.930,-56.152
1687268587.976,-15.137,-15.137,-14.160,-17.090,-16.602
1687268587.980,-15.625,-18.066,-17.578,-29.297,-148.438
1687268587.984,-8.789,-14.160,-13.184,-14.648,-133.789
1687268587.988,-3.906,-5.859,-11.719,-12.695,47.363
1687268587.991,-9.766,-11.230,-10.254,-22.949,285.156
1687268587.995,-28.320,-12.695,-16.602,-37.598,-1.953
1687268587.999,-23.438,-6.836,-16.113,-53.223,-248.047
1687268588.003,-7.812,-4.883,-10.254,-33.203,-72.754
1687268588.007,-10.742,-14.160,-14.648,-24.414,87.891
1687268588.010,-18.555,-19.531,-17.090,-36.621,-15.137
1687268588.014,-11.719,-17.090,-15.137,-14.160,-167.969
1687268588.018,-11.230,-19.043,-10.742,0.977,104.004
1687268588.022,-30.762,-18.066,-10.742,-13.672,255.859
1687268588.026,-30.762,-19.043,-13.672,-14.648,-83.008
1687268588.030,-12.207,-16.113,-13.184,-7.812,-166.504
1687268588.034,-7.812,-11.230,-9.277,17.578,155.762
1687268588.037,-13.672,-11.719,-8.789,34.180,157.227
1687268588.041,-7.812,-9.766,-10.254,17.090,-144.531
1687268588.045,0.000,-3.418,-8.789,-20.020,-125.977
1687268588.049,-0.488,-5.859,-7.324,-25.879,-71.289
1687268588.053,1.953,-10.742,-2.441,-0.977,-150.391
1687268588.057,3.906,-12.695,-4.395,8.789,-215.820
1687268588.061,8.301,-7.324,-8.301,6.836,-33.691
1687268588.065,-6.348,-6.836,-10.254,2.930,103.516
1687268588.069,-13.184,-10.254,-11.230,-2.930,-72.754
1687268588.073,0.488,-8.789,-14.648,-7.324,-174.316
1687268588.077,2.930,-10.254,-15.137,-13.184,-0.488
1687268588.081,-6.348,-7.324,-12.207,-5.371,177.734
1687268588.084,-20.996,-7.324,-14.160,11.719,-64.941
1687268588.088,-19.531,-10.254,-15.625,20.508,-176.758
1687268588.092,-14.648,-9.766,-14.648,0.000,-42.480
1687268588.096,-20.996,-9.766,-13.184,-24.902,20.996
1687268588.100,-20.508,-10.742,-14.160,-25.879,-73.730
1687268588.114,-8.789,-8.789,-11.230,-21.973,-95.215
1687268588.118,-3.906,-5.371,-8.789,-26.855,40.527
1687268588.122,-7.324,-7.812,-13.184,-33.691,69.336
1687268588.126,-15.625,-8.301,-16.113,-24.902,-57.129
1687268588.130,-30.273,-10.254,-20.508,-20.020,-110.352
1687268588.134,-20.996,-13.184,-26.367,-11.719,189.453
1687268588.138,-10.742,-12.695,-28.320,-7.324,503.906
1687268588.141,-20.020,-10.742,-20.996,-17.578,123.535
1687268588.145,-24.902,-8.789,-16.602,-15.137,-182.617
1687268588.149,-29.785,-10.254,-14.648,-11.230,-86.426
1687268588.153,-26.367,-12.207,-13.184,-13.672,-73.730
1687268588.157,-21.973,-11.719,-18.555,-9.277,-134.766
1687268588.159,-16.602,-10.254,-18.555,-11.719,-109.863
1687268588.163,-20.020,-10.254,-16.602,-11.230,-56.641
1687268588.167,-19.043,-7.812,-7.812,-5.859,-139.160
1687268588.171,-12.695,-4.883,-5.371,-28.809,-196.777
1687268588.175,-5.371,-6.348,-11.230,-14.160,-131.836
1687268588.179,4.395,1.465,-11.230,10.742,-29.297
1687268588.183,-2.930,2.930,-8.301,3.418,-20.996
1687268588.186,-18.555,-8.789,-3.906,-12.695,-103.516
1687268588.190,-23.926,-14.160,-0.488,-8.301,-40.527
1687268588.194,-12.207,-18.066,0.488,11.719,319.824
1687268588.198,-13.672,-15.625,-6.836,-16.113,105.469
1687268588.202,-8.301,-13.672,-8.301,-24.414,-206.543
1687268588.203,-0.488,-14.160,-2.930,-6.348,-170.410
1687268588.207,-19.043,-13.184,-2.441,-0.977,-118.652
1687268588.211,-15.137,-12.207,-3.906,1.465,-37.598
1687268588.215,-5.859,-7.324,-5.371,-11.719,-138.184
1687268588.219,-15.625,-4.883,-0.977,-12.695,-7.812
1687268588.223,-9.277,-5.371,-6.836,-12.207,193.359
1687268588.227,0.488,-6.836,-12.695,-12.695,0.488
1687268588.230,-12.207,-7.324,-9.766,-6.348,-163.086
1687268588.234,-10.254,-4.883,-4.883,-0.977,163.574
1687268588.238,3.906,-2.441,-3.418,19.043,324.219
1687268588.242,-0.977,0.000,-2.930,26.855,-143.555
1687268588.246,0.000,-0.977,-5.859,20.020,-205.078
1687268588.250,0.488,0.000,-6.348,25.391,-63.965
1687268588.254,1.953,2.930,-2.441,25.391,-135.742
1687268588.258,-5.859,-2.441,-9.766,11.230,-172.852
1687268588.262,-19.531,-0.977,-15.625,-0.977,-85.449
1687268588.266,-1.953,0.000,-12.207,-1.465,-52.734
1687268588.270,7.324,-3.906,-11.230,-29.297,-8.301
1687268588.274,7.812,-1.465,-15.137,-16.113,-95.703
1687268588.277,7.324,-3.418,-13.672,4.883,-84.473
1687268588.281,1.953,-6.348,-9.766,-3.906,228.027
1687268588.285,-15.625,-6.348,-13.184,-4.883,61.035
1687268588.289,-23.926,-5.859,-15.625,4.395,-140.625
1687268588.293,-13.672,-3.906,-7.812,3.418,-6.348
1687268588.294,-10.742,-2.930,-8.789,-9.766,-17.090
1687268588.298,-12.207,-5.371,-13.184,-12.695,-109.863
1687268588.302,-13.184,-5.371,-11.719,2.930,-46.875
1687268588.306,-20.508,-1.953,-11.719,-2.441,134.277
1687268588.310,-19.043,-3.906,-10.254,-0.977,160.645
1687268588.314,-12.207,-6.836,-5.859,0.000,-30.273
1687268588.318,-9.277,-4.883,-5.371,-9.766,-73.730
1687268588.321,-0.488,0.000,-5.371,-4.883,96.191
1687268588.325,6.348,-5.859,-12.207,-10.742,39.062
1687268588.329,-2.930,-9.766,-14.160,-8.301,-160.156
1687268588.333,-11.230,-7.324,-11.230,0.000,-139.160
1687268588.337,4.395,-8.301,-7.812,12.207,146.973
1687268588.341,0.000,-8.301,-7.812,2.441,27.344
1687268588.345,-26.855,-16.113,-11.230,-14.160,-152.832
1687268588.349,-16.113,-16.602,-10.254,-13.672,26.855
1687268588.353,-13.672,-14.648,-16.113,-5.859,59.570
1687268588.357,-18.555,-14.648,-16.113,-4.883,-80.566
1687268588.361,-6.348,-11.719,-13.672,-4.883,-124.512
1687268588.365,-5.859,-9.277,-11.719,-3.418,41.504
1687268588.368,-11.719,-8.789,-7.324,1.953,287.109
1687268588.372,-9.766,-11.719,-12.207,-14.160,38.574
1687268588.376,-3.418,-12.207,-15.625,-27.832,-163.574
1687268588.380,-3.418,-11.230,-7.324,-12.695,-92.773
1687268588.384,-5.859,-9.766,-1.465,8.301,-121.582
1687268588.385,-11.230,-6.348,-2.441,0.488,-145.996
1687268588.389,-3.418,-5.859,-6.348,-13.184,-98.145
1687268588.393,16.602,-1.953,-7.812,16.602,159.180
1687268588.397,9.277,-4.883,-6.836,12.695,83.496
1687268588.401,-11.230,-9.766,-0.977,-16.602,-85.449
1687268588.405,-9.277,-4.395,0.977,-0.977,20.020
1687268588.409,-7.812,-4.883,-0.488,4.883,217.285
1687268588.412,-16.602,-12.695,2.930,1.465,293.945
1687268588.416,-20.020,-12.207,0.488,-8.789,-96.680
1687268588.420,-9.277,-10.254,-0.977,-4.395,-221.191
1687268588.424,-13.184,-9.277,4.395,12.207,-119.629
1687268588.428,-13.672,-6.836,5.371,3.418,-135.742
1687268588.431,-1.465,-4.883,0.488,-15.137,-163.086
1687268588.435,-9.277,-11.230,-8.789,-19.531,-105.469
1687268588.439,-14.160,-18.066,-10.254,-9.277,-26.367
1687268588.443,0.977,-11.230,-6.348,3.906,-62.012
1687268588.447,-5.371,-3.418,-9.277,0.977,-126.465
1687268588.451,-21.973,-5.859,-12.207,0.977,87.402
1687268588.455,-23.926,-6.836,-11.230,3.418,224.121
1687268588.458,-18.066,-8.789,-13.184,3.906,-52.246
1687268588.462,-7.812,-12.207,-14.648,3.906,-201.660
1687268588.466,2.930,-8.301,-12.207,-9.277,-37.598
1687268588.470,2.930,-8.301,-11.230,-25.391,188.477
1687268588.474,-9.766,-12.207,-11.230,-16.602,-18.066
1687268588.490,-11.719,-11.719,-8.301,-1.465,-134.277
1687268588.494,-1.953,-10.254,-4.883,10.254,-94.727
1687268588.498,-0.977,-14.160,-6.348,6.836,-74.707
1687268588.502,-0.488,-11.230,-9.277,5.371,-121.582
1687268588.506,-8.789,-4.395,-4.883,3.906,-181.152
1687268588.510,-16.113,-7.812,0.000,16.113,176.758
1687268588.514,-15.625,-13.672,-8.301,18.066,440.918
1687268588.517,-23.926,-15.137,-18.555,-0.488,29.785
1687268588.521,-16.602,-16.113,-17.578,-5.371,-166.016
1687268588.525,-1.953,-14.648,-12.695,6.348,81.055
1687268588.529,-4.883,-13.672,-13.184,7.324,-19.531
1687268588.533,-11.719,-10.742,-13.184,-15.137,-203.613
1687268588.534,-22.461,-14.160,-13.672,-23.438,-139.648
1687268588.538,-23.438,-15.625,-13.672,-16.602,-74.219
1687268588.542,-13.184,-7.324,-10.254,-7.324,-87.891
1687268588.546,-11.719,-10.254,-13.672,0.488,-179.688
1687268588.550,-18.555,-13.672,-17.578,0.000,-145.508
1687268588.554,-11.230,-13.672,-18.555,1.465,18.555
1687268588.558,-28.320,-20.020,-18.066,7.812,32.227
1687268588.561,-29.785,-20.020,-17.090,-4.395,-138.672
1687268588.565,-25.391,-20.508,-17.578,-25.391,-106.934
1687268588.569,-31.738,-18.555,-20.996,-24.902,237.793
1687268588.573,-21.973,-15.625,-21.973,-15.625,6.348
1687268588.577,-13.184,-13.184,-17.090,-20.508,-184.082
1687268588.579,-18.555,-15.137,-16.602,-33.691,-38.086
1687268588.583,-22.461,-17.090,-19.043,-25.879,-77.148
1687268588.587,-17.578,-19.531,-18.066,-14.160,-127.441
1687268588.591,-18.066,-20.020,-15.137,11.719,-110.840
1687268588.595,-10.742,-16.113,-10.254,10.742,54.199
1687268588.599,-9.766,-14.648,-12.207,-13.184,143.555
1687268588.603,-17.090,-14.160,-13.672,-31.250,15.625
1687268588.606,2.930,-7.812,-10.742,-26.367,-125.000
1687268588.610,3.906,-7.812,-16.602,-14.648,23.926
1687268588.614,2.930,-21.973,-12.207,-19.531,-3.418
1687268588.618,29.297,-29.297,0.977,-1.953,-254.883
1687268588.622,24.902,-8.789,-11.719,-1.953,-152.344
1687268588.625,4.395,5.859,-22.949,-9.766,137.207
1687268588.629,-15.625,-3.418,-20.996,-7.324,52.734
1687268588.633,-24.902,-1.953,-25.391,-7.812,-73.242
1687268588.637,-26.367,6.348,-29.297,-27.832,-97.656
1687268588.641,-32.715,9.277,-38.086,-25.879,-83.496
1687268588.645,-40.039,15.625,-41.992,-10.742,-67.383
1687268588.649,-31.738,18.555,-40.527,-17.578,-100.586
1687268588.652,-24.902,23.926,-51.758,-34.180,27.344
1687268588.656,-19.531,27.344,-58.105,-49.805,290.527
1687268588.660,-20.508,22.461,-56.152,-59.570,13.672
1687268588.664,-30.762,15.625,-61.523,-60.059,-182.617
1687268588.668,-17.090,15.625,-60.547,-49.805,-50.781
1687268588.684,-21.484,18.555,-51.758,-33.203,-61.523
1687268588.688,-26.367,15.625,-52.734,-30.273,-113.770
1687268588.692,-15.137,15.625,-52.734,-42.480,-42.480
1687268588.696,-11.719,17.090,-47.852,-57.129,90.820
1687268588.700,-18.066,12.695,-44.434,-72.266,116.699
1687268588.704,-7.812,12.207,-38.574,-55.664,39.551
1687268588.708,4.395,12.207,-37.109,-33.203,-39.551
1687268588.711,-1.465,5.371,-33.691,-34.668,200.684
1687268588.715,-8.301,2.441,-33.203,-28.809,377.930
1687268588.719,-20.020,-1.953,-34.180,-41.992,-43.945
1687268588.723,-13.184,-10.254,-25.879,-48.828,-208.008
1687268588.727,-3.418,-9.766,-24.902,-41.504,-66.895
1687268588.714,-17.090,-6.836,-26.367,-41.992,-124.023
1687268588.718,-12.695,-2.441,-20.020,-31.250,-128.906
1687268588.722,-12.695,-7.324,-19.531,-17.578,-54.199
1687268588.726,-9.277,-10.254,-20.996,-15.137,-25.879
1687268588.730,-5.859,-8.789,-19.043,-14.648,-66.895
1687268588.734,-5.859,-7.324,-15.137,-16.113,-9.766
1687268588.738,-4.883,-4.395,-15.625,-24.902,102.051
1687268588.741,-4.395,-1.953,-16.113,-17.578,104.004
1687268588.745,-12.207,-2.441,-17.090,-16.113,-28.320
1687268588.749,-14.648,-6.836,-19.531,-29.297,-163.086
1687268588.753,-8.789,-8.789,-16.113,-18.555,-67.383
1687268588.757,-5.371,-7.324,-11.230,-4.883,312.500
1687268588.775,-2.930,-8.301,-17.578,-16.113,97.168
1687268588.779,-5.859,-7.812,-18.555,-13.672,-163.086
1687268588.783,-11.230,-5.859,-18.066,0.977,18.066
1687268588.787,-10.742,-11.719,-21.484,-0.488,-42.969
1687268588.791,1.465,-12.207,-19.043,-2.441,-184.082
1687268588.795,16.113,-7.324,-14.160,-0.977,-96.191
1687268588.799,9.766,-6.348,-14.648,-5.371,204.590
1687268588.802,10.254,-4.883,-14.648,-6.836,245.605
1687268588.806,-4.395,-4.395,-9.766,-12.207,-144.531
1687268588.810,1.953,-1.953,-4.395,0.000,-161.621
1687268588.814,15.625,-1.465,-2.930,20.996,60.547
1687268588.818,5.859,-2.930,-5.859,4.395,-105.469
1687268588.804,2.930,-1.953,-3.906,-2.930,-252.441
1687268588.808,-0.488,-3.418,-1.465,0.000,-196.289
1687268588.812,-7.812,-0.977,-8.301,-8.301,-97.168
1687268588.816,-6.836,-4.883,-1.953,8.301,-151.855
1687268588.820,6.836,-8.789,10.254,24.414,-204.590
1687268588.824,13.672,-1.465,-4.395,12.695,-26.855
1687268588.828,2.930,8.301,-13.184,-10.254,71.289
1687268588.831,-4.395,8.301,-18.555,-17.578,-93.750
1687268588.835,-10.254,1.465,-20.020,-12.695,-215.332
1687268588.839,-18.555,-0.488,-8.789,-14.160,-74.707
1687268588.843,-9.766,6.836,-0.977,23.438,243.652
1687268588.847,-10.742,5.859,-4.395,26.855,90.332
1687268588.865,-1.953,0.000,-8.301,-19.531,-124.023
1687268588.869,0.488,1.953,-8.301,-19.043,62.012
1687268588.873,-11.719,0.488,-12.207,-17.090,186.523
1687268588.877,-7.324,0.000,-12.695,-21.973,-121.582
1687268588.881,-10.742,1.953,-11.230,-16.113,-165.039
1687268588.885,-16.602,2.441,-5.859,3.418,221.680
1687268588.889,-5.859,0.488,-3.906,0.000,147.949
1687268588.892,0.000,4.395,-7.812,-2.930,-161.621
1687268588.896,0.488,9.277,-9.766,10.742,-166.016
1687268588.900,6.836,7.324,-6.836,0.977,66.895
1687268588.904,21.973,7.812,-5.859,-11.719,-30.762
1687268588.908,19.531,10.742,0.488,10.742,-247.070
1687268588.911,1.953,5.859,2.441,35.156,-145.996
1687268588.915,-5.371,0.000,-5.371,4.883,-83.496
1687268588.919,-1.953,0.488,-5.859,-1.953,-62.500
1687268588.923,-3.418,0.977,-1.465,6.348,-114.258
1687268588.927,-1.953,1.465,-4.395,-8.301,-85.449
1687268588.931,-3.418,1.953,-8.789,0.000,135.742
1687268588.935,-2.441,-0.488,-2.441,11.719,88.867
1687268588.938,1.953,-2.930,-2.930,8.301,-58.105
1687268588.942,-2.441,-2.441,-3.906,8.301,35.645
1687268588.946,-4.883,-2.930,1.953,4.395,370.605
1687268588.950,-5.859,-5.371,-4.395,-1.953,153.320
1687268588.954,9.766,-2.441,-7.324,-15.137,-127.930
1687268588.954,13.672,-0.977,-3.906,-4.883,-88.867
1687268588.958,2.930,-0.488,0.000,16.602,-109.375
1687268588.962,-16.113,0.000,-2.930,11.230,-88.867
1687268588.966,-5.859,-0.488,-4.395,7.324,-195.801
1687268588.970,7.324,-2.930,0.000,5.859,-45.410
1687268588.974,-1.953,-6.836,-2.441,6.348,164.062
1687268588.978,0.977,-5.859,-5.371,7.812,23.438
1687268588.981,3.906,-6.836,-2.930,12.695,-80.078
1687268588.985,0.000,-5.859,-1.953,38.086,107.422
1687268588.989,4.883,-3.906,-6.836,28.809,274.414
1687268588.993,-4.395,-3.906,-7.812,-34.668,-109.863
1687268588.997,-5.371,-3.418,-1.465,-30.273,-191.895
1687268588.999,-10.742,-4.883,-5.371,-12.695,5.859
1687268589.003,-19.531,-9.277,-9.766,-13.672,-120.117
1687268589.007,-6.836,-8.301,-9.277,-5.859,-204.590
1687268589.011,-6.348,-7.812,-3.418,5.859,-131.348
1687268589.015,0.000,-10.742,-1.465,23.926,-110.352
1687268589.019,6.836,-9.766,-4.395,20.508,-78.613
1687268589.023,0.977,-6.348,-3.906,9.766,0.977
1687268589.026,2.441,-3.418,-2.441,-1.953,91.797
1687268589.030,-4.395,-10.742,-5.859,-5.859,301.270
1687268589.034,-10.254,-10.254,-16.113,-17.578,103.027
1687268589.038,-6.836,-1.953,-14.160,-30.273,-168.945
1687268589.042,0.977,-2.441,-6.836,-7.324,-72.266
1687268589.044,3.418,-0.488,-6.836,7.324,-73.242
1687268589.048,0.488,-1.465,-3.906,17.578,-134.277
1687268589.052,-2.930,-4.883,1.465,22.461,-52.246
1687268589.056,5.371,2.441,-1.953,12.207,82.031
1687268589.060,27.344,9.277,-13.184,24.902,117.676
1687268589.064,30.273,-1.953,-13.672,29.297,-83.008
1687268589.068,2.441,-18.555,2.441,-2.441,-81.543
1687268589.071,-15.137,-25.879,8.789,-15.137,193.848
1687268589.075,-17.090,-30.273,0.000,-12.695,121.582
1687268589.079,-13.184,-28.320,0.000,-10.254,-159.668
1687268589.083,-21.484,-31.738,5.859,5.859,-81.055
1687268589.087,-22.461,-29.785,5.371,14.160,9.766
1687268589.089,-11.719,-18.066,0.000,-4.395,-128.906
1687268589.093,-29.297,-20.996,-4.883,-13.672,-247.559
1687268589.097,-35.645,-26.367,-8.789,-22.461,-187.012
1687268589.101,-21.973,-26.855,-12.207,-16.113,-125.977
1687268589.105,-12.695,-22.461,-12.207,6.348,-141.113
1687268589.109,-3.906,-18.555,-10.742,-3.418,-65.430
1687268589.113,-15.137,-18.066,-9.277,-3.906,100.586
1687268589.116,-25.879,-21.973,-6.836,0.000,289.062
1687268589.120,-20.020,-22.461,-13.672,-6.836,2.441
1687268589.124,-14.648,-22.461,-21.484,-3.906,-209.961
1687268589.128,-10.742,-21.973,-14.648,-1.465,-100.586
1687268589.132,-9.277,-19.043,-12.207,-0.488,-68.359
1687268589.135,-10.742,-16.113,-13.672,-2.930,-42.969
1687268589.139,-20.508,-16.113,-14.648,-20.508,-59.082
1687268589.143,-8.301,-11.719,-16.602,-3.906,131.348
1687268589.147,2.441,-9.766,-11.230,5.371,259.766
1687268589.151,-1.953,-11.230,-9.277,-12.207,-7.812
1687268589.155,12.207,-8.301,-6.836,-7.812,-20.996
