timestamps,TP9,AF7,AF8,TP10,Right AUX
1689612620.285,-45.410,-19.531,-20.996,-32.227,-129.883
1689612620.289,-47.852,-13.672,-15.137,-62.012,-115.723
1689612620.293,-51.758,-19.531,-18.555,-71.777,-88.867
1689612620.297,-52.734,-26.855,-20.508,-51.270,-200.195
1689612620.301,-47.363,-26.855,-19.531,-29.297,-139.648
1689612620.305,-45.898,-20.996,-24.902,-38.574,-24.414
1689612620.309,-48.340,-20.508,-27.832,-67.383,-6.348
1689612620.312,-51.758,-23.438,-27.344,-72.754,-29.297
1689612620.316,-46.387,-19.531,-25.879,-47.852,-106.445
1689612620.320,-40.039,-18.066,-23.438,-23.438,164.062
1689612620.324,-38.574,-19.531,-20.996,-29.297,283.691
1689612620.328,-35.156,-15.625,-17.578,-59.082,-126.465
1689612620.330,-42.480,-20.996,-19.043,-73.242,-174.316
1689612620.334,-50.781,-26.855,-18.066,-56.641,-64.941
1689612620.338,-55.176,-25.391,-19.531,-30.762,-45.898
1689612620.342,-52.734,-21.973,-20.508,-27.344,-89.355
1689612620.346,-48.340,-20.508,-15.625,-52.246,10.742
1689612620.350,-55.664,-23.926,-17.578,-75.684,93.262
1689612620.354,-55.176,-22.461,-17.090,-65.918,-10.254
1689612620.357,-48.340,-15.137,-18.555,-32.227,-122.070
1689612620.361,-45.898,-12.207,-24.414,-13.672,23.438
1689612620.365,-45.898,-21.484,-24.902,-38.574,219.727
1689612620.369,-49.316,-22.461,-22.949,-75.195,-105.957
1689612620.373,-50.293,-20.996,-21.484,-68.359,-220.215
1689612620.375,-45.410,-23.926,-19.043,-27.344,-119.629
1689612620.379,-41.992,-20.508,-22.461,-13.672,-105.469
1689612620.383,-47.852,-13.184,-21.973,-44.922,-142.090
1689612620.387,-57.617,-13.672,-18.066,-77.148,-138.672
1689612620.391,-55.176,-19.531,-21.484,-65.918,-24.414
1689612620.395,-51.270,-21.973,-24.902,-36.133,9.277
1689612620.399,-48.340,-22.461,-26.855,-25.879,44.922
1689612620.402,-45.410,-22.461,-24.902,-41.504,67.871
1689612620.406,-52.734,-25.879,-21.484,-67.871,208.496
1689612620.410,-62.012,-27.832,-22.949,-65.918,286.133
1689612620.414,-61.035,-23.438,-19.043,-45.410,-78.125
1689612620.418,-50.293,-22.461,-20.508,-26.855,-145.508
1689612620.420,-43.457,-19.043,-26.855,-36.621,-58.594
1689612620.424,-37.109,-13.184,-24.902,-64.453,-132.324
1689612620.428,-31.738,-17.090,-21.973,-66.406,-161.133
1689612620.432,-33.203,-18.066,-23.926,-38.086,-114.258
1689612620.436,-29.297,-19.531,-26.367,-20.508,-55.176
1689612620.440,-27.832,-22.461,-23.438,-37.598,-16.602
1689612620.444,-34.668,-20.996,-18.555,-70.801,-69.336
1689612620.447,-38.574,-22.949,-20.020,-72.754,16.602
1689612620.451,-42.969,-24.902,-22.461,-41.992,334.961
1689612620.455,-38.574,-21.973,-21.973,-19.043,118.652
1689612620.459,-33.691,-20.020,-22.461,-21.973,-168.945
1689612620.463,-39.062,-20.020,-21.484,-52.246,-135.254
1689612620.468,-41.992,-21.484,-15.625,-64.941,-138.672
1689612620.472,-43.457,-29.297,-14.160,-42.480,-140.625
1689612620.476,-46.387,-27.832,-17.578,-25.879,-122.070
1689612620.480,-47.852,-22.461,-20.996,-28.320,-94.238
1689612620.484,-41.504,-20.508,-21.484,-50.293,-96.680
1689612620.488,-44.434,-21.484,-23.926,-72.754,-106.934
1689612620.492,-47.363,-19.531,-26.855,-58.594,-46.387
1689612620.495,-46.387,-18.066,-22.461,-26.855,358.398
1689612620.499,-52.734,-21.484,-21.973,-28.320,298.828
1689612620.503,-52.734,-25.879,-21.973,-61.035,-63.477
1689612620.507,-54.688,-25.879,-13.672,-80.078,-87.891
1689612620.511,-56.641,-24.902,-11.230,-62.988,172.852
1689612620.510,-53.711,-20.508,-12.695,-28.809,187.500
1689612620.514,-51.270,-18.555,-16.602,-20.996,-168.945
1689612620.518,-46.387,-18.066,-16.602,-45.898,-112.305
1689612620.522,-49.805,-18.555,-17.090,-72.266,-78.613
1689612620.526,-54.199,-27.344,-27.832,-67.871,-115.723
1689612620.530,-46.387,-26.855,-25.391,-40.527,-47.363
1689612620.534,-35.156,-23.926,-18.555,-23.438,136.230
1689612620.537,-34.668,-25.879,-21.484,-46.387,226.074
1689612620.541,-42.480,-22.461,-28.320,-83.984,-96.191
1689612620.545,-38.574,-15.137,-29.297,-86.426,-228.027
1689612620.549,-34.180,-14.648,-23.438,-59.570,-132.812
1689612620.553,-36.621,-19.043,-21.484,-42.969,-71.777
1689612620.556,-42.480,-20.020,-17.578,-49.316,-76.660
1689612620.560,-52.734,-18.555,-16.602,-76.172,-151.855
1689612620.564,-55.176,-19.531,-20.508,-73.242,-63.965
1689612620.568,-48.828,-19.531,-14.648,-35.645,-65.918
1689612620.572,-45.410,-22.461,-13.184,-19.531,-134.277
1689612620.576,-46.387,-27.344,-14.160,-34.668,-100.586
1689612620.580,-41.504,-25.391,-10.254,-54.688,277.832
1689612620.583,-38.086,-24.414,-10.254,-61.523,313.965
1689612620.587,-36.621,-18.066,-16.113,-40.039,-126.465
1689612620.591,-40.527,-12.695,-23.926,-15.137,-157.715
1689612620.595,-42.480,-10.254,-22.461,-19.043,-14.160
1689612620.599,-43.945,-13.184,-18.555,-54.688,-101.562
1689612620.601,-51.270,-20.996,-18.555,-68.359,-210.938
1689612620.605,-52.734,-22.949,-21.973,-46.387,-66.406
1689612620.609,-45.898,-20.508,-20.996,-24.902,23.438
1689612620.613,-40.527,-23.438,-24.414,-27.832,-81.055
1689612620.617,-42.480,-22.949,-26.367,-52.734,-184.082
1689612620.621,-44.434,-23.926,-21.484,-62.988,-30.273
1689612620.625,-41.504,-27.832,-25.391,-43.457,339.844
1689612620.628,-38.574,-28.320,-25.879,-21.484,119.629
1689612620.632,-37.109,-29.785,-22.949,-22.949,-147.461
1689612620.636,-41.504,-25.879,-24.902,-56.152,-72.266
1689612620.640,-41.016,-19.043,-23.438,-79.102,-132.812
1689612620.644,-41.016,-19.531,-21.973,-62.500,-177.734
1689612620.660,-41.504,-23.438,-23.926,-29.297,-125.488
1689612620.664,-39.551,-18.555,-25.879,-20.020,-79.102
1689612620.668,-42.969,-19.531,-29.297,-49.316,-46.387
1689612620.672,-50.293,-30.762,-24.414,-79.102,-109.375
1689612620.676,-54.199,-26.855,-17.578,-70.312,-98.145
1689612620.680,-49.316,-22.949,-25.391,-39.551,225.586
1689612620.684,-48.340,-26.855,-28.320,-27.344,192.383
1689612620.687,-50.293,-28.320,-28.320,-54.199,-43.945
1689612620.691,-50.293,-26.367,-26.855,-77.637,-110.840
1689612620.695,-47.363,-28.809,-27.344,-63.965,153.809
1689612620.699,-44.922,-31.738,-29.297,-29.785,249.512
1689612620.703,-40.039,-29.785,-24.902,-20.020,-136.230
1689612620.705,-36.133,-27.832,-18.555,-41.504,-139.648
1689612620.709,-41.992,-29.297,-18.066,-67.383,-110.840
1689612620.713,-46.387,-29.297,-20.996,-66.895,-196.289
1689612620.717,-46.387,-24.902,-19.043,-33.203,-173.340
1689612620.721,-45.898,-23.926,-15.625,-17.578,-5.859
1689612620.725,-43.945,-25.879,-15.625,-40.039,101.562
1689612620.729,-39.551,-24.902,-17.090,-65.430,-8.301
1689612620.732,-36.621,-21.484,-15.625,-62.988,-133.301
1689612620.736,-35.645,-20.020,-16.113,-33.203,12.695
1689612620.740,-34.668,-21.973,-14.648,-4.395,314.453
1689612620.744,-31.250,-21.973,-17.578,-15.625,57.617
1689612620.748,-38.086,-22.461,-23.926,-45.898,-187.012
1689612620.750,-45.898,-21.484,-19.531,-51.758,-134.277
1689612620.754,-39.062,-15.137,-16.113,-24.902,-124.023
1689612620.758,-35.156,-16.113,-19.043,1.953,-99.609
1689612620.762,-37.598,-17.090,-18.555,-3.906,-51.758
1689612620.766,-37.109,-14.160,-20.508,-33.203,-18.555
1689612620.770,-36.133,-17.090,-20.996,-51.270,-45.410
1689612620.774,-34.668,-14.648,-19.531,-39.551,-51.758
1689612620.777,-34.668,-13.184,-21.484,-15.137,-39.551
1689612620.781,-36.133,-20.020,-19.043,-7.324,217.773
1689612620.785,-32.227,-18.066,-14.160,-35.156,330.566
1689612620.789,-33.691,-13.672,-14.160,-55.176,-116.699
1689612620.793,-38.086,-15.137,-18.066,-37.109,-232.910
1689612620.795,-40.527,-19.043,-20.020,-11.719,-88.379
1689612620.799,-38.574,-18.555,-22.461,-16.113,-154.785
1689612620.803,-35.645,-17.578,-18.555,-41.504,-218.750
1689612620.807,-43.457,-13.672,-9.277,-51.758,-129.395
1689612620.811,-45.898,-10.254,-13.672,-39.551,-60.059
1689612620.815,-37.598,-12.695,-18.066,-18.066,-88.867
1689612620.819,-34.668,-10.742,-14.160,-10.742,-30.273
1689612620.822,-37.109,-15.137,-12.695,-37.598,92.773
1689612620.826,-45.410,-18.555,-15.625,-69.336,13.672
1689612620.830,-45.410,-15.625,-15.137,-60.059,-170.410
1689612620.834,-41.504,-12.207,-13.184,-32.715,-151.367
1689612620.838,-42.969,-14.648,-17.090,-22.949,115.234
1689612620.840,-46.875,-18.555,-22.949,-47.852,281.250
1689612620.844,-43.457,-13.672,-19.043,-78.125,-58.594
1689612620.848,-35.645,-9.277,-12.207,-67.871,-188.477
1689612620.852,-37.598,-13.184,-15.137,-36.621,-91.309
1689612620.856,-38.574,-17.578,-20.020,-23.926,-50.293
1689612620.860,-37.109,-15.137,-22.461,-41.992,4.395
1689612620.864,-40.039,-12.695,-22.949,-67.383,-77.148
1689612620.867,-43.457,-16.113,-16.113,-58.594,213.379
1689612620.871,-43.457,-20.996,-19.531,-35.645,405.762
1689612620.875,-41.016,-20.508,-25.879,-28.320,-59.570
1689612620.879,-41.016,-16.113,-21.484,-38.086,-193.359
1689612620.883,-46.875,-14.648,-19.531,-64.941,-194.824
1689612620.886,-50.781,-15.625,-14.648,-67.871,-216.797
1689612620.890,-45.410,-15.625,-13.184,-42.969,-214.844
1689612620.894,-38.574,-16.602,-15.137,-20.996,-18.066
1689612620.898,-38.086,-21.973,-15.625,-30.762,151.367
1689612620.902,-37.109,-18.555,-15.137,-63.477,-62.988
1689612620.906,-34.180,-15.625,-17.090,-71.289,-148.438
1689612620.910,-34.668,-20.020,-15.625,-42.969,83.984
1689612620.913,-32.715,-20.996,-15.625,-14.648,296.875
1689612620.917,-34.668,-19.531,-16.602,-26.855,-11.230
1689612620.921,-45.410,-21.973,-18.066,-63.965,-204.590
1689612620.925,-47.852,-23.438,-18.066,-73.730,-149.414
1689612620.929,-45.410,-19.531,-16.113,-42.969,-138.672
1689612620.930,-45.898,-20.508,-20.020,-21.484,-156.738
1689612620.934,-46.875,-20.020,-20.996,-33.691,-118.652
1689612620.938,-45.410,-13.672,-20.508,-60.547,-105.957
1689612620.942,-45.898,-15.137,-22.461,-72.754,-163.574
1689612620.946,-49.805,-21.484,-22.949,-62.012,-135.742
1689612620.950,-46.875,-30.762,-27.832,-41.016,-73.242
1689612620.954,-42.969,-35.645,-28.320,-32.715,287.598
1689612620.957,-43.945,-24.414,-24.902,-58.105,364.746
1689612620.961,-45.898,-17.090,-20.508,-78.125,-77.148
1689612620.965,-45.898,-18.066,-20.508,-63.965,-174.316
1689612620.969,-42.969,-20.996,-25.879,-30.273,159.180
1689612620.973,-39.551,-18.066,-29.785,-23.438,165.527
1689612620.975,-42.969,-22.949,-26.367,-60.547,-166.992
1689612620.979,-44.434,-32.227,-17.578,-78.125,-192.383
1689612620.983,-41.504,-31.250,-14.648,-52.734,-144.043
1689612620.987,-38.574,-27.832,-13.672,-21.484,-138.184
1689612620.991,-30.762,-25.879,-15.625,-9.766,-189.941
1689612620.995,-27.344,-20.996,-18.555,-27.832,70.312
1689612620.999,-34.668,-19.043,-22.949,-56.641,280.762
1689612621.002,-38.086,-21.973,-25.879,-61.523,24.414
1689612621.006,-34.180,-17.578,-21.484,-31.250,-142.578
1689612621.010,-36.621,-16.113,-19.531,-6.836,18.555
1689612621.014,-33.691,-18.066,-15.137,-20.508,155.762
1689612621.018,-35.156,-20.020,-15.137,-59.082,-127.441
1689612621.035,-34.668,-23.438,-16.602,-63.965,-248.535
1689612621.039,-29.785,-25.879,-20.020,-35.645,-90.332
1689612621.043,-28.320,-21.484,-25.879,-21.484,-16.602
1689612621.047,-29.785,-17.090,-22.949,-43.945,-161.621
1689612621.051,-35.156,-18.555,-21.973,-70.312,-172.852
1689612621.055,-32.227,-17.578,-20.020,-64.453,4.883
1689612621.059,-31.250,-14.160,-17.578,-36.133,37.109
1689612621.062,-32.227,-16.602,-17.090,-14.160,51.270
1689612621.066,-30.762,-17.578,-17.578,-25.391,-16.113
1689612621.070,-39.062,-17.090,-22.949,-50.781,207.520
1689612621.074,-47.852,-19.043,-20.020,-57.129,431.152
1689612621.078,-48.828,-20.508,-18.066,-36.133,-56.152
1689612621.080,-44.434,-22.949,-20.996,-16.602,-157.227
1689612621.084,-38.086,-22.949,-19.043,-26.855,-84.473
1689612621.088,-41.992,-21.973,-20.020,-58.105,-216.797
1689612621.092,-47.363,-20.996,-23.926,-68.359,-250.488
1689612621.096,-49.316,-25.391,-20.020,-47.852,-117.188
1689612621.100,-44.922,-23.926,-19.531,-19.531,12.207
1689612621.104,-40.039,-19.043,-24.414,-20.996,21.973
1689612621.107,-46.875,-19.531,-21.973,-53.711,-123.535
1689612621.111,-43.457,-18.066,-20.996,-65.918,-27.832
1689612621.115,-43.945,-17.578,-23.926,-46.387,260.254
1689612621.119,-42.480,-22.949,-25.391,-24.902,2.441
1689612621.123,-35.156,-25.879,-24.902,-26.367,-157.715
1689612621.125,-40.039,-25.879,-24.414,-52.734,-46.387
1689612621.129,-48.340,-24.902,-25.879,-74.707,-141.113
1689612621.133,-50.781,-25.391,-24.414,-60.547,-230.957
1689612621.137,-38.574,-22.461,-22.949,-22.949,-125.000
1689612621.141,-21.973,-12.695,-26.367,-17.090,-23.926
1689612621.145,-36.133,-9.766,-27.344,-60.059,-0.488
1689612621.149,-50.293,-16.113,-33.203,-93.262,-5.859
1689612621.152,-41.504,-14.648,-36.621,-76.172,-28.809
1689612621.156,-40.039,-8.301,-40.039,-44.922,241.211
1689612621.160,-36.133,-4.395,-43.945,-36.133,347.168
1689612621.164,-32.715,0.000,-39.062,-56.641,-77.148
1689612621.168,-37.109,-4.883,-35.645,-82.031,-175.781
1689612621.170,-42.480,-12.207,-36.621,-75.684,-123.047
1689612621.174,-41.504,-13.672,-39.551,-44.922,-189.941
1689612621.178,-38.574,-14.160,-39.551,-32.227,-226.074
1689612621.182,-36.133,-13.672,-38.574,-46.875,-11.719
1689612621.186,-41.504,-16.602,-35.645,-73.242,50.293
1689612621.190,-46.387,-14.160,-32.715,-70.312,-112.305
1689612621.194,-38.086,-10.254,-30.273,-38.086,-110.840
1689612621.197,-30.762,-14.648,-27.832,-18.555,56.152
1689612621.201,-24.414,-16.113,-22.461,-38.086,111.816
1689612621.205,-31.250,-13.672,-23.926,-77.148,-138.672
1689612621.209,-42.969,-15.137,-26.367,-79.590,-222.656
1689612621.213,-42.969,-19.531,-20.996,-45.898,34.668
1689612621.215,-35.645,-17.578,-21.973,-23.926,150.879
1689612621.219,-34.180,-12.695,-25.879,-37.109,-106.934
1689612621.223,-42.969,-20.508,-27.832,-63.965,-126.465
1689612621.227,-46.875,-25.391,-28.320,-78.125,-75.684
1689612621.231,-41.992,-19.043,-23.926,-52.246,-107.910
1689612621.235,-38.086,-12.207,-21.484,-21.484,-30.762
1689612621.239,-37.598,-15.137,-25.879,-39.062,17.090
1689612621.242,-41.016,-21.484,-26.367,-62.500,268.066
1689612621.246,-38.574,-17.578,-25.879,-58.594,442.871
1689612621.250,-35.645,-15.137,-28.320,-40.527,-48.828
1689612621.254,-39.551,-23.926,-25.879,-22.461,-213.867
1689612621.258,-39.551,-26.855,-24.414,-28.320,-55.664
1689612621.260,-38.574,-22.949,-24.414,-61.035,-161.133
1689612621.264,-40.039,-18.555,-24.902,-75.684,-240.723
1689612621.268,-41.016,-16.602,-25.879,-54.688,-111.816
1689612621.272,-39.551,-21.484,-23.926,-26.855,-36.133
1689612621.276,-35.645,-27.832,-24.902,-27.832,-108.398
1689612621.280,-41.504,-26.367,-29.297,-62.500,-141.113
1689612621.284,-46.387,-27.344,-27.832,-80.078,69.336
1689612621.287,-43.945,-29.297,-22.949,-58.105,256.836
1689612621.291,-39.062,-21.484,-19.531,-30.762,38.574
1689612621.295,-33.203,-19.043,-20.996,-25.879,-158.691
1689612621.299,-33.203,-26.367,-18.555,-42.480,-46.387
1689612621.303,-41.504,-30.762,-20.508,-61.035,-36.133
1689612621.305,-42.480,-25.879,-28.320,-53.711,-221.680
1689612621.309,-36.133,-22.949,-24.902,-20.020,-121.582
1689612621.313,-33.691,-25.391,-24.902,-10.254,-15.625
1689612621.317,-32.227,-24.414,-26.367,-40.527,-88.379
1689612621.321,-31.738,-14.648,-23.926,-67.871,-122.070
1689612621.325,-31.250,-17.090,-19.043,-54.688,-64.941
1689612621.329,-28.320,-25.391,-16.113,-19.531,267.090
1689612621.332,-26.367,-26.367,-22.461,-9.277,250.488
1689612621.336,-32.715,-28.320,-21.973,-34.668,-96.191
1689612621.340,-38.574,-28.320,-16.602,-60.547,-220.703
1689612621.344,-43.945,-24.902,-20.996,-50.781,160.645
1689612621.348,-42.969,-29.297,-28.320,-25.879,264.648
1689612621.350,-36.621,-34.668,-27.344,-20.996,-150.391
1689612621.354,-34.668,-28.809,-20.020,-35.645,-102.051
1689612621.358,-41.504,-28.320,-24.902,-64.941,-82.520
1689612621.362,-47.363,-30.762,-32.715,-75.195,-163.086
1689612621.366,-45.898,-29.297,-34.180,-48.340,-151.367
1689612621.370,-44.434,-30.273,-28.809,-17.578,113.770
1689612621.374,-41.504,-28.320,-25.391,-24.902,270.996
1689612621.377,-44.922,-29.297,-28.809,-60.059,-67.871
1689612621.381,-45.898,-32.715,-27.832,-72.754,-218.750
1689612621.385,-40.527,-31.738,-22.949,-41.992,-3.418
1689612621.389,-37.598,-30.762,-26.855,-12.695,84.961
1689612621.393,-37.598,-28.320,-28.320,-31.250,-81.055
1689612621.409,-42.480,-26.855,-22.461,-61.035,-137.207
1689612621.413,-47.363,-28.809,-25.391,-70.312,-10.742
1689612621.417,-46.387,-28.809,-32.227,-51.270,-31.738
1689612621.421,-38.574,-27.344,-26.855,-22.949,-161.621
1689612621.425,-33.691,-21.484,-23.926,-35.156,-122.070
1689612621.429,-34.668,-19.043,-23.438,-66.406,-13.672
1689612621.433,-41.016,-20.996,-24.902,-82.031,-7.812
1689612621.436,-51.270,-20.508,-29.297,-62.500,-43.457
1689612621.440,-50.781,-24.414,-27.832,-26.855,22.949
1689612621.444,-47.852,-30.273,-23.926,-22.461,61.035
1689612621.448,-47.363,-27.832,-22.461,-48.340,-40.039
1689612621.452,-47.852,-26.855,-24.902,-69.824,-167.480
1689612621.455,-50.293,-25.391,-25.879,-53.223,-119.141
1689612621.459,-48.340,-22.949,-23.438,-13.672,296.875
1689612621.463,-37.109,-16.602,-20.996,-2.441,268.555
1689612621.467,-33.203,-16.602,-20.996,-29.785,-156.250
1689612621.471,-36.621,-22.949,-20.996,-57.129,-43.457
1689612621.475,-42.480,-21.973,-21.973,-42.969,146.484
1689612621.479,-38.086,-17.578,-19.043,-3.418,31.738
1689612621.482,-22.461,-20.996,-15.625,3.906,-147.949
1689612621.486,-33.203,-23.926,-22.461,-30.273,-30.273
1689612621.490,-42.969,-21.484,-28.809,-58.594,187.012
1689612621.494,-35.645,-21.484,-27.344,-50.781,-47.363
1689612621.498,-31.738,-21.973,-25.879,-18.066,-155.762
1689612621.500,-31.250,-21.484,-23.926,-4.395,-65.918
1689612621.504,-34.180,-19.043,-21.973,-27.344,-53.223
1689612621.508,-39.062,-23.926,-24.414,-60.059,-165.527
1689612621.512,-40.039,-29.297,-28.320,-62.988,-225.586
1689612621.516,-38.086,-25.879,-31.250,-33.691,-133.789
1689612621.520,-38.086,-27.832,-27.832,-20.508,21.484
1689612621.524,-36.133,-30.273,-26.855,-42.969,15.625
1689612621.527,-36.133,-27.344,-26.855,-64.453,-20.020
1689612621.531,-43.457,-28.809,-24.414,-60.547,271.973
1689612621.535,-37.598,-27.344,-21.973,-22.461,483.398
1689612621.539,-25.879,-27.832,-21.484,-3.906,112.305
1689612621.543,-28.320,-34.668,-24.414,-28.809,-122.559
1689612621.545,-36.133,-28.809,-22.949,-54.199,-135.254
1689612621.549,-37.109,-19.043,-20.508,-59.570,-240.723
1689612621.553,-33.203,-17.090,-25.879,-35.156,-221.191
1689612621.557,-31.250,-16.602,-26.367,-10.742,-79.102
1689612621.561,-32.715,-16.602,-25.391,-21.973,-22.461
1689612621.565,-36.133,-18.555,-26.855,-47.363,-69.824
1689612621.569,-41.016,-28.320,-24.414,-55.176,-121.582
1689612621.572,-41.016,-30.273,-24.902,-34.668,0.000
1689612621.576,-36.621,-25.391,-27.344,-0.488,370.117
1689612621.580,-30.762,-26.367,-22.949,-13.672,156.738
1689612621.584,-30.273,-27.832,-22.949,-51.270,-185.059
1689612621.588,-34.180,-25.391,-22.949,-60.059,-96.191
1689612621.590,-31.738,-20.996,-20.508,-38.574,-83.984
1689612621.594,-26.367,-23.438,-17.578,-4.883,-103.516
1689612621.598,-25.391,-28.809,-16.113,-1.465,-79.102
1689612621.602,-26.855,-25.391,-17.090,-31.250,-20.508
1689612621.606,-25.391,-19.531,-15.625,-48.340,13.184
1689612621.610,-26.367,-21.484,-14.648,-28.320,-1.465
1689612621.614,-27.344,-28.320,-18.066,-2.441,-45.898
1689612621.617,-20.996,-28.320,-23.926,3.418,229.492
1689612621.621,-16.113,-21.484,-21.973,-18.066,173.828
1689612621.625,-22.461,-25.391,-18.066,-36.621,-206.055
1689612621.629,-16.113,-25.391,-22.949,-17.090,-214.355
1689612621.633,-8.301,-14.648,-26.367,20.020,211.914
1689612621.635,-4.883,-21.973,-22.461,33.691,305.664
1689612621.639,14.648,-23.926,-15.625,24.414,-195.312
1689612621.643,26.367,-15.137,-11.230,6.836,-259.277
1689612621.647,40.039,-11.719,-10.742,21.484,-194.824
1689612621.651,58.594,-8.789,-14.648,64.941,-252.441
1689612621.655,68.848,-13.184,-16.113,89.844,-130.371
1689612621.659,76.172,-12.695,-12.207,83.984,97.656
1689612621.662,86.914,-7.812,-4.395,80.078,185.059
1689612621.666,90.820,-3.418,-5.371,96.680,-82.031
1689612621.670,102.051,-1.953,-10.254,124.512,-187.988
1689612621.674,114.746,-4.395,-7.324,143.555,-75.684
1689612621.678,116.211,-0.977,-8.789,132.324,-61.523
1689612621.681,114.258,-0.488,-15.625,106.934,-163.086
1689612621.685,109.863,0.000,-13.184,96.191,-170.410
1689612621.689,107.910,4.883,-11.230,118.164,-6.348
1689612621.693,111.816,3.418,-5.859,144.043,6.348
1689612621.697,108.398,1.953,-7.324,127.441,-63.965
1689612621.701,100.098,3.418,-14.160,92.773,-31.738
1689612621.705,94.727,6.836,-14.160,82.031,139.160
1689612621.708,93.262,5.859,-16.602,101.562,191.406
1689612621.712,99.609,5.371,-16.602,119.141,-21.484
1689612621.716,99.609,5.859,-16.113,105.957,-80.566
1689612621.720,91.797,1.953,-20.020,80.566,116.211
1689612621.724,76.660,1.465,-21.484,60.059,6.836
1689612621.725,71.777,1.465,-18.066,71.289,-237.793
1689612621.729,65.430,-4.883,-19.531,91.309,-140.137
1689612621.733,53.711,-10.742,-21.973,70.312,-120.117
1689612621.737,38.574,-12.207,-21.484,28.809,-88.867
1689612621.741,25.879,-10.742,-23.926,11.230,-88.867
1689612621.745,22.461,-9.766,-25.391,27.344,50.293
1689612621.749,18.066,-13.672,-26.855,52.246,426.758
1689612621.752,15.137,-12.207,-24.414,46.875,133.301
1689612621.756,7.812,-10.742,-19.043,13.184,-219.238
1689612621.760,0.000,-11.719,-24.414,-11.719,-162.109
1689612621.764,0.000,-9.277,-25.879,-2.441,-109.863
1689612621.768,2.441,-9.277,-24.902,27.344,-118.652
1689612621.785,1.465,-10.254,-21.484,31.738,-134.277
1689612621.789,-2.930,-12.695,-14.648,1.953,-104.492
1689612621.793,-0.977,-20.508,-17.578,-19.531,-166.016
1689612621.797,-0.488,-20.508,-20.508,-8.789,-212.402
1689612621.801,-5.859,-17.090,-20.508,18.555,-133.789
1689612621.805,-6.348,-19.531,-20.020,25.879,21.484
1689612621.809,0.000,-18.066,-18.066,4.395,83.008
1689612621.812,-3.418,-12.695,-21.484,-22.461,17.090
1689612621.816,-13.184,-13.184,-21.973,-26.367,-40.039
1689612621.820,-11.719,-18.066,-18.555,12.695,285.156
1689612621.824,-3.418,-19.043,-22.949,26.855,426.758
1689612621.828,-7.812,-22.461,-24.902,-9.766,5.859
1689612621.830,-17.578,-23.438,-15.137,-36.621,-144.531
1689612621.834,-21.484,-20.996,-13.672,-32.227,-135.254
1689612621.838,-24.902,-17.578,-17.578,-5.371,-199.707
1689612621.842,-22.949,-16.113,-19.531,1.953,-163.086
1689612621.846,-28.809,-21.484,-23.438,-22.461,-85.449
1689612621.850,-31.738,-21.484,-23.438,-45.898,-29.785
1689612621.854,-30.762,-25.879,-23.926,-49.805,-80.078
1689612621.857,-24.902,-34.668,-28.809,-25.391,-184.082
1689612621.861,-15.137,-25.879,-25.879,7.324,52.246
1689612621.865,-12.207,-20.508,-22.949,-2.441,127.930
1689612621.869,-21.484,-26.367,-25.879,-38.574,-160.645
1689612621.873,-26.855,-22.461,-24.414,-48.340,-247.070
1689612621.875,-26.367,-18.555,-25.391,-20.020,14.648
1689612621.879,-26.367,-20.996,-28.320,1.953,273.926
1689612621.883,-22.949,-23.438,-25.391,-18.555,-15.137
1689612621.887,-35.645,-27.832,-24.414,-53.223,-181.641
1689612621.891,-43.945,-32.227,-23.438,-62.500,-110.352
1689612621.895,-37.598,-25.391,-19.043,-29.297,-21.484
1689612621.899,-34.180,-18.555,-22.461,-4.395,-31.738
1689612621.902,-28.809,-20.508,-24.414,-12.695,-76.172
1689612621.906,-28.320,-23.926,-20.508,-31.250,169.434
1689612621.910,-39.062,-27.344,-24.414,-44.922,282.715
1689612621.914,-40.527,-26.855,-22.461,-30.273,-66.895
1689612621.918,-32.715,-27.344,-20.996,1.465,-84.961
1689612621.921,-31.250,-29.297,-26.855,-2.441,54.199
1689612621.925,-27.832,-19.043,-25.391,-37.109,-86.914
1689612621.929,-33.691,-17.578,-17.578,-51.758,-209.961
1689612621.933,-33.203,-21.484,-14.648,-34.668,-186.523
1689612621.937,-27.344,-20.508,-19.043,-13.672,-141.602
1689612621.941,-31.738,-17.578,-24.902,-8.789,25.391
1689612621.945,-38.086,-15.137,-28.809,-36.621,22.949
1689612621.948,-44.434,-18.066,-31.738,-68.848,0.000
1689612621.952,-43.457,-22.461,-32.715,-58.105,138.184
1689612621.956,-39.062,-22.461,-31.250,-29.785,-79.102
1689612621.960,-33.691,-17.090,-25.391,-15.137,-175.781
1689612621.964,-35.645,-18.066,-25.391,-37.109,-10.254
1689612621.966,-43.945,-20.508,-32.227,-69.824,-62.500
1689612621.970,-47.852,-19.043,-35.645,-66.406,-169.922
1689612621.974,-44.922,-22.461,-33.203,-39.062,-63.965
1689612621.978,-38.574,-22.461,-27.344,-25.391,12.207
1689612621.982,-36.621,-20.508,-25.391,-45.898,-36.133
1689612621.986,-34.668,-19.043,-29.297,-67.871,-71.289
1689612621.990,-35.156,-20.508,-22.461,-61.035,-10.742
1689612621.993,-36.133,-21.973,-20.508,-24.414,333.496
1689612621.997,-34.180,-18.066,-22.949,-4.883,606.445
1689612622.001,-34.668,-19.531,-22.949,-29.785,115.723
1689612622.005,-37.598,-25.879,-24.414,-59.570,-201.660
1689612622.009,-33.203,-21.973,-21.973,-60.059,-142.090
1689612622.010,-29.785,-23.926,-25.391,-37.109,-161.621
1689612622.014,-27.344,-22.949,-25.391,-15.625,-172.852
1689612622.018,-26.367,-21.484,-22.461,-29.785,-114.746
1689612622.022,-33.203,-27.832,-23.926,-63.477,-36.621
1689612622.026,-39.551,-21.973,-22.949,-69.336,-81.055
1689612622.030,-43.457,-15.137,-21.484,-46.875,-57.129
1689612622.034,-45.410,-23.438,-25.391,-19.531,158.203
1689612622.037,-42.480,-29.297,-29.785,-22.949,405.273
1689612622.041,-41.016,-20.020,-26.367,-47.852,101.074
1689612622.045,-39.062,-15.625,-25.879,-58.105,-246.582
1689612622.049,-37.598,-21.973,-26.855,-41.504,-197.754
1689612622.053,-33.203,-22.949,-25.391,-16.602,-172.363
1689612622.055,-33.203,-21.973,-29.297,-20.508,-165.527
1689612622.059,-36.621,-24.902,-29.785,-50.781,-122.070
1689612622.063,-33.203,-20.020,-23.926,-64.453,-26.855
1689612622.067,-34.668,-20.996,-19.531,-43.457,-53.711
1689612622.071,-40.039,-25.391,-23.438,-14.160,-77.148
1689612622.075,-32.715,-23.926,-26.855,-14.648,-43.945
1689612622.079,-28.809,-26.367,-23.438,-35.645,289.062
1689612622.082,-41.016,-27.832,-25.391,-61.035,292.480
1689612622.086,-49.316,-24.902,-29.297,-52.734,-107.910
1689612622.090,-36.133,-21.973,-27.832,-13.672,-131.348
1689612622.094,-30.762,-23.926,-26.367,-8.301,165.527
1689612622.098,-33.203,-25.391,-27.832,-39.062,120.117
1689612622.100,-35.645,-19.043,-28.320,-69.336,-239.258
1689612622.104,-45.410,-20.996,-21.973,-58.105,-159.180
1689612622.108,-44.922,-25.391,-23.926,-27.344,-52.734
1689612622.112,-43.945,-20.996,-29.297,-23.438,-86.426
1689612622.116,-40.527,-20.020,-24.902,-49.316,-211.914
1689612622.120,-40.527,-24.414,-23.438,-71.289,-80.566
1689612622.124,-44.434,-25.879,-28.809,-62.988,49.805
1689612622.127,-43.945,-24.414,-29.785,-34.668,-92.773
1689612622.131,-40.039,-24.414,-24.414,-18.555,-106.934
1689612622.135,-34.668,-21.973,-24.414,-33.203,94.727
1689612622.139,-43.457,-19.531,-29.785,-58.105,241.211
1689612622.143,-42.969,-23.438,-27.832,-57.129,-68.848
1689612622.160,-35.645,-24.902,-30.762,-30.762,-170.410
1689612622.164,-29.297,-22.949,-32.715,-15.625,-125.000
1689612622.168,-24.902,-26.367,-29.785,-25.391,-144.531
1689612622.172,-32.227,-24.414,-33.203,-48.828,-196.289
1689612622.176,-38.086,-18.066,-29.785,-51.758,-138.672
1689612622.180,-34.668,-17.090,-24.414,-26.855,36.133
1689612622.184,-30.762,-18.555,-26.855,-1.465,56.641
1689612622.187,-35.156,-19.531,-25.879,-12.207,96.191
1689612622.191,-41.504,-18.066,-23.926,-46.387,2.441
1689612622.195,-44.434,-19.043,-21.973,-54.688,192.383
1689612622.199,-41.016,-18.066,-23.926,-37.109,296.875
1689612622.203,-39.551,-17.090,-30.273,-25.879,-81.543
1689612622.205,-37.109,-18.555,-28.809,-34.668,-113.770
1689612622.209,-38.574,-18.066,-24.902,-57.617,-103.516
1689612622.213,-45.410,-24.902,-26.855,-69.824,-258.789
1689612622.217,-42.480,-25.879,-29.297,-50.293,-312.988
1689612622.221,-37.598,-20.996,-23.926,-19.043,-194.336
1689612622.225,-38.086,-18.555,-20.508,-20.508,-19.531
1689612622.229,-40.527,-22.461,-20.020,-51.758,23.926
1689612622.232,-41.504,-21.484,-18.555,-60.547,-142.578
1689612622.236,-35.645,-20.508,-20.020,-36.621,-70.312
1689612622.240,-31.738,-24.414,-22.461,-9.277,200.684
1689612622.244,-35.645,-23.926,-21.484,-9.766,34.668
1689612622.248,-37.109,-22.949,-19.531,-41.992,-114.746
1689612622.251,-37.598,-20.508,-23.438,-61.523,-100.586
1689612622.255,-43.457,-28.809,-29.297,-42.480,-104.492
1689612622.259,-41.992,-32.715,-29.297,-16.602,-72.754
1689612622.263,-41.016,-22.461,-25.391,-15.137,-67.383
1689612622.267,-49.316,-23.438,-25.391,-37.109,7.324
1689612622.271,-53.223,-29.785,-27.344,-53.711,-0.977
1689612622.275,-53.223,-27.832,-24.902,-42.480,-63.477
1689612622.278,-45.410,-31.250,-25.879,-14.160,-23.438
1689612622.282,-35.645,-36.133,-27.832,-3.418,257.812
1689612622.286,-31.250,-25.879,-25.391,-34.180,297.363
1689612622.290,-32.715,-18.066,-24.414,-68.359,-141.602
1689612622.294,-29.785,-16.113,-25.879,-61.035,-198.242
1689612622.295,-23.438,-14.648,-31.250,-31.250,-118.164
1689612622.299,-23.438,-16.602,-32.227,-19.043,-182.129
1689612622.303,-26.367,-20.020,-29.785,-43.945,-187.988
1689612622.307,-31.738,-15.137,-27.344,-67.383,-108.887
1689612622.311,-34.668,-21.973,-25.391,-51.758,-19.043
1689612622.315,-38.574,-28.809,-28.809,-17.090,31.250
1689612622.319,-40.527,-24.414,-29.297,-6.348,70.312
1689612622.322,-30.762,-21.973,-23.926,-15.625,111.328
1689612622.326,-35.156,-26.855,-20.996,-33.203,289.062
1689612622.330,-45.898,-28.320,-20.996,-50.293,60.059
1689612622.334,-40.039,-28.320,-23.438,-33.691,-222.168
1689612622.338,-38.086,-29.785,-22.461,-4.883,-108.398
1689612622.339,-42.480,-26.855,-19.043,-17.090,-70.312
1689612622.343,-45.410,-29.297,-23.926,-50.781,-111.816
1689612622.347,-49.316,-27.344,-29.785,-60.059,-103.027
1689612622.351,-49.316,-23.438,-27.832,-35.156,-32.227
1689612622.355,-36.133,-23.438,-29.297,-7.812,-25.391
1689612622.359,-32.715,-21.484,-31.250,-17.090,-7.324
1689612622.363,-36.133,-23.926,-24.902,-42.969,-28.809
1689612622.366,-33.203,-23.438,-20.508,-50.293,186.523
1689612622.370,-41.504,-21.973,-29.297,-37.109,421.387
1689612622.374,-40.527,-21.484,-34.180,-20.508,3.906
1689612622.378,-32.715,-20.996,-27.344,-23.438,-202.637
1689612622.382,-39.062,-23.438,-23.926,-54.199,-54.688
1689612622.385,-39.551,-21.973,-23.926,-71.289,-104.980
1689612622.389,-35.156,-19.043,-26.367,-48.340,-251.953
1689612622.393,-32.227,-21.973,-27.832,-19.531,-118.652
1689612622.397,-25.879,-19.531,-29.785,-18.555,35.645
1689612622.401,-30.273,-21.484,-30.762,-43.457,-134.277
1689612622.405,-34.180,-27.832,-26.855,-59.570,-157.227
1689612622.409,-26.367,-24.902,-22.461,-43.457,51.758
1689612622.412,-28.809,-28.809,-25.879,-11.719,295.410
1689612622.416,-28.809,-23.926,-26.855,-8.301,65.430
1689612622.420,-24.414,-17.578,-22.949,-39.551,-163.086
1689612622.424,-24.414,-17.090,-19.043,-63.965,-20.020
1689612622.428,-26.367,-17.578,-20.020,-53.223,-64.941
1689612622.430,-26.367,-20.508,-23.926,-18.555,-199.219
1689612622.434,-22.949,-17.090,-20.020,-0.488,-151.855
1689612622.438,-31.250,-19.043,-23.438,-31.250,-79.590
1689612622.442,-25.879,-18.066,-36.621,-61.523,-36.621
1689612622.446,-8.301,-17.578,-22.949,-26.855,-21.973
1689612622.450,-32.715,-26.855,-12.207,-10.254,-31.738
1689612622.454,-65.918,-22.461,-21.484,-43.457,227.539
1689612622.457,-86.914,-25.391,-22.949,-87.891,316.406
1689612622.461,-115.234,-34.668,-25.391,-140.625,-116.211
1689612622.465,-137.207,-35.645,-25.391,-158.203,-178.711
1689612622.469,-162.109,-38.574,-26.367,-158.203,23.438
1689612622.473,-192.871,-48.340,-28.320,-176.270,-25.879
1689612622.476,-217.773,-51.758,-29.297,-217.285,-158.691
1689612622.480,-238.770,-51.270,-31.250,-265.137,-126.465
1689612622.484,-257.812,-48.340,-36.621,-280.762,-45.898
1689612622.488,-277.344,-49.316,-34.668,-268.066,-97.656
1689612622.492,-293.945,-55.176,-31.250,-259.766,-127.930
1689612622.496,-291.992,-48.340,-29.785,-268.066,87.402
1689612622.500,-295.898,-49.316,-31.250,-301.270,229.004
1689612622.503,-291.016,-47.852,-31.250,-310.059,-91.309
1689612622.507,-281.738,-35.156,-33.203,-283.203,-266.113
1689612622.511,-281.250,-40.527,-33.691,-257.324,-12.207
1689612622.515,-272.949,-48.340,-32.227,-257.812,107.910
1689612622.519,-264.160,-49.805,-32.227,-279.785,-137.695
1689612622.535,-240.723,-49.316,-28.809,-265.625,-234.375
1689612622.539,-219.238,-43.457,-24.902,-227.051,-62.988
1689612622.543,-200.684,-41.016,-18.555,-187.012,57.617
1689612622.547,-177.734,-42.969,-21.484,-171.387,-56.152
1689612622.551,-158.691,-40.527,-26.855,-192.383,-167.969
1689612622.555,-145.996,-30.273,-23.926,-193.848,181.641
1689612622.559,-131.836,-28.809,-21.973,-156.250,333.496
1689612622.562,-117.188,-34.180,-23.438,-125.000,-24.902
1689612622.566,-106.445,-31.738,-20.020,-118.652,-103.516
1689612622.570,-98.633,-30.273,-18.555,-132.324,90.820
1689612622.574,-91.797,-29.785,-18.555,-143.555,42.480
1689612622.578,-83.008,-34.180,-17.578,-112.305,-247.070
1689612622.580,-69.824,-38.086,-19.043,-62.500,-103.516
1689612622.584,-58.105,-36.133,-16.113,-51.270,56.152
1689612622.588,-46.875,-31.250,-17.578,-68.848,-53.223
1689612622.592,-45.898,-31.738,-25.879,-88.379,-184.082
1689612622.596,-38.574,-27.832,-23.438,-77.148,-56.152
1689612622.600,-23.926,-27.832,-23.926,-31.738,54.688
1689612622.604,-24.902,-37.109,-28.809,-16.113,-84.961
1689612622.607,-23.438,-37.109,-28.809,-39.551,-151.367
1689612622.611,-15.625,-35.156,-27.832,-56.641,-11.230
1689612622.615,-14.648,-42.480,-28.320,-46.387,244.629
1689612622.619,-12.207,-39.062,-29.297,-17.578,39.062
1689612622.623,-0.488,-30.762,-29.785,-2.930,-125.977
1689612622.625,-0.977,-27.344,-31.738,-20.996,-37.109
1689612622.629,-12.207,-28.320,-27.344,-39.062,-149.902
1689612622.633,-13.184,-27.344,-24.414,-35.645,-199.707
1689612622.637,-8.789,-27.344,-26.855,-7.324,-119.629
1689612622.641,-5.859,-29.785,-27.344,7.324,-76.172
1689612622.645,-4.883,-28.320,-20.996,-8.789,29.297
1689612622.649,-9.277,-29.785,-25.879,-39.551,41.504
1689612622.652,-17.578,-32.227,-34.180,-50.293,-86.426
1689612622.656,-8.301,-28.809,-31.738,-7.812,186.035
1689612622.660,-1.465,-27.344,-29.297,20.020,502.930
1689612622.664,-3.906,-30.762,-31.738,-3.906,105.957
1689612622.668,-6.348,-26.367,-33.691,-33.203,-193.848
1689612622.670,-9.766,-22.949,-30.273,-32.715,-136.230
1689612622.674,-3.906,-22.949,-21.973,-8.789,-190.430
1689612622.678,1.953,-23.926,-19.043,8.301,-199.219
1689612622.682,0.488,-23.438,-20.996,-4.395,-124.512
1689612622.686,-10.254,-25.391,-23.926,-46.875,-128.418
1689612622.690,-20.020,-26.855,-24.902,-58.105,-116.699
1689612622.694,-12.207,-20.508,-26.367,-34.668,-16.113
1689612622.697,-11.230,-22.461,-29.297,-13.184,122.559
1689612622.701,-16.113,-24.414,-25.879,-14.648,98.145
1689612622.705,-19.043,-29.785,-20.996,-46.875,-91.797
1689612622.709,-29.297,-35.156,-23.926,-64.941,-148.926
1689612622.713,-34.180,-32.227,-33.203,-42.969,2.441
1689612622.714,-28.809,-26.855,-27.344,-7.324,176.758
1689612622.718,-29.785,-30.762,-22.461,-14.160,-62.012
1689612622.722,-32.715,-34.180,-25.879,-41.504,-160.645
1689612622.726,-25.391,-23.926,-27.344,-53.711,-108.398
1689612622.730,-22.949,-26.855,-24.414,-45.410,-81.055
1689612622.734,-22.949,-31.738,-23.926,-20.508,-41.504
1689612622.738,-19.531,-24.414,-28.809,-5.371,-18.555
1689612622.741,-25.391,-24.414,-28.809,-25.879,284.668
1689612622.745,-33.203,-24.902,-27.832,-52.734,399.414
1689612622.749,-30.273,-27.344,-26.367,-43.945,-57.617
1689612622.753,-24.414,-29.785,-22.461,-8.301,-156.738
1689612622.757,-27.832,-33.203,-27.344,-4.395,-47.363
1689612622.761,-27.832,-33.203,-27.832,-34.180,-77.637
1689612622.765,-28.320,-31.250,-24.414,-51.758,-165.039
1689612622.769,-36.621,-33.691,-26.367,-41.504,-111.816
1689612622.773,-30.762,-26.855,-20.996,-5.859,-30.762
1689612622.777,-23.926,-27.832,-19.531,6.836,-135.254
1689612622.781,-25.391,-29.297,-23.438,-19.043,-125.488
1689612622.785,-26.367,-23.438,-23.926,-46.875,104.492
1689612622.788,-31.738,-28.320,-24.902,-46.875,230.957
1689612622.792,-28.320,-31.738,-23.926,-22.461,-50.781
1689612622.796,-30.762,-26.855,-25.879,-6.836,-186.523
1689612622.800,-31.738,-24.414,-28.320,-20.508,-35.156
1689612622.804,-32.715,-31.250,-29.785,-53.223,-39.062
1689612622.804,-40.039,-31.250,-30.762,-54.199,-160.156
1689612622.808,-36.133,-25.391,-27.832,-30.273,-142.090
1689612622.812,-28.809,-20.996,-19.043,-13.672,41.504
1689612622.816,-28.809,-20.996,-20.996,-26.367,78.125
1689612622.820,-33.203,-26.367,-30.273,-57.617,-107.910
1689612622.824,-38.086,-22.949,-32.227,-63.965,-64.453
1689612622.828,-39.062,-20.996,-29.785,-32.715,210.938
1689612622.831,-35.156,-25.879,-29.297,0.000,542.969
1689612622.835,-31.738,-29.297,-30.273,-17.090,195.312
1689612622.839,-36.133,-29.297,-25.879,-45.898,-251.465
1689612622.843,-39.551,-27.344,-24.414,-57.617,-223.145
1689612622.847,-41.504,-31.738,-32.227,-46.875,-227.539
1689612622.851,-38.574,-30.762,-31.250,-16.602,-222.168
1689612622.855,-31.738,-25.879,-24.414,-8.789,-97.656
1689612622.859,-33.203,-21.973,-25.879,-42.969,-32.715
1689612622.863,-42.969,-19.043,-33.203,-68.848,-77.148
1689612622.867,-48.828,-28.809,-36.621,-54.688,-128.906
1689612622.871,-41.016,-32.715,-33.691,-21.484,48.340
1689612622.875,-33.203,-19.043,-22.949,-8.789,237.305
1689612622.878,-29.785,-13.184,-17.090,-34.668,13.672
1689612622.882,-33.203,-20.508,-21.484,-56.641,-168.945
1689612622.886,-32.715,-21.484,-21.973,-40.527,-89.844
1689612622.890,-25.879,-18.555,-26.367,-11.719,-42.480
1689612622.894,-24.414,-25.391,-26.855,-10.254,-148.926
1689612622.910,-33.691,-28.320,-25.879,-32.227,-162.109
1689612622.914,-33.203,-17.090,-22.461,-46.875,-19.531
1689612622.918,-28.320,-18.066,-19.043,-36.621,-16.113
1689612622.922,-27.832,-22.461,-28.809,-14.648,-165.039
1689612622.926,-20.020,-14.648,-28.809,-9.277,-126.953
1689612622.930,-17.578,-16.602,-30.762,-29.785,225.586
1689612622.934,-28.809,-20.996,-32.715,-50.293,362.793
1689612622.937,-33.203,-20.508,-26.367,-46.875,-34.668
1689612622.941,-26.855,-19.531,-25.879,-15.625,-79.590
1689612622.945,-21.973,-17.578,-26.367,0.977,105.957
1689612622.949,-28.320,-23.438,-30.762,-25.879,13.672
1689612622.953,-32.715,-23.926,-31.738,-50.293,-188.477
1689612622.955,-32.715,-21.484,-23.438,-40.527,-211.426
1689612622.959,-35.156,-17.578,-20.508,-15.625,211.914
1689612622.963,-22.461,-9.277,-17.578,1.465,230.957
1689612622.967,-21.484,-8.301,-21.973,-24.414,-193.359
1689612622.971,-33.691,-12.207,-24.902,-55.176,-200.195
1689612622.975,-37.109,-20.020,-20.508,-53.711,-70.801
1689612622.979,-49.316,-26.855,-25.391,-44.922,-56.641
1689612622.982,-55.176,-30.762,-29.297,-37.598,-150.391
1689612622.986,-54.688,-21.484,-27.832,-49.316,-4.883
1689612622.990,-59.082,-18.066,-18.066,-72.266,160.645
1689612622.994,-86.426,-26.855,-19.043,-108.398,-104.980
1689612622.998,-112.793,-27.832,-23.438,-117.188,-273.926
1689612623.000,-108.887,-23.438,-13.672,-90.332,-58.105
1689612623.004,-119.629,-18.555,-7.812,-105.469,-8.789
1689612623.008,-139.160,-9.766,-9.277,-153.809,-184.082
1689612623.012,-149.902,-2.930,-11.719,-177.246,-180.664
1689612623.016,-157.227,-6.836,-11.719,-174.805,-69.824
1689612623.020,-160.645,-10.254,-13.672,-157.715,-0.488
1689612623.024,-151.367,-12.207,-13.672,-154.297,89.844
1689612623.027,-150.391,-15.137,-18.066,-180.664,2.930
1689612623.031,-149.414,-17.090,-20.996,-184.570,141.113
1689612623.035,-121.094,-19.531,-20.508,-138.672,325.195
1689612623.039,-98.145,-15.625,-25.879,-99.609,-44.434
1689612623.043,-96.680,-20.020,-32.715,-101.562,-166.504
1689612623.045,-82.520,-23.438,-32.715,-111.328,-128.418
1689612623.049,-66.895,-18.555,-31.250,-107.910,-183.105
1689612623.053,-65.430,-23.926,-34.180,-86.914,-200.684
1689612623.057,-53.223,-25.391,-32.227,-44.922,-69.336
1689612623.061,-35.645,-22.949,-30.762,-20.508,74.707
1689612623.065,-29.785,-25.879,-32.227,-29.785,-6.836
1689612623.069,-26.367,-27.344,-32.715,-49.316,-48.340
1689612623.072,-20.508,-21.484,-33.691,-38.086,83.984
1689612623.076,-11.719,-23.438,-35.645,2.441,198.242
1689612623.080,3.418,-23.926,-33.691,20.996,-2.930
1689612623.084,11.230,-18.555,-25.879,-0.488,-112.793
1689612623.088,10.254,-23.438,-24.902,-23.926,-123.535
1689612623.090,11.230,-26.855,-30.762,-9.766,-162.598
1689612623.094,22.949,-23.438,-31.738,29.297,-139.648
1689612623.098,25.879,-25.879,-29.785,43.945,-111.328
1689612623.102,18.555,-26.855,-29.297,25.879,-20.020
1689612623.106,15.137,-29.785,-30.762,-3.418,-42.480
1689612623.110,13.184,-31.250,-30.273,-13.672,-47.363
1689612623.114,16.602,-24.902,-25.879,17.090,-1.465
1689612623.117,14.648,-29.785,-24.902,43.457,297.363
1689612623.121,11.230,-30.762,-20.020,26.855,476.074
1689612623.125,11.230,-25.391,-19.043,-10.742,-8.789
1689612623.129,9.766,-24.414,-21.484,-20.020,-222.656
1689612623.133,14.648,-24.414,-24.902,4.395,-112.305
1689612623.135,18.066,-21.973,-27.832,20.508,-107.910
1689612623.139,18.066,-23.926,-28.809,2.930,-164.551
1689612623.143,6.836,-29.785,-31.738,-23.926,-141.113
1689612623.147,-8.301,-30.273,-29.785,-26.367,-103.027
1689612623.151,-8.789,-24.414,-23.438,-2.930,-118.652
1689612623.155,-4.883,-22.949,-27.344,20.508,-40.527
1689612623.159,-5.859,-21.484,-29.297,11.230,121.094
1689612623.162,-9.766,-17.578,-27.344,-17.578,464.844
1689612623.166,-13.184,-24.414,-27.344,-33.203,157.227
1689612623.170,-12.695,-27.832,-28.320,-15.137,-229.980
1689612623.174,-11.230,-26.367,-30.273,6.836,-56.152
1689612623.178,-5.859,-28.320,-24.414,3.418,-85.938
1689612623.179,-3.418,-26.855,-23.926,-22.949,-194.824
1689612623.183,-3.906,-21.484,-19.531,-34.668,-193.359
1689612623.187,-4.395,-22.949,-16.113,-13.184,-111.816
1689612623.191,-1.953,-22.461,-23.926,13.672,-79.590
1689612623.195,-0.977,-21.484,-27.832,15.137,-117.676
1689612623.199,-4.395,-24.902,-22.461,-15.625,-109.863
1689612623.203,-15.625,-27.344,-23.438,-34.180,206.055
1689612623.206,-20.508,-22.949,-20.996,-17.090,316.406
1689612623.210,-17.578,-21.484,-16.113,4.395,-8.789
1689612623.214,-25.879,-24.902,-15.137,3.906,-93.750
1689612623.218,-23.438,-23.926,-12.207,-15.625,136.719
1689612623.222,-24.414,-24.414,-18.066,-40.527,98.145
1689612623.225,-36.133,-34.180,-22.949,-41.016,-194.336
1689612623.229,-36.133,-34.180,-26.367,-4.883,-130.371
1689612623.233,-29.785,-29.297,-27.344,7.812,-52.734
1689612623.237,-27.344,-29.297,-24.414,-17.090,-135.254
1689612623.241,-30.762,-26.367,-22.461,-33.203,-191.895
1689612623.245,-32.715,-27.344,-19.043,-30.762,44.434
1689612623.249,-31.250,-23.438,-17.578,-8.789,237.793
1689612623.252,-33.691,-21.973,-18.555,-0.977,34.180
1689612623.256,-34.180,-25.879,-20.996,-25.391,-133.789
1689612623.260,-39.551,-27.344,-25.879,-51.270,-65.430
1689612623.264,-42.969,-27.344,-28.809,-45.410,33.203
1689612623.268,-37.109,-26.367,-22.461,-15.137,-66.895
1689612623.271,-35.156,-29.297,-21.973,-0.488,-161.133
1689612623.275,-37.598,-26.367,-21.973,-20.996,-30.273
1689612623.279,-43.457,-27.832,-21.973,-50.781,-23.926
1689612623.283,-45.410,-27.832,-24.414,-54.199,-189.453
1689612623.287,-43.945,-28.809,-28.320,-30.762,-159.180
1689612623.291,-43.945,-33.203,-32.715,-6.836,-0.977
1689612623.295,-40.039,-36.621,-28.809,-17.090,-24.902
1689612623.298,-40.527,-38.574,-26.855,-52.246,-65.430
1689612623.302,-43.457,-28.809,-24.414,-64.941,-88.867
1689612623.306,-41.504,-25.391,-22.949,-34.180,163.086
1689612623.310,-27.832,-25.391,-25.391,-1.465,296.387
1689612623.314,-21.484,-20.996,-24.414,-15.137,-126.465
1689612623.330,-32.227,-24.414,-25.879,-47.363,-166.016
1689612623.334,-34.668,-25.879,-28.809,-56.641,-59.082
1689612623.338,-33.203,-25.391,-25.879,-32.715,-108.398
1689612623.342,-24.902,-31.738,-22.461,-2.930,-157.715
1689612623.346,-16.602,-33.203,-25.879,-1.953,-2.441
1689612623.350,-19.043,-25.391,-28.809,-23.926,166.504
1689612623.354,-19.531,-16.113,-23.926,-38.574,40.527
1689612623.357,-19.531,-12.207,-18.555,-16.113,-90.332
1689612623.361,-20.020,-19.043,-20.996,10.742,4.395
1689612623.365,-17.090,-21.973,-22.949,6.348,195.312
1689612623.369,-17.578,-18.555,-21.484,-22.949,-67.871
1689612623.373,-23.438,-24.414,-24.414,-40.039,-229.004
1689612623.375,-25.879,-18.555,-21.484,-27.344,-135.742
1689612623.379,-19.043,-17.578,-18.066,-1.465,-72.754
1689612623.383,-12.207,-19.531,-23.926,5.371,-114.258
1689612623.387,-15.137,-12.207,-29.297,-22.949,-55.664
1689612623.391,-24.902,-16.113,-28.809,-47.363,88.867
1689612623.395,-26.855,-21.484,-30.762,-34.180,12.695
1689612623.399,-23.926,-17.578,-23.438,-5.371,-74.707
1689612623.402,-20.996,-16.113,-14.160,0.977,-32.227
1689612623.406,-24.902,-20.020,-16.113,-21.484,198.242
1689612623.410,-32.227,-13.672,-22.949,-53.223,334.473
1689612623.414,-34.180,-14.160,-25.879,-60.547,-49.316
1689612623.418,-29.785,-22.461,-23.926,-26.855,-188.965
1689612623.420,-28.320,-20.020,-27.344,-13.672,-88.379
1689612623.424,-33.691,-16.602,-25.391,-33.691,-143.066
1689612623.428,-33.691,-15.625,-19.043,-57.129,-225.098
1689612623.432,-32.227,-20.020,-19.531,-53.711,-161.621
1689612623.436,-32.715,-14.648,-22.461,-18.066,-26.367
1689612623.440,-31.738,-9.277,-20.020,4.395,20.020
1689612623.444,-32.227,-14.160,-20.996,-9.766,-23.438
1689612623.447,-34.180,-13.184,-20.996,-41.504,52.246
1689612623.451,-33.691,-12.695,-18.555,-45.898,316.406
1689612623.455,-24.902,-14.160,-22.949,-23.438,112.305
1689612623.459,-20.996,-18.555,-25.879,-7.812,-195.801
1689612623.463,-24.902,-18.555,-22.949,-16.113,-122.070
1689612623.465,-26.855,-24.414,-21.973,-41.992,-112.793
1689612623.469,-36.133,-24.414,-24.902,-62.988,-187.500
1689612623.473,-44.922,-22.949,-22.461,-44.922,-141.113
1689612623.477,-44.434,-24.414,-22.461,-18.066,-50.293
1689612623.481,-42.969,-25.391,-26.855,-31.738,-94.727
1689612623.485,-45.410,-30.273,-25.879,-56.641,-50.293
1689612623.489,-45.898,-28.809,-23.438,-65.918,-18.066
1689612623.492,-40.039,-27.832,-26.855,-44.922,239.746
1689612623.496,-31.738,-26.367,-20.996,-14.648,428.223
1689612623.500,-32.227,-28.809,-21.973,-21.484,32.227
1689612623.504,-45.410,-32.715,-28.809,-46.387,-148.926
1689612623.508,-57.617,-34.180,-24.414,-64.453,-112.793
1689612623.510,-56.641,-37.109,-23.438,-52.246,-157.715
1689612623.514,-46.387,-32.715,-27.832,-22.949,-179.688
1689612623.518,-36.621,-29.785,-36.621,-17.090,-103.027
1689612623.522,-32.227,-24.902,-35.156,-45.410,-120.605
1689612623.526,-28.809,-20.020,-24.902,-67.383,-199.707
1689612623.530,-29.785,-22.949,-22.461,-53.711,-177.734
1689612623.534,-31.738,-28.320,-24.414,-17.090,22.949
1689612623.537,-38.574,-32.715,-24.414,-3.906,265.625
1689612623.541,-35.156,-32.715,-24.414,-23.438,9.277
1689612623.545,-25.879,-25.391,-31.738,-56.641,-204.590
1689612623.549,-30.273,-9.277,-32.715,-66.895,-70.801
1689612623.553,-30.273,-8.301,-20.996,-38.086,22.949
1689612623.555,-30.273,-10.742,-23.926,-33.203,-50.293
1689612623.559,-26.855,-6.836,-28.809,-46.387,-115.723
1689612623.563,-37.598,-6.348,-33.691,-70.312,12.695
1689612623.567,-44.922,-13.672,-42.969,-69.824,-16.113
1689612623.571,-40.527,-18.555,-41.016,-37.598,-165.527
1689612623.575,-38.086,-20.996,-32.227,-22.461,-107.422
1689612623.579,-36.133,-25.391,-29.785,-32.715,251.953
1689612623.582,-43.945,-19.043,-35.156,-61.523,372.559
1689612623.586,-47.363,-14.648,-35.156,-65.430,-39.062
1689612623.590,-43.945,-14.648,-32.227,-35.645,-212.402
1689612623.594,-34.668,-13.184,-23.926,-9.766,-46.875
1689612623.598,-34.668,-22.949,-23.926,-25.879,-62.012
1689612623.601,-38.574,-29.297,-30.273,-61.035,-208.008
1689612623.605,-37.598,-29.785,-29.785,-59.570,-79.102
1689612623.609,-33.203,-31.738,-28.320,-29.785,183.594
1689612623.613,-20.508,-30.762,-25.391,-3.906,69.336
1689612623.617,-22.461,-29.297,-25.391,-14.648,-135.742
1689612623.621,-29.785,-25.391,-20.996,-45.898,57.129
1689612623.625,-28.809,-22.461,-20.508,-59.082,182.617
1689612623.628,-28.809,-25.879,-19.043,-40.527,-39.062
1689612623.632,-28.809,-18.555,-15.625,-14.160,-198.730
1689612623.636,-29.297,-13.672,-25.391,-14.648,-13.184
1689612623.640,-32.227,-20.020,-30.762,-41.992,123.047
1689612623.644,-32.715,-18.066,-28.809,-61.035,-171.875
1689612623.660,-31.250,-18.555,-23.438,-40.527,-175.293
1689612623.664,-25.391,-14.648,-11.719,-3.418,-27.832
1689612623.668,-20.508,-15.137,-10.254,-0.488,-49.316
1689612623.672,-26.367,-26.855,-21.484,-33.691,-145.020
1689612623.676,-31.250,-29.785,-20.020,-56.152,-185.059
1689612623.680,-30.273,-21.973,-15.137,-37.109,228.516
1689612623.684,-31.738,-25.879,-20.996,-9.277,361.816
1689612623.687,-33.691,-27.832,-22.949,-15.137,-32.715
1689612623.691,-29.785,-15.137,-18.555,-39.062,-187.012
1689612623.695,-27.832,-16.113,-18.555,-48.828,34.180
1689612623.699,-30.762,-26.855,-27.832,-35.645,68.848
1689612623.703,-27.832,-25.391,-35.156,-12.695,-205.566
1689612623.705,-26.367,-17.090,-27.832,-5.859,-123.535
1689612623.709,-26.367,-20.508,-19.531,-28.809,-71.289
1689612623.713,-24.902,-23.438,-20.508,-46.387,-180.176
1689612623.717,-27.832,-24.902,-17.578,-37.598,-166.992
1689612623.721,-26.367,-26.855,-20.996,-14.160,-37.598
1689612623.725,-20.996,-27.832,-29.785,-12.695,9.277
1689612623.729,-21.484,-35.156,-36.621,-36.133,32.227
1689612623.732,-20.020,-31.250,-36.621,-55.664,0.488
1689612623.736,-26.855,-26.855,-34.668,-52.246,12.695
1689612623.740,-33.691,-30.273,-30.762,-20.508,300.781
1689612623.744,-32.715,-31.738,-24.902,-8.301,156.250
1689612623.748,-25.879,-35.156,-24.902,-21.484,-164.551
1689612623.750,-27.832,-34.668,-22.949,-48.340,-68.359
1689612623.754,-31.738,-28.320,-22.949,-57.617,-83.496
1689612623.758,-30.762,-27.832,-24.902,-29.297,-176.270
1689612623.762,-31.738,-33.691,-23.438,-12.695,-162.598
1689612623.766,-22.949,-26.855,-27.344,-25.391,-132.324
1689612623.770,-26.855,-22.949,-29.297,-55.176,-63.965
1689612623.774,-39.551,-33.203,-28.809,-64.941,11.719
1689612623.777,-37.598,-34.668,-26.367,-41.016,-11.719
1689612623.781,-31.250,-30.273,-25.879,-9.766,183.105
1689612623.785,-31.738,-26.367,-30.762,-13.184,520.020
1689612623.789,-32.227,-20.020,-28.809,-45.898,141.602
1689612623.793,-35.156,-20.508,-25.391,-58.105,-229.492
1689612623.795,-31.738,-20.996,-27.344,-31.250,-169.922
1689612623.799,-20.508,-26.855,-33.203,-8.789,-171.387
1689612623.803,-17.578,-31.738,-25.879,-14.160,-193.848
1689612623.807,-22.949,-21.484,-23.438,-41.504,-155.273
1689612623.811,-29.297,-24.414,-28.809,-59.570,-126.953
1689612623.815,-27.344,-26.855,-24.414,-34.668,-87.402
1689612623.819,-26.367,-14.160,-22.949,-8.301,-85.449
1689612623.822,-25.879,-11.719,-24.902,-15.625,28.809
1689612623.826,-28.320,-20.996,-24.414,-42.480,218.262
1689612623.830,-36.133,-29.785,-26.367,-66.406,-85.449
1689612623.834,-36.621,-33.203,-26.855,-56.152,-271.484
1689612623.838,-32.227,-30.273,-28.320,-23.926,-65.430
1689612623.839,-26.367,-20.996,-25.879,-9.277,-15.137
1689612623.843,-26.367,-13.184,-20.508,-34.180,-114.746
1689612623.847,-41.992,-23.438,-21.484,-61.523,-125.488
1689612623.851,-43.457,-33.691,-15.625,-45.410,-63.477
1689612623.855,-33.203,-21.484,-15.625,-12.695,-17.090
1689612623.859,-33.691,-24.414,-20.508,-9.766,29.297
1689612623.863,-35.156,-32.715,-20.996,-37.598,-16.602
1689612623.866,-32.227,-28.809,-21.973,-49.805,208.984
1689612623.870,-37.109,-26.367,-22.949,-36.621,448.730
1689612623.874,-38.086,-24.414,-25.391,-17.090,19.531
1689612623.878,-32.715,-24.902,-27.344,-12.695,-134.277
1689612623.882,-32.715,-27.344,-25.879,-35.645,-37.598
1689612623.886,-36.621,-23.438,-24.414,-65.918,-155.273
1689612623.890,-40.527,-21.484,-21.973,-65.430,-215.332
1689612623.894,-38.574,-26.367,-18.066,-33.203,-31.738
1689612623.898,-31.738,-26.367,-20.020,-12.695,87.891
1689612623.902,-27.832,-26.367,-20.508,-26.367,-78.125
1689612623.906,-32.715,-32.227,-24.414,-55.664,-75.195
1689612623.910,-41.016,-29.785,-25.391,-57.617,157.715
1689612623.913,-38.574,-20.508,-22.461,-26.855,287.109
1689612623.917,-33.203,-22.949,-27.832,-7.324,8.789
1689612623.921,-34.180,-27.344,-28.809,-21.484,-112.793
1689612623.925,-34.668,-21.973,-23.438,-44.434,-40.527
1689612623.929,-33.691,-23.438,-20.508,-50.293,-159.180
1689612623.929,-34.668,-23.438,-25.391,-27.832,-235.840
1689612623.933,-37.598,-28.320,-33.203,-8.789,-172.852
1689612623.937,-36.133,-34.180,-28.809,-16.602,-95.703
1689612623.941,-36.133,-22.949,-24.414,-40.039,-96.680
1689612623.945,-41.992,-24.414,-28.320,-54.688,-158.691
1689612623.949,-36.133,-31.738,-22.949,-37.598,-138.672
1689612623.953,-26.855,-28.320,-22.949,-6.836,221.680
1689612623.956,-24.414,-22.461,-28.809,-2.930,426.270
1689612623.960,-28.320,-22.461,-25.879,-37.598,23.438
1689612623.964,-31.250,-25.391,-24.902,-56.152,-183.594
1689612623.968,-34.668,-25.391,-26.367,-34.180,-13.184
1689612623.972,-37.109,-27.344,-25.879,-12.207,-11.230
1689612623.975,-32.715,-21.484,-23.926,-16.602,-190.918
1689612623.979,-33.691,-20.996,-22.461,-38.574,-145.020
1689612623.983,-41.016,-23.438,-25.391,-56.152,-34.180
1689612623.987,-38.086,-26.367,-28.320,-48.340,-135.254
1689612623.991,-33.203,-24.902,-26.855,-22.461,-178.711
1689612623.995,-33.203,-23.438,-23.438,-12.207,57.617
1689612623.999,-34.180,-30.762,-24.902,-34.668,198.242
1689612624.002,-35.645,-32.227,-28.320,-60.059,-7.812
1689612624.006,-22.949,-24.902,-31.738,-44.922,-207.031
1689612624.010,-6.348,-17.090,-24.414,0.488,-94.238
1689612624.014,-21.973,-26.367,-10.742,5.371,102.051
1689612624.018,-41.992,-31.738,-14.648,-34.668,-114.258
1689612624.035,-46.875,-30.762,-18.066,-65.918,-216.309
1689612624.039,-47.363,-30.273,-12.207,-55.176,-137.207
1689612624.043,-39.551,-32.715,-17.090,-14.160,-101.562
1689612624.047,-36.133,-38.574,-22.949,-6.348,-144.043
1689612624.051,-34.180,-38.086,-19.531,-27.344,-105.469
1689612624.055,-41.016,-33.691,-19.043,-43.457,10.254
1689612624.059,-44.922,-29.785,-23.438,-38.574,-4.883
1689612624.062,-38.574,-30.762,-19.531,-10.254,-49.805
1689612624.066,-29.785,-35.156,-15.625,4.395,-30.273
1689612624.070,-23.438,-35.156,-18.555,-7.812,237.305
1689612624.074,-24.414,-29.785,-15.625,-34.668,365.234
1689612624.078,-28.320,-29.297,-19.043,-48.828,-71.777
1689612624.080,-28.320,-29.297,-22.949,-23.926,-177.734
1689612624.084,-29.297,-30.273,-21.484,4.883,8.301
1689612624.088,-28.809,-35.645,-21.484,-6.836,-52.734
1689612624.092,-30.762,-38.086,-21.484,-45.898,-169.922
1689612624.096,-37.598,-32.227,-24.902,-48.828,-33.691
1689612624.100,-33.203,-28.320,-28.320,-14.648,120.605
1689612624.104,-26.855,-25.879,-24.902,4.395,61.523
1689612624.107,-24.414,-21.973,-20.020,-3.906,-78.613
1689612624.111,-24.414,-27.832,-21.484,-27.344,14.160
1689612624.115,-30.273,-28.320,-20.020,-33.691,222.656
1689612624.119,-28.320,-22.949,-18.555,-9.277,-31.250
1689612624.123,-15.137,-25.879,-21.973,13.184,-188.965
1689612624.125,-7.812,-25.391,-25.879,9.766,-3.418
1689612624.129,-13.672,-19.043,-23.438,-26.367,1.465
1689612624.133,-20.996,-18.066,-18.555,-47.363,-197.266
1689612624.137,-20.996,-18.555,-21.484,-24.902,-164.551
1689612624.141,-21.973,-20.020,-21.973,4.395,-85.938
1689612624.145,-24.414,-21.484,-15.137,4.395,51.270
1689612624.149,-27.832,-19.043,-16.602,-21.973,64.453
1689612624.152,-32.715,-17.578,-23.926,-41.016,-19.531
1689612624.156,-36.621,-24.902,-23.438,-27.344,215.820
1689612624.160,-34.668,-23.926,-16.602,-0.977,321.777
1689612624.164,-25.879,-20.996,-15.625,-4.883,-19.043
1689612624.168,-25.391,-17.090,-18.555,-31.738,-149.414
1689612624.171,-32.227,-18.066,-20.996,-61.035,-148.438
1689612624.175,-28.809,-14.648,-17.090,-47.363,-250.000
1689612624.179,-26.855,-15.137,-13.672,-13.184,-199.219
1689612624.183,-27.344,-26.855,-25.879,-9.766,-31.250
1689612624.187,-29.297,-13.672,-30.762,-38.086,56.152
1689612624.191,-25.879,-1.953,-21.973,-54.199,-8.301
1689612624.195,-17.578,-9.766,-20.996,-35.645,-104.004
1689612624.198,-18.555,-14.648,-21.484,-12.207,-38.086
1689612624.202,-17.578,-17.578,-17.090,-1.465,150.391
1689612624.206,-20.508,-23.438,-22.949,-24.414,-50.293
1689612624.210,-28.809,-26.367,-24.414,-52.734,-271.973
1689612624.214,-35.156,-25.879,-20.020,-53.711,-155.273
1689612624.215,-30.273,-22.461,-18.555,-25.391,-73.730
1689612624.219,-23.926,-21.484,-19.043,-16.113,-100.586
1689612624.223,-22.949,-21.484,-26.855,-39.062,-64.941
1689612624.227,-25.879,-17.578,-23.926,-61.035,-49.316
1689612624.231,-28.809,-12.695,-20.020,-60.547,-57.129
1689612624.235,-29.297,-13.672,-25.391,-31.250,-4.883
1689612624.239,-27.344,-19.043,-27.832,-14.160,15.625
1689612624.242,-29.785,-21.484,-25.391,-16.113,265.625
1689612624.246,-37.598,-21.484,-24.414,-32.227,479.980
1689612624.250,-39.551,-25.879,-24.902,-51.270,37.109
1689612624.254,-34.668,-21.973,-26.855,-30.273,-176.758
1689612624.258,-27.344,-19.531,-25.879,-11.230,-44.434
1689612624.260,-27.832,-27.832,-23.926,-25.879,-90.820
1689612624.264,-32.227,-29.297,-30.273,-60.547,-194.824
1689612624.268,-27.344,-26.367,-31.738,-68.359,-137.207
1689612624.272,-23.438,-26.855,-21.973,-41.992,-49.316
1689612624.276,-20.508,-26.367,-15.137,-17.578,-96.191
1689612624.280,-23.438,-23.926,-13.184,-20.020,-41.504
1689612624.284,-30.762,-25.391,-15.625,-49.316,85.938
1689612624.287,-35.645,-25.391,-17.578,-59.082,324.219
1689612624.291,-35.645,-28.320,-21.484,-40.527,106.934
1689612624.295,-26.855,-31.738,-31.250,-20.020,-200.195
1689612624.299,-26.855,-21.973,-33.691,-28.809,-113.281
1689612624.303,-27.832,-15.625,-30.273,-55.664,-126.465
1689612624.305,-26.855,-19.531,-24.902,-63.965,-226.074
1689612624.309,-29.785,-20.996,-12.695,-42.969,-194.824
1689612624.313,-28.320,-22.949,-19.043,-7.812,-58.105
1689612624.317,-30.762,-27.832,-25.879,-4.395,-9.766
1689612624.321,-32.227,-26.367,-21.484,-34.668,-118.164
1689612624.325,-31.738,-26.367,-25.391,-54.688,-126.953
1689612624.329,-31.250,-28.809,-21.484,-41.504,203.613
1689612624.332,-31.738,-30.762,-23.926,-9.277,323.730
1689612624.336,-27.344,-29.785,-27.832,0.977,-19.043
1689612624.340,-25.879,-26.855,-19.531,-24.414,-142.578
1689612624.344,-32.227,-24.902,-26.855,-47.852,142.578
1689612624.348,-34.180,-20.996,-36.133,-41.016,113.281
1689612624.350,-32.227,-28.320,-32.227,-14.160,-225.098
1689612624.354,-32.715,-31.250,-32.715,4.395,-115.234
1689612624.358,-35.156,-28.809,-30.762,-16.602,-60.547
1689612624.362,-43.945,-30.273,-24.902,-51.270,-184.570
1689612624.366,-42.969,-32.715,-22.949,-48.340,-187.012
1689612624.370,-36.133,-35.156,-28.320,-16.602,26.367
1689612624.374,-28.320,-31.250,-28.320,1.953,230.469
1689612624.377,-19.531,-22.461,-23.438,-13.184,-40.527
1689612624.381,-23.926,-20.508,-25.391,-40.527,-250.488
1689612624.385,-26.855,-19.043,-22.949,-39.062,-61.035
1689612624.389,-20.508,-20.996,-19.043,-11.719,13.184
1689612624.393,-22.949,-23.926,-19.531,-2.930,-164.062
1689612624.396,-31.250,-27.344,-23.438,-20.996,-130.859
1689612624.400,-33.203,-31.250,-26.855,-48.828,23.438
1689612624.404,-33.691,-29.297,-21.484,-53.711,-30.273
1689612624.408,-32.715,-29.297,-23.926,-25.391,-135.254
1689612624.412,-29.297,-25.879,-28.809,-2.930,-85.938
1689612624.416,-31.250,-23.926,-30.762,-13.184,81.055
1689612624.420,-35.156,-29.785,-34.668,-41.992,85.449
1689612624.423,-35.645,-27.832,-32.227,-51.270,-20.508
1689612624.427,-36.133,-26.367,-31.738,-32.227,-72.266
1689612624.431,-27.344,-30.273,-30.762,-1.465,186.035
1689612624.435,-25.879,-30.762,-25.879,-2.930,313.477
1689612624.439,-33.691,-32.715,-26.855,-43.945,-149.414
1689612624.454,-42.969,-35.156,-26.855,-58.594,-191.406
1689612624.458,-32.715,-33.203,-23.926,-24.414,-98.145
1689612624.462,-7.812,-26.367,-28.320,5.859,-113.281
1689612624.466,-17.578,-27.344,-33.203,-20.996,-135.742
1689612624.470,-37.598,-23.438,-35.645,-57.617,-108.398
1689612624.474,-33.203,-19.531,-41.016,-63.477,145.508
1689612624.478,-31.250,-15.137,-43.457,-49.805,42.969
1689612624.481,-28.320,-7.812,-42.969,-19.043,-206.543
1689612624.485,-25.391,-10.742,-46.387,-14.160,-39.551
1689612624.489,-29.785,-7.324,-44.922,-39.551,147.949
1689612624.493,-30.273,-4.395,-41.504,-56.152,-111.328
1689612624.497,-29.785,-8.789,-40.527,-49.316,-217.773
1689612624.500,-24.902,-9.766,-42.969,-25.391,-114.746
1689612624.504,-13.184,-10.742,-41.504,-7.324,-65.918
1689612624.508,-12.695,-13.672,-36.621,-26.855,-97.656
1689612624.512,-15.625,-12.207,-28.809,-49.316,-174.316
1689612624.516,-16.602,-11.230,-30.273,-44.922,-118.652
1689612624.520,-13.672,-19.043,-37.109,-14.648,52.734
1689612624.524,-1.953,-29.785,-28.320,5.859,104.004
1689612624.527,-1.465,-24.902,-24.902,-18.066,-32.715
1689612624.531,-11.719,-19.043,-33.691,-42.480,243.652
1689612624.535,-19.043,-24.902,-41.992,-43.945,296.387
1689612624.539,-19.043,-19.531,-41.992,-21.973,-157.715
1689612624.543,-22.949,-17.090,-40.039,-0.488,-237.793
1689612624.560,-26.855,-24.902,-33.203,-9.766,121.094
1689612624.564,-21.973,-20.996,-28.320,-30.273,160.645
1689612624.568,-17.090,-19.043,-26.367,-31.250,-225.586
1689612624.572,-18.555,-30.273,-29.785,-6.348,-104.492
1689612624.576,-18.555,-32.715,-34.668,9.277,-12.207
1689612624.580,-17.090,-29.297,-31.738,-5.371,-40.039
1689612624.584,-14.648,-30.273,-27.344,-32.227,34.668
1689612624.587,-20.508,-26.367,-29.785,-37.598,99.609
1689612624.591,-28.320,-25.391,-34.668,-18.555,41.992
1689612624.595,-28.809,-25.879,-34.180,-0.977,-64.453
1689612624.599,-27.832,-25.879,-35.645,-11.719,-143.066
1689612624.603,-23.438,-28.809,-34.668,-35.156,-16.113
1689612624.589,-27.344,-27.344,-31.738,-43.457,212.402
1689612624.593,-24.902,-29.785,-34.668,-24.414,-51.758
1689612624.597,-16.602,-33.203,-33.203,9.277,-191.895
1689612624.601,-20.508,-32.715,-28.809,3.906,-87.891
1689612624.605,-22.949,-35.645,-29.297,-28.320,-124.512
1689612624.609,-26.367,-35.645,-33.203,-41.016,-98.145
1689612624.613,-28.809,-31.250,-31.250,-29.785,18.555
1689612624.616,-20.508,-28.320,-25.879,-4.883,124.512
1689612624.620,-12.207,-30.762,-29.785,0.977,45.898
1689612624.624,-14.160,-28.809,-31.738,-28.320,-178.711
1689612624.628,-16.602,-24.414,-30.273,-52.246,-105.957
1689612624.632,-17.090,-24.414,-24.414,-42.969,95.215
1689612624.635,-12.207,-32.227,-25.879,-15.625,15.625
1689612624.639,0.000,-35.156,-24.414,-2.441,-82.031
1689612624.643,-5.371,-26.367,-28.320,-32.715,-126.953
1689612624.647,-18.555,-20.996,-30.762,-49.316,165.527
1689612624.651,-21.484,-28.320,-24.414,-28.320,278.809
1689612624.655,-26.367,-35.645,-29.297,-3.906,-81.543
1689612624.659,-19.531,-28.320,-27.832,19.043,41.016
1689612624.662,-25.391,-26.367,-28.320,-5.371,224.121
1689612624.666,-31.738,-23.926,-34.668,-51.758,-95.703
1689612624.670,-24.414,-20.996,-36.133,-48.828,-268.066
1689612624.674,-25.879,-27.344,-41.992,-15.137,-118.164
1689612624.678,-18.555,-21.973,-33.691,3.906,-80.566
1689612624.681,-19.531,-18.555,-25.391,-12.207,-121.582
1689612624.685,-30.273,-22.461,-30.273,-41.016,-146.484
1689612624.689,-28.809,-26.855,-29.297,-41.504,-46.387
1689612624.693,-26.855,-25.879,-30.762,-17.578,39.551
1689612624.697,-27.344,-24.902,-32.715,-3.906,-55.664
1689612624.701,-31.250,-27.344,-38.086,-26.855,-88.379
1689612624.705,-34.668,-28.320,-40.039,-54.688,220.703
1689612624.708,-33.691,-28.320,-36.133,-50.293,278.809
1689612624.712,-29.785,-25.391,-31.250,-25.391,-106.445
1689612624.716,-24.414,-25.391,-28.320,-6.348,-209.961
1689612624.720,-23.438,-29.297,-30.762,-15.625,44.434
1689612624.724,-28.320,-32.227,-32.715,-46.387,2.441
1689612624.725,-25.391,-26.855,-31.250,-56.152,-275.879
1689612624.729,-20.020,-21.973,-30.762,-29.297,-163.574
1689612624.733,-18.066,-24.902,-35.156,-6.836,-64.941
1689612624.737,-17.578,-30.762,-42.480,-19.531,-101.074
1689612624.741,-20.508,-32.227,-39.551,-45.898,-170.410
1689612624.745,-20.508,-29.297,-32.715,-53.223,-47.363
1689612624.749,-20.020,-26.367,-33.203,-21.484,352.539
1689612624.752,-14.160,-25.879,-33.203,0.000,154.785
1689612624.756,-16.602,-26.855,-32.227,-15.137,-208.984
1689612624.760,-25.879,-23.926,-34.180,-45.410,-112.793
1689612624.764,-28.320,-24.414,-33.691,-58.594,-151.367
1689612624.768,-22.949,-29.297,-33.691,-38.574,-225.098
1689612624.785,-17.090,-28.809,-36.133,-11.230,-125.000
1689612624.789,-23.926,-27.832,-37.598,-7.324,-66.406
1689612624.793,-31.738,-25.391,-33.691,-31.738,-147.461
1689612624.797,-34.180,-25.391,-32.227,-50.293,-182.617
1689612624.801,-25.879,-29.785,-41.016,-32.227,-142.090
1689612624.805,-3.906,-29.297,-31.250,16.113,26.367
1689612624.809,-9.766,-28.320,-20.996,23.926,130.371
1689612624.812,-29.785,-32.715,-23.438,-18.066,12.695
1689612624.816,-35.645,-35.156,-17.578,-41.504,-4.883
1689612624.820,-39.062,-42.480,-16.602,-28.320,45.898
1689612624.824,-36.621,-50.293,-12.207,6.348,-37.598
1689612624.828,-31.738,-50.781,-5.859,21.484,-89.844
1689612624.830,-34.668,-54.199,-6.348,-2.930,-130.859
1689612624.834,-43.945,-53.223,-6.836,-20.996,151.367
1689612624.838,-45.898,-51.758,-6.348,-9.277,310.547
1689612624.842,-40.527,-50.293,-10.254,17.090,-19.043
1689612624.846,-32.227,-45.410,-12.695,34.668,-84.473
1689612624.850,-23.438,-43.945,-8.789,20.508,-25.879
1689612624.854,-29.785,-47.363,-13.184,-13.672,-76.172
1689612624.857,-35.156,-50.293,-14.160,-20.020,-220.703
1689612624.861,-24.902,-48.828,-10.742,13.672,-68.359
1689612624.865,-19.043,-45.410,-13.672,36.133,322.754
1689612624.869,-17.578,-36.621,-13.672,22.461,148.926
1689612624.873,-23.438,-35.645,-15.625,-11.719,-178.223
1689612624.875,-28.809,-44.434,-22.949,-18.555,-148.438
1689612624.879,-20.508,-41.016,-21.484,5.859,-123.535
1689612624.883,-12.695,-36.621,-23.926,16.113,-170.410
1689612624.887,-20.996,-36.133,-28.320,2.930,-167.480
1689612624.891,-29.785,-42.480,-21.973,-27.344,-111.816
1689612624.895,-33.691,-41.016,-20.020,-38.574,-71.777
1689612624.899,-34.180,-32.715,-27.832,-19.043,0.488
1689612624.902,-28.320,-34.180,-26.855,-1.953,61.523
1689612624.906,-26.855,-36.621,-29.785,-7.812,230.469
1689612624.910,-36.621,-34.668,-35.156,-35.645,278.809
1689612624.914,-35.156,-36.621,-23.438,-49.805,-85.938
1689612624.918,-26.855,-33.691,-26.855,-28.809,-153.809
1689612624.919,-20.508,-27.832,-33.691,1.953,-20.020
1689612624.923,-10.742,-27.344,-29.297,2.930,-122.070
1689612624.927,-17.578,-26.367,-26.855,-29.785,-241.699
1689612624.931,-31.738,-27.344,-26.855,-50.293,-166.504
1689612624.935,-25.391,-23.438,-30.273,-31.738,-142.578
1689612624.939,-16.602,-19.043,-29.785,-0.488,-67.871
1689612624.943,-19.531,-23.926,-27.832,-2.441,32.715
1689612624.946,-22.461,-23.926,-23.926,-29.297,41.992
1689612624.950,-21.973,-18.555,-26.367,-37.109,132.812
1689612624.954,-23.926,-23.926,-32.715,-33.691,-64.453
1689612624.958,-23.438,-32.715,-35.156,-15.625,-174.805
1689612624.962,-21.484,-23.926,-32.715,-0.977,-51.270
1689612624.966,-20.996,-24.414,-27.832,-30.762,-67.383
1689612624.970,-21.484,-34.180,-29.297,-61.523,-61.035
1689612624.974,-24.902,-31.738,-31.738,-46.875,-82.520
1689612624.978,-21.484,-30.273,-24.902,-9.766,37.109
1689612624.982,-19.043,-23.926,-21.484,4.395,57.617
1689612624.986,-21.484,-23.926,-26.367,-19.043,-107.422
1689612624.990,-24.902,-27.344,-33.691,-45.898,-110.840
1689612624.993,-26.367,-24.414,-37.109,-34.668,244.141
1689612624.997,-23.926,-27.344,-35.156,-4.883,469.238
1689612625.001,-19.531,-31.738,-31.738,0.488,15.137
1689612625.005,-15.625,-29.785,-30.762,-17.578,-173.340
1689612625.009,-17.090,-24.414,-29.785,-48.340,-158.691
1689612625.010,-21.973,-21.484,-31.738,-49.805,-217.285
1689612625.014,-17.090,-23.926,-28.320,-16.113,-206.055
1689612625.018,-16.113,-26.855,-23.438,1.953,-77.637
1689612625.022,-18.555,-31.250,-27.344,-18.066,-24.902
1689612625.026,-24.414,-33.203,-32.227,-50.781,-156.738
1689612625.030,-31.738,-29.297,-35.645,-58.594,-112.305
1689612625.034,-34.180,-32.715,-34.180,-36.133,118.164
1689612625.037,-36.621,-34.668,-33.203,-12.207,422.363
1689612625.041,-31.738,-30.273,-37.598,-24.414,149.902
1689612625.045,-25.391,-26.367,-31.738,-48.828,-249.512
1689612625.049,-29.297,-31.738,-31.738,-53.223,-188.965
1689612625.053,-37.109,-36.621,-38.574,-41.016,-192.383
1689612625.055,-33.691,-37.109,-36.621,-21.973,-151.367
1689612625.059,-27.832,-30.273,-37.598,-31.738,-114.258
1689612625.063,-27.344,-23.926,-33.203,-57.129,-119.141
1689612625.067,-28.809,-20.508,-20.508,-52.246,-106.445
1689612625.071,-24.902,-18.555,-20.996,-27.832,-126.465
1689612625.075,-20.020,-19.531,-22.949,-6.348,-88.379
1689612625.079,-23.438,-24.414,-18.066,-7.324,243.652
1689612625.082,-34.668,-29.785,-19.531,-42.969,277.832
1689612625.086,-41.992,-28.809,-25.879,-60.059,-85.449
1689612625.090,-36.621,-19.043,-23.438,-30.762,-147.949
1689612625.094,-26.855,-16.113,-20.020,6.836,146.484
1689612625.098,-17.578,-16.113,-22.461,13.184,250.977
1689612625.100,-23.926,-22.461,-26.367,-21.973,-151.855
1689612625.104,-24.902,-28.809,-29.297,-40.527,-192.383
1689612625.108,-18.555,-21.484,-30.273,-24.414,-106.445
1689612625.112,-11.719,-15.137,-30.762,5.371,-114.746
1689612625.116,-11.719,-19.043,-29.297,4.883,-177.734
1689612625.120,-18.066,-22.949,-26.855,-23.926,-59.082
1689612625.124,-19.043,-25.391,-26.855,-37.109,146.973
1689612625.127,-23.926,-28.320,-33.203,-32.227,-40.039
1689612625.131,-20.996,-22.461,-32.227,-5.859,-180.176
1689612625.135,-14.648,-19.043,-24.414,4.883,48.340
1689612625.139,-21.484,-20.508,-29.785,-17.578,139.160
1689612625.143,-32.227,-25.391,-33.203,-49.805,-161.133
1689612625.160,-35.645,-28.809,-28.809,-44.922,-208.984
1689612625.164,-30.762,-27.832,-26.367,-8.301,-105.957
1689612625.168,-26.367,-28.320,-23.926,2.441,-102.051
1689612625.172,-24.902,-24.902,-25.879,-17.578,-96.191
1689612625.176,-27.832,-26.367,-27.832,-39.551,-97.168
1689612625.180,-27.832,-28.809,-26.367,-36.621,-38.086
1689612625.184,-25.879,-27.344,-34.668,-12.207,-12.207
1689612625.187,-25.391,-28.809,-30.762,-0.488,-11.719
1689612625.191,-22.461,-29.297,-20.020,-15.137,-102.539
1689612625.195,-29.297,-29.297,-26.367,-35.156,167.480
1689612625.199,-34.180,-24.414,-25.391,-34.668,337.891
1689612625.203,-30.762,-22.461,-24.902,-18.066,-29.297
1689612625.205,-27.832,-26.367,-28.809,-10.254,-50.781
1689612625.209,-21.484,-24.414,-29.785,-23.438,23.926
1689612625.213,-25.879,-23.438,-25.879,-52.734,-103.516
1689612625.217,-30.762,-23.438,-27.832,-63.477,-246.582
1689612625.221,-23.438,-25.391,-32.227,-36.621,-128.906
1689612625.225,-20.508,-28.320,-31.250,-15.137,113.281
1689612625.229,-23.438,-25.391,-32.227,-32.227,54.688
1689612625.232,-35.156,-23.926,-32.227,-62.988,-174.316
1689612625.236,-47.363,-22.949,-31.738,-73.730,-96.191
1689612625.240,-47.363,-24.902,-33.691,-49.316,186.523
1689612625.244,-41.992,-22.949,-34.668,-22.949,37.598
1689612625.248,-37.598,-17.578,-32.227,-28.809,-109.863
1689612625.251,-34.668,-20.508,-33.691,-56.152,-80.078
1689612625.255,-34.180,-20.020,-34.180,-68.359,-102.051
1689612625.259,-32.715,-15.137,-33.691,-47.852,-121.094
1689612625.263,-27.832,-17.578,-33.203,-14.160,-115.723
1689612625.267,-21.973,-26.855,-34.180,-10.742,43.457
1689612625.271,-24.902,-30.273,-37.598,-43.945,84.473
1689612625.275,-24.414,-25.391,-37.109,-58.594,-59.570
1689612625.278,-21.484,-26.367,-33.203,-37.109,-81.055
1689612625.282,-22.461,-33.203,-25.879,-1.465,219.238
1689612625.286,-22.461,-30.762,-18.555,4.395,327.148
1689612625.290,-26.367,-30.762,-25.879,-29.785,-105.469
1689612625.294,-29.785,-32.227,-31.250,-51.758,-236.328
1689612625.295,-30.273,-28.320,-24.414,-41.016,-70.312
1689612625.299,-33.203,-23.926,-21.973,-17.090,-55.664
1689612625.303,-23.926,-21.484,-22.949,-2.441,-132.324
1689612625.307,-25.879,-24.414,-32.227,-25.391,-69.824
1689612625.311,-34.668,-25.391,-35.645,-53.223,9.277
1689612625.315,-33.203,-28.809,-30.762,-48.340,-78.613
1689612625.319,-34.668,-33.691,-29.785,-24.414,-114.258
1689612625.322,-36.621,-32.227,-27.832,-12.695,-3.418
1689612625.326,-37.598,-26.855,-27.344,-23.438,335.449
1689612625.330,-39.062,-23.926,-25.879,-44.922,182.617
1689612625.334,-40.527,-26.855,-26.367,-51.758,-151.855
1689612625.338,-43.457,-26.367,-32.715,-24.414,-60.547
1689612625.340,-41.992,-23.438,-31.738,-9.766,-45.410
1689612625.344,-42.969,-25.879,-28.809,-30.762,-143.555
1689612625.348,-50.293,-29.297,-30.273,-54.688,-179.688
1689612625.352,-52.246,-30.273,-28.809,-55.664,-125.488
1689612625.356,-50.293,-26.367,-21.973,-20.996,-104.980
1689612625.360,-45.410,-22.461,-17.090,0.977,-5.371
1689612625.364,-38.086,-24.414,-19.043,-17.090,10.254
1689612625.367,-31.250,-20.508,-19.043,-41.016,229.980
1689612625.371,-35.645,-20.508,-22.461,-47.363,418.457
1689612625.375,-29.297,-21.973,-29.785,-28.809,1.953
1689612625.379,-15.137,-21.973,-29.785,-9.766,-166.992
1689612625.383,-15.137,-19.043,-27.832,-12.207,-79.590
1689612625.385,-24.902,-20.508,-31.738,-43.945,-101.074
1689612625.389,-33.203,-27.832,-30.762,-51.758,-217.285
1689612625.393,-33.691,-29.785,-27.832,-22.461,-179.688
1689612625.397,-33.203,-30.762,-28.320,-8.789,-43.457
1689612625.401,-34.180,-32.227,-32.715,-20.020,-96.191
1689612625.405,-36.621,-30.762,-32.715,-48.340,-86.426
1689612625.409,-41.504,-30.273,-30.273,-56.152,116.699
1689612625.412,-44.434,-33.203,-32.715,-39.062,99.121
1689612625.416,-39.551,-27.832,-35.156,-17.090,-109.863
1689612625.420,-30.273,-26.367,-31.738,-9.277,-100.098
1689612625.424,-26.855,-26.855,-22.461,-26.855,63.477
1689612625.428,-34.668,-19.531,-16.113,-42.480,115.234
1689612625.430,-40.527,-22.461,-17.090,-32.715,-113.281
1689612625.434,-35.645,-24.902,-24.902,-3.906,-202.637
1689612625.438,-33.203,-26.367,-31.250,4.395,45.898
1689612625.442,-34.180,-22.949,-27.344,-20.508,131.348
1689612625.446,-33.203,-20.996,-20.508,-42.480,-123.535
1689612625.450,-36.133,-23.438,-22.949,-33.203,-108.398
1689612625.454,-37.109,-26.367,-24.902,-5.859,185.547
1689612625.457,-37.109,-30.273,-23.438,5.859,240.723
1689612625.461,-33.691,-34.180,-24.902,-21.973,-136.230
1689612625.465,-31.250,-29.297,-28.320,-49.805,-261.230
1689612625.469,-34.180,-27.344,-30.273,-45.410,-70.312
1689612625.473,-27.344,-28.320,-30.762,-18.555,17.578
1689612625.476,-18.555,-24.414,-30.762,-8.301,-88.867
1689612625.480,-20.508,-21.484,-30.762,-32.715,-159.668
1689612625.484,-28.809,-21.484,-26.367,-51.270,-81.543
1689612625.488,-35.156,-21.973,-26.855,-51.758,-107.910
1689612625.492,-33.691,-19.043,-25.879,-30.762,-188.965
1689612625.496,-34.668,-21.973,-24.414,-10.742,17.090
1689612625.500,-36.133,-27.344,-24.902,-22.949,262.695
1689612625.503,-41.016,-26.855,-27.832,-57.617,6.836
1689612625.507,-44.922,-32.715,-32.227,-62.500,-201.172
1689612625.511,-39.551,-37.598,-36.621,-25.391,-19.531
1689612625.515,-31.738,-27.832,-35.645,2.930,48.828
1689612625.519,-32.227,-21.484,-34.180,-9.277,-97.656
1689612625.535,-36.133,-25.879,-32.715,-40.527,-172.363
1689612625.539,-40.527,-34.668,-30.762,-55.176,-97.168
1689612625.543,-45.410,-34.668,-35.156,-42.969,-7.324
1689612625.547,-34.180,-24.414,-33.691,-18.555,-25.391
1689612625.551,-29.297,-22.461,-28.320,-24.902,-114.746
1689612625.555,-35.645,-20.996,-31.250,-51.758,136.230
1689612625.559,-35.645,-10.742,-28.320,-49.316,254.395
1689612625.562,-30.762,-11.719,-23.926,-22.949,-37.109
1689612625.566,-22.949,-25.391,-26.855,4.395,-91.797
1689612625.570,-22.949,-27.832,-31.738,1.465,169.922
1689612625.574,-26.367,-21.973,-30.762,-31.738,188.965
1689612625.578,-30.273,-22.461,-27.344,-50.293,-183.105
1689612625.580,-33.691,-20.508,-26.367,-33.691,-179.199
1689612625.584,-33.691,-22.461,-23.438,-0.977,-80.566
1689612625.588,-26.367,-18.555,-26.855,0.000,-93.750
1689612625.592,-24.414,-14.648,-27.344,-31.738,-177.734
1689612625.596,-36.133,-25.391,-31.250,-48.340,-35.156
1689612625.600,-36.621,-25.879,-26.855,-29.297,140.625
1689612625.604,-29.785,-25.391,-22.461,-1.953,25.391
1689612625.607,-22.461,-26.367,-21.484,3.906,-63.477
1689612625.611,-23.438,-21.973,-17.090,-19.531,-2.441
1689612625.615,-24.414,-22.461,-23.926,-36.621,205.566
1689612625.619,-30.273,-25.879,-29.785,-33.691,12.207
1689612625.623,-38.086,-25.391,-31.738,-19.531,-162.598
1689612625.625,-29.785,-23.926,-26.855,-11.719,-45.898
1689612625.629,-24.902,-22.461,-21.484,-32.227,-3.418
1689612625.633,-29.785,-18.555,-27.832,-58.594,-159.180
1689612625.637,-30.762,-12.695,-21.973,-50.293,-189.941
1689612625.641,-26.367,-14.648,-18.066,-22.949,-67.871
1689612625.645,-23.926,-19.043,-25.879,-12.695,41.504
1689612625.649,-19.531,-16.113,-26.367,-32.227,49.805
1689612625.652,-18.066,-10.254,-20.996,-55.176,-58.594
1689612625.656,-24.414,-8.789,-17.578,-47.852,132.324
1689612625.660,-24.902,-10.254,-23.438,-19.531,443.848
1689612625.664,-21.484,-4.883,-30.273,-15.625,108.398
1689612625.668,-22.461,-6.836,-28.809,-35.156,-208.008
1689612625.670,-24.902,-14.648,-29.297,-62.012,-174.805
1689612625.674,-31.250,-15.625,-24.414,-72.266,-200.195
1689612625.678,-37.109,-23.438,-21.484,-42.480,-217.773
1689612625.682,-30.762,-23.926,-22.461,-18.066,-125.977
1689612625.686,-30.273,-13.184,-20.020,-33.203,-76.660
1689612625.690,-37.109,-17.578,-24.902,-66.406,-89.355
1689612625.694,-38.086,-19.531,-30.273,-71.289,-117.188
1689612625.697,-34.180,-17.090,-31.738,-40.527,-14.160
1689612625.701,-25.391,-23.438,-25.879,-13.184,237.305
1689612625.705,-26.855,-23.926,-22.949,-28.320,130.371
1689612625.709,-32.715,-18.555,-24.902,-56.641,-108.398
1689612625.713,-31.738,-20.020,-26.367,-59.082,-47.852
1689612625.714,-24.414,-16.602,-24.414,-28.809,0.000
1689612625.718,-28.809,-24.414,-27.344,-10.742,-145.020
1689612625.722,-26.367,-27.344,-27.832,-14.160,-118.652
1689612625.726,-22.949,-22.949,-24.414,-37.598,-69.824
1689612625.730,-31.250,-24.902,-25.391,-59.082,-91.309
1689612625.734,-31.250,-23.926,-26.855,-43.945,-57.129
1689612625.738,-30.273,-21.973,-26.855,-16.113,-47.852
1689612625.741,-18.066,-18.066,-31.738,-5.371,223.145
1689612625.745,-3.906,-22.461,-24.902,-15.625,294.434
1689612625.749,-20.020,-30.273,-15.625,-42.969,-207.031
1689612625.753,-38.086,-27.832,-20.508,-42.969,-259.277
1689612625.757,-39.062,-28.320,-16.113,-17.578,-27.344
1689612625.760,-43.945,-26.855,-10.254,-20.996,-23.438
1689612625.764,-45.898,-24.902,-10.742,-46.875,-152.344
1689612625.768,-45.410,-27.832,-11.719,-68.848,-163.574
1689612625.772,-53.711,-33.203,-18.066,-60.547,122.559
1689612625.776,-51.758,-35.645,-17.578,-25.879,146.973
1689612625.780,-38.574,-32.227,-13.672,-11.230,-97.168
1689612625.784,-38.574,-31.250,-17.090,-29.297,46.875
1689612625.787,-45.410,-28.809,-19.043,-50.293,209.961
1689612625.791,-43.457,-22.949,-19.531,-45.898,-52.734
1689612625.795,-34.668,-25.391,-20.020,-20.020,-254.883
1689612625.799,-29.785,-35.645,-15.137,-5.371,-88.867
1689612625.803,-34.668,-37.109,-11.719,-27.344,-72.266
1689612625.806,-39.062,-31.738,-18.066,-55.176,-202.637
1689612625.810,-41.992,-28.320,-22.949,-50.293,-164.551
1689612625.814,-42.969,-28.809,-23.926,-22.949,-32.227
1689612625.818,-41.016,-38.574,-27.832,-15.137,35.645
1689612625.822,-36.133,-39.551,-25.391,-27.832,-61.035
1689612625.826,-34.180,-33.691,-20.508,-46.875,-108.887
1689612625.830,-36.621,-36.621,-19.043,-43.945,190.918
1689612625.833,-29.297,-33.203,-16.113,-9.766,475.098
1689612625.837,-23.438,-26.855,-15.137,2.441,107.910
1689612625.841,-26.855,-25.391,-14.648,-12.695,-200.195
1689612625.845,-33.203,-24.414,-18.066,-37.109,-104.004
1689612625.849,-34.668,-20.508,-22.461,-41.992,-83.984
1689612625.850,-27.832,-20.996,-15.625,-18.555,-169.434
1689612625.854,-21.484,-26.855,-12.207,-1.465,-150.391
1689612625.858,-27.344,-25.879,-15.625,-13.184,-76.660
1689612625.862,-37.109,-15.137,-13.672,-39.551,-112.305
1689612625.866,-35.645,-12.207,-16.113,-44.922,-156.738
1689612625.870,-31.738,-17.578,-19.043,-22.461,6.348
1689612625.874,-29.785,-21.484,-20.508,2.930,281.250
1689612625.877,-28.809,-19.531,-19.043,-9.277,99.121
1689612625.881,-39.551,-20.996,-18.555,-43.945,-155.762
1689612625.885,-44.434,-21.973,-18.066,-50.781,-3.418
1689612625.889,-38.574,-14.160,-17.090,-31.738,88.867
1689612625.893,-37.598,-20.996,-23.926,-11.230,-90.820
1689612625.910,-36.133,-32.227,-33.203,-13.184,-122.559
1689612625.914,-34.668,-28.809,-31.250,-41.992,-81.055
1689612625.918,-39.062,-20.020,-21.484,-57.617,-117.676
1689612625.922,-44.922,-16.113,-22.949,-43.457,-189.941
1689612625.926,-41.016,-19.043,-23.926,-14.160,-137.207
1689612625.930,-37.109,-22.949,-26.855,-9.766,101.562
1689612625.934,-39.551,-21.973,-34.180,-42.480,97.168
1689612625.937,-41.992,-19.531,-28.320,-64.941,-65.918
1689612625.941,-38.574,-19.531,-22.949,-57.129,-53.223
1689612625.945,-30.762,-18.555,-23.926,-28.320,166.016
1689612625.949,-25.391,-15.137,-22.461,-9.277,358.398
1689612625.953,-28.809,-14.160,-20.020,-30.273,12.695
1689612625.955,-31.738,-13.672,-20.020,-60.059,-210.449
1689612625.959,-34.180,-16.602,-19.531,-52.734,-104.980
1689612625.963,-38.086,-25.391,-20.508,-16.113,-103.516
1689612625.967,-35.156,-21.484,-22.461,-6.348,-154.297
1689612625.971,-37.109,-21.484,-18.066,-32.715,-98.633
1689612625.975,-40.039,-27.344,-14.648,-55.176,11.719
1689612625.979,-31.738,-24.902,-15.625,-51.758,-23.926
1689612625.982,-31.250,-17.090,-21.484,-24.902,-132.812
1689612625.986,-34.180,-14.648,-23.438,-5.859,-17.578
1689612625.990,-35.156,-22.949,-23.926,-26.855,242.188
1689612625.994,-41.504,-25.391,-27.344,-61.523,55.664
1689612625.998,-43.945,-19.043,-23.438,-62.500,-210.449
1689612626.001,-36.621,-17.578,-19.043,-33.691,-78.613
1689612626.005,-37.598,-22.461,-22.949,-19.043,27.832
1689612626.009,-42.480,-28.320,-23.438,-33.691,-132.812
1689612626.013,-51.270,-32.715,-21.484,-59.570,-200.195
1689612626.017,-54.688,-33.203,-25.879,-66.406,-154.785
1689612626.021,-36.621,-32.715,-26.367,-38.086,-81.055
1689612626.025,-22.949,-27.344,-19.043,-7.324,40.527
1689612626.028,-24.414,-21.484,-13.672,-16.113,29.297
1689612626.032,-30.762,-20.996,-20.996,-43.945,167.969
1689612626.036,-35.645,-22.949,-22.461,-53.223,372.559
1689612626.040,-37.598,-23.926,-24.902,-44.434,-19.531
1689612626.044,-33.203,-23.438,-30.762,-18.066,-184.570
1689612626.045,-28.809,-20.508,-23.438,-8.789,-52.734
1689612626.049,-30.762,-22.949,-19.531,-36.621,-127.930
1689612626.053,-39.551,-25.391,-23.926,-62.988,-227.539
1689612626.057,-46.875,-24.414,-22.949,-44.434,-150.879
1689612626.061,-41.504,-28.809,-21.484,-15.137,-10.742
1689612626.065,-35.645,-34.668,-25.879,-20.020,-16.602
1689612626.069,-40.527,-30.762,-27.344,-52.246,-102.051
1689612626.072,-47.363,-27.344,-23.926,-68.359,-111.816
1689612626.076,-49.805,-31.250,-22.949,-44.434,217.773
1689612626.080,-44.434,-27.344,-24.902,-17.090,110.352
1689612626.084,-41.016,-26.855,-28.320,-18.555,-207.031
1689612626.088,-40.039,-26.367,-30.273,-42.480,-131.348
1689612626.090,-41.504,-23.926,-27.832,-63.965,-140.625
1689612626.094,-50.293,-26.367,-26.367,-60.547,-230.469
1689612626.098,-53.711,-26.367,-30.273,-40.039,-181.152
1689612626.102,-46.875,-22.949,-31.738,-23.438,23.438
1689612626.106,-48.340,-23.926,-29.297,-36.621,21.973
1689612626.110,-52.734,-24.414,-26.367,-65.918,-103.516
1689612626.114,-47.363,-18.555,-25.391,-61.035,-117.676
1689612626.117,-41.016,-14.648,-23.438,-21.973,157.715
1689612626.121,-35.156,-17.090,-25.391,-6.348,409.180
1689612626.125,-36.133,-20.020,-28.320,-35.156,44.434
1689612626.129,-37.598,-20.996,-28.809,-68.848,-122.070
1689612626.133,-34.180,-18.555,-23.926,-66.406,-38.574
1689612626.135,-35.645,-18.066,-19.531,-33.691,-76.172
1689612626.139,-37.109,-21.973,-20.996,-18.555,-126.953
1689612626.143,-35.156,-22.949,-25.391,-30.273,-77.148
1689612626.147,-39.062,-23.926,-25.391,-54.688,-36.621
1689612626.151,-45.898,-21.973,-21.484,-59.082,-97.168
1689612626.155,-39.062,-22.461,-25.391,-32.227,-61.523
1689612626.159,-33.691,-25.879,-29.785,-15.137,137.695
1689612626.162,-34.668,-23.926,-26.367,-23.438,512.207
1689612626.166,-34.180,-25.879,-21.484,-58.105,211.914
1689612626.170,-34.668,-25.879,-24.902,-76.660,-254.883
1689612626.174,-29.785,-27.344,-26.367,-47.363,-89.844
1689612626.178,-25.879,-27.832,-26.367,-22.949,42.480
1689612626.180,-37.109,-30.762,-29.297,-30.762,-75.195
1689612626.184,-35.156,-39.062,-23.926,-38.086,-146.484
1689612626.188,-32.227,-29.785,-24.902,-51.270,-146.973
1689612626.192,-44.922,-17.090,-32.227,-52.734,-98.145
1689612626.196,-45.410,-14.648,-30.762,-23.926,-70.801
1689612626.200,-54.199,-17.090,-38.574,-34.180,-43.945
1689612626.204,-51.758,-21.973,-46.875,-62.500,302.734
1689612626.207,-42.969,-16.113,-44.922,-71.289,344.727
1689612626.211,-43.457,-14.648,-45.898,-59.082,-0.488
1689612626.215,-40.039,-17.090,-41.016,-31.738,-75.195
1689612626.219,-38.574,-14.160,-34.180,-29.785,94.727
1689612626.223,-34.668,-13.672,-30.762,-50.781,91.797
1689612626.225,-36.621,-17.090,-29.297,-66.406,-260.742
1689612626.229,-44.922,-20.508,-28.809,-53.711,-239.746
1689612626.233,-32.715,-16.602,-29.297,-16.602,-115.234
1689612626.237,-27.832,-16.113,-34.180,-12.207,-108.398
1689612626.241,-34.668,-19.043,-32.227,-41.016,-140.137
1689612626.245,-34.180,-19.531,-31.250,-53.711,16.602
1689612626.249,-41.992,-24.414,-36.133,-45.898,206.055
1689612626.252,-42.480,-24.414,-29.297,-24.902,-15.625
1689612626.256,-40.527,-20.996,-28.809,-18.555,-149.902
1689612626.260,-45.898,-25.879,-27.344,-34.668,-27.344
1689612626.264,-43.945,-24.902,-24.902,-50.781,14.648
1689612626.268,-43.945,-22.461,-27.832,-45.410,-141.602
1689612626.285,-43.457,-21.484,-27.344,-20.020,-198.730
1689612626.289,-40.039,-21.484,-27.344,-14.160,29.785
1689612626.293,-35.645,-25.391,-23.438,-34.668,29.785
1689612626.297,-36.133,-20.996,-19.531,-58.594,-213.379
1689612626.301,-35.156,-18.066,-20.020,-54.688,-174.805
1689612626.305,-31.738,-19.043,-20.020,-28.320,38.574
1689612626.309,-29.297,-23.438,-24.414,-14.160,93.262
1689612626.312,-30.273,-24.414,-26.855,-28.320,-13.184
1689612626.316,-30.273,-20.020,-23.438,-58.105,-126.465
1689612626.320,-25.879,-22.461,-25.391,-55.664,102.051
1689612626.324,-27.344,-19.531,-25.391,-25.391,257.324
1689612626.328,-28.809,-18.555,-21.484,-12.207,-94.727
1689612626.330,-24.902,-25.391,-22.949,-29.785,-143.066
1689612626.334,-28.809,-22.461,-25.391,-56.152,-45.410
1689612626.338,-38.086,-27.344,-24.414,-62.500,-96.680
1689612626.342,-37.109,-29.297,-22.949,-38.574,-202.148
1689612626.346,-32.715,-26.855,-20.996,-18.066,-68.359
1689612626.350,-32.715,-24.414,-20.020,-27.344,110.840
1689612626.354,-35.156,-24.902,-24.414,-43.457,-23.926
1689612626.357,-39.062,-26.367,-35.645,-56.152,-205.566
1689612626.361,-29.785,-20.996,-32.715,-31.738,-59.570
1689612626.365,-28.809,-18.066,-23.926,2.930,240.723
1689612626.369,-32.227,-19.531,-20.996,-8.789,20.508
1689612626.373,-29.785,-23.438,-19.531,-40.527,-200.195
1689612626.375,-40.039,-25.879,-21.973,-48.340,-142.090
1689612626.379,-44.922,-22.461,-20.508,-30.273,-131.348
1689612626.383,-30.273,-16.602,-13.672,3.418,-115.723
1689612626.387,-26.367,-17.090,-17.578,5.859,-28.809
1689612626.391,-32.227,-17.090,-24.414,-26.367,59.570
1689612626.395,-31.738,-18.066,-21.973,-43.945,84.961
1689612626.399,-33.203,-18.555,-25.879,-35.156,-5.371
1689612626.402,-24.414,-17.090,-25.879,-4.883,-23.438
1689612626.406,-20.996,-20.996,-21.484,0.488,190.918
1689612626.410,-33.691,-20.508,-21.484,-20.996,379.883
1689612626.414,-40.039,-20.020,-20.508,-38.086,53.711
1689612626.418,-40.527,-27.832,-20.508,-29.785,-212.891
1689612626.420,-40.527,-31.250,-21.973,-6.836,-165.039
1689612626.424,-33.691,-24.902,-21.484,-0.977,-155.762
1689612626.428,-28.809,-17.090,-19.043,-25.879,-187.500
1689612626.432,-33.691,-18.066,-19.043,-53.223,-154.297
1689612626.436,-34.668,-17.578,-20.020,-48.340,-85.449
1689612626.440,-21.484,-10.254,-17.090,-25.391,-63.477
1689612626.444,-15.625,-7.812,-10.742,-10.742,-11.230
1689612626.447,-24.902,-13.672,-9.766,-32.715,94.238
1689612626.451,-26.367,-10.254,-13.672,-51.758,349.609
1689612626.455,-23.438,-7.324,-14.160,-44.922,213.867
1689612626.459,-24.902,-17.578,-19.043,-27.344,-150.391
1689612626.463,-25.879,-22.461,-19.043,-13.672,-122.559
1689612626.464,-30.273,-23.438,-20.508,-35.645,-115.723
1689612626.468,-39.551,-22.461,-23.926,-71.289,-229.980
1689612626.472,-40.527,-19.043,-23.438,-69.824,-225.586
1689612626.476,-36.621,-19.043,-25.391,-40.039,-111.328
1689612626.480,-35.645,-19.043,-25.391,-16.113,-34.668
1689612626.484,-26.367,-22.949,-16.113,-14.648,14.648
1689612626.488,-21.484,-17.578,-15.137,-42.480,-17.090
1689612626.491,-41.016,-12.695,-23.926,-70.801,161.621
1689612626.495,-46.387,-7.812,-22.949,-49.805,396.484
1689612626.499,-37.598,-2.930,-24.902,-29.785,27.832
1689612626.503,-36.133,-3.418,-35.645,-49.805,-198.242
1689612626.507,-32.227,-2.930,-36.133,-71.289,-80.078
1689612626.509,-32.227,-7.812,-33.691,-74.707,-114.746
1689612626.513,-37.598,-9.277,-33.203,-54.199,-232.422
1689612626.517,-33.691,-10.254,-33.691,-27.832,-187.988
1689612626.521,-30.762,-3.906,-34.180,-34.668,-86.426
1689612626.525,-35.156,0.977,-26.855,-63.477,-117.676
1689612626.529,-33.203,-6.348,-24.902,-75.684,-181.152
1689612626.533,-27.344,-12.207,-32.227,-61.035,-18.555
1689612626.536,-24.414,-12.695,-31.250,-32.227,209.473
1689612626.540,-27.344,-7.324,-25.391,-31.738,39.551
1689612626.544,-26.367,-7.324,-24.414,-58.105,-144.531
1689612626.548,-24.902,-10.254,-26.367,-65.430,-94.238
1689612626.552,-22.461,-14.160,-28.809,-46.387,-57.617
1689612626.554,-24.902,-14.648,-23.438,-20.996,-109.863
1689612626.558,-29.297,-19.531,-18.555,-20.020,-92.773
1689612626.562,-34.180,-21.484,-26.367,-46.875,-3.906
1689612626.566,-40.039,-18.066,-36.133,-73.242,-55.664
1689612626.570,-36.133,-20.508,-33.203,-65.430,-142.090
1689612626.574,-34.668,-20.020,-27.344,-33.203,-52.246
1689612626.578,-36.621,-22.461,-21.973,-21.484,285.645
1689612626.581,-33.691,-23.926,-24.414,-40.527,371.094
1689612626.585,-33.691,-19.531,-24.414,-66.406,-57.617
1689612626.589,-39.551,-20.996,-20.508,-59.570,-189.941
1689612626.593,-39.551,-21.973,-23.438,-26.855,0.977
1689612626.597,-35.645,-20.996,-26.855,-20.508,7.324
1689612626.601,-44.434,-25.391,-37.109,-47.363,-150.879
1689612626.605,-46.387,-28.320,-36.621,-71.289,-97.656
1689612626.609,-46.387,-26.855,-23.438,-60.547,2.930
1689612626.613,-46.387,-26.367,-23.438,-31.738,-38.086
1689612626.617,-36.621,-28.320,-22.949,-12.207,-112.793
1689612626.621,-33.691,-29.297,-20.996,-25.391,63.965
1689612626.625,-43.945,-26.855,-29.297,-57.129,271.484
1689612626.628,-45.898,-24.902,-31.738,-62.988,-4.395
1689612626.632,-40.039,-28.809,-23.926,-37.598,-237.793
1689612626.636,-40.527,-29.785,-23.926,-20.996,-45.410
1689612626.640,-39.551,-26.855,-25.879,-38.574,43.457
1689612626.644,-32.715,-26.367,-27.832,-71.289,-184.082
1689612626.660,-35.645,-23.438,-28.320,-76.660,-210.938
1689612626.664,-39.551,-20.996,-29.785,-57.129,-65.430
1689612626.668,-38.574,-21.484,-30.762,-31.250,-43.945
1689612626.672,-39.551,-28.320,-34.180,-38.574,-56.641
1689612626.676,-41.016,-24.902,-32.715,-66.406,-36.621
1689612626.680,-41.504,-16.113,-24.902,-74.219,197.266
1689612626.684,-30.762,-18.555,-28.809,-55.664,308.105
1689612626.687,-20.996,-22.949,-23.926,-22.949,37.598
1689612626.691,-39.062,-23.438,-17.090,-24.414,-115.723
1689612626.695,-56.641,-26.855,-21.973,-59.082,58.105
1689612626.699,-60.059,-27.344,-13.672,-73.242,91.797
1689612626.703,-53.711,-27.344,-15.625,-57.129,-207.031
1689612626.705,-47.363,-28.320,-17.090,-21.484,-147.949
1689612626.709,-48.828,-27.344,-14.648,-11.719,-49.316
1689612626.713,-43.945,-26.367,-13.184,-35.645,-116.699
1689612626.717,-44.434,-26.367,-17.090,-61.035,-244.141
1689612626.721,-43.945,-26.367,-24.902,-44.922,-130.859
1689612626.725,-38.574,-26.367,-20.508,-14.648,52.246
1689612626.729,-35.156,-25.391,-18.555,-12.207,-66.406
1689612626.732,-37.109,-24.902,-17.578,-30.762,-150.879
1689612626.736,-42.480,-26.367,-18.066,-52.246,-48.828
1689612626.740,-36.133,-25.391,-20.508,-36.621,251.465
1689612626.744,-33.691,-23.438,-19.043,-1.953,128.906
1689612626.748,-33.691,-23.438,-22.461,-2.441,-146.484
1689612626.750,-33.203,-28.809,-23.438,-33.691,-55.176
1689612626.754,-35.156,-28.809,-18.555,-46.875,-81.543
1689612626.758,-30.762,-21.973,-19.043,-33.203,-176.270
1689612626.762,-27.832,-20.508,-25.879,-12.207,-110.840
1689612626.766,-23.926,-20.996,-30.273,-4.395,-42.969
1689612626.770,-26.855,-22.461,-29.785,-21.484,12.695
1689612626.774,-36.133,-21.484,-27.344,-46.875,-46.387
1689612626.777,-38.574,-23.438,-21.973,-50.293,-122.070
1689612626.781,-37.598,-29.297,-20.996,-18.555,292.969
1689612626.785,-39.062,-28.809,-18.066,0.977,466.797
1689612626.789,-40.039,-29.297,-20.996,-23.926,-44.922
1689612626.793,-41.016,-31.738,-22.461,-55.176,-249.512
1689612626.795,-49.316,-32.227,-20.996,-55.176,98.145
1689612626.799,-47.852,-25.391,-20.020,-21.973,171.387
1689612626.803,-33.691,-21.973,-11.230,0.000,-125.000
1689612626.807,-32.715,-23.926,-13.184,-16.113,-94.238
1689612626.811,-41.016,-24.902,-21.484,-52.734,-90.332
1689612626.815,-47.363,-28.809,-26.855,-60.547,-101.074
1689612626.819,-40.527,-29.297,-32.715,-35.645,-73.242
1689612626.822,-38.086,-32.715,-32.227,-13.184,17.578
1689612626.826,-38.574,-31.250,-30.762,-20.996,212.891
1689612626.830,-39.062,-30.273,-34.668,-51.758,15.137
1689612626.834,-40.039,-26.855,-32.715,-64.453,-246.094
1689612626.838,-32.227,-21.973,-26.855,-37.109,4.883
1689612626.841,-30.273,-26.367,-28.320,-14.160,71.777
1689612626.845,-31.250,-32.715,-26.855,-27.344,-152.832
1689612626.849,-38.574,-32.715,-30.762,-57.129,-149.414
1689612626.853,-42.969,-31.250,-36.133,-73.242,-106.934
1689612626.857,-43.945,-28.320,-33.203,-55.664,-144.043
1689612626.861,-39.062,-24.414,-31.738,-28.809,-71.777
1689612626.865,-35.156,-21.484,-30.273,-28.320,-31.250
1689612626.868,-41.992,-21.484,-27.344,-48.828,160.156
1689612626.872,-49.316,-24.902,-30.762,-63.477,370.117
1689612626.876,-55.176,-29.297,-29.785,-59.570,32.715
1689612626.880,-55.664,-34.180,-33.691,-35.645,-148.438
1689612626.884,-50.293,-34.668,-37.598,-26.367,-99.121
1689612626.886,-48.340,-30.273,-30.762,-48.828,-124.023
1689612626.890,-47.852,-26.855,-32.715,-70.312,-198.730
1689612626.894,-41.016,-20.508,-33.203,-60.547,-138.672
1689612626.898,-42.480,-21.973,-33.203,-34.180,-23.438
1689612626.902,-48.828,-27.832,-34.180,-23.926,-117.676
1689612626.906,-46.875,-30.273,-30.273,-40.527,-81.055
1689612626.910,-44.922,-34.180,-25.391,-62.012,34.180
1689612626.913,-52.246,-32.715,-24.414,-48.828,272.461
1689612626.917,-51.758,-22.949,-28.809,-29.785,195.801
1689612626.921,-41.992,-23.926,-28.320,-26.367,-121.094
1689612626.925,-41.504,-28.809,-33.691,-41.992,-105.957
1689612626.929,-40.527,-20.996,-32.227,-68.848,-157.227
1689612626.929,-37.109,-17.578,-24.902,-63.477,-229.492
1689612626.933,-28.809,-18.555,-26.367,-29.785,-178.711
1689612626.937,-25.391,-17.578,-28.320,-12.695,-73.730
1689612626.941,-24.902,-20.508,-30.273,-30.273,-83.008
1689612626.945,-29.785,-20.996,-31.738,-60.059,-80.566
1689612626.949,-33.691,-22.949,-28.809,-68.848,-31.738
1689612626.953,-26.855,-24.902,-26.855,-36.133,222.656
1689612626.956,-23.926,-26.855,-24.414,-10.742,508.789
1689612626.960,-24.414,-24.902,-21.973,-28.809,101.074
1689612626.964,-28.809,-22.461,-24.414,-53.711,-252.930
1689612626.968,-37.109,-20.020,-26.855,-49.805,-177.734
1689612626.972,-42.969,-21.973,-26.855,-26.855,-161.133
1689612626.975,-40.039,-26.367,-25.879,-3.906,-197.266
1689612626.979,-41.992,-24.902,-23.438,-12.207,-134.766
1689612626.983,-43.945,-24.414,-20.020,-51.270,-103.516
1689612626.987,-40.039,-22.461,-18.555,-55.664,-158.691
1689612626.991,-37.598,-26.855,-26.367,-34.180,-143.555
1689612626.995,-38.086,-34.668,-31.738,-18.066,50.781
1689612626.999,-41.016,-32.227,-29.297,-22.949,261.230
1689612627.002,-42.969,-27.832,-24.414,-52.734,44.922
1689612627.006,-44.922,-27.344,-23.926,-70.312,-187.500
1689612627.010,-43.457,-27.344,-24.414,-49.805,-26.367
1689612627.014,-38.574,-30.273,-27.832,-21.973,105.957
1689612627.018,-37.598,-31.250,-29.785,-26.367,-70.801
1689612627.035,-38.086,-31.738,-28.320,-52.246,-147.949
1689612627.039,-43.945,-32.227,-27.832,-72.266,-107.422
1689612627.043,-40.527,-23.926,-23.438,-52.734,-82.031
1689612627.047,-29.297,-22.461,-22.949,-23.438,-98.633
1689612627.051,-26.367,-23.438,-22.949,-25.879,-106.934
1689612627.055,-30.273,-21.973,-16.602,-49.316,40.039
1689612627.059,-37.109,-25.879,-21.973,-69.824,123.535
1689612627.062,-42.480,-22.461,-30.273,-60.059,56.641
1689612627.066,-36.133,-22.949,-26.367,-20.996,11.230
1689612627.070,-30.273,-24.902,-21.484,-1.465,227.051
1689612627.074,-32.227,-25.391,-20.508,-17.578,414.062
1689612627.078,-33.691,-23.926,-24.414,-51.270,-26.855
1689612627.079,-35.645,-26.367,-26.367,-49.805,-265.625
1689612627.083,-38.574,-29.297,-24.414,-18.555,-121.094
1689612627.087,-37.109,-23.926,-23.438,0.000,-127.441
1689612627.091,-31.738,-23.438,-23.926,-15.137,-133.301
1689612627.095,-33.691,-21.973,-28.320,-58.594,-52.734
1689612627.099,-32.715,-19.043,-32.715,-63.477,10.254
1689612627.103,-28.809,-15.625,-33.203,-34.180,35.645
1689612627.106,-26.367,-15.625,-35.156,-20.508,-72.754
1689612627.110,-23.926,-20.508,-37.109,-32.715,-52.734
1689612627.114,-28.320,-15.137,-40.527,-57.617,174.805
1689612627.118,-31.738,-6.348,-41.016,-53.223,-39.062
1689612627.122,-33.203,-7.812,-38.086,-22.949,-208.984
1689612627.125,-31.738,-11.719,-34.180,-11.230,-35.645
1689612627.129,-25.879,-13.184,-28.320,-24.414,-16.602
1689612627.133,-24.414,-16.602,-25.879,-56.152,-120.605
1689612627.137,-20.508,-19.531,-23.926,-60.059,-170.898
1689612627.141,-16.113,-20.508,-26.367,-23.438,1.953
1689612627.145,-16.113,-19.531,-29.785,-1.465,142.578
1689612627.149,-18.555,-13.184,-26.367,-14.648,5.859
1689612627.152,-25.391,-11.719,-25.391,-41.504,-96.680
1689612627.156,-26.367,-7.812,-24.902,-44.922,94.727
1689612627.160,-26.855,-13.672,-25.879,-20.020,323.242
1689612627.164,-27.344,-23.438,-26.367,0.488,0.977
1689612627.168,-20.508,-25.391,-27.832,-1.953,-178.711
1689612627.171,-23.926,-27.344,-31.738,-25.879,-144.043
1689612627.175,-37.109,-28.320,-31.250,-44.434,-187.988
1689612627.179,-36.133,-24.902,-27.832,-32.227,-186.035
1689612627.183,-25.391,-20.020,-17.578,6.836,-40.039
1689612627.187,-24.414,-21.484,-16.113,16.602,92.773
1689612627.191,-28.809,-22.949,-20.508,-20.996,60.059
1689612627.195,-32.227,-20.996,-23.438,-47.852,-59.570
1689612627.198,-33.691,-17.090,-25.391,-28.809,-34.180
1689612627.202,-27.832,-20.020,-25.391,3.418,208.496
1689612627.206,-22.461,-19.043,-22.949,4.883,27.344
1689612627.210,-22.461,-14.160,-24.414,-19.531,-220.703
1689612627.214,-29.297,-20.020,-32.227,-45.898,-164.062
1689612627.215,-31.738,-23.926,-33.203,-36.133,-134.277
1689612627.219,-20.996,-20.020,-31.738,-4.395,-125.977
1689612627.223,-18.555,-25.879,-31.250,-0.488,-77.637
1689612627.227,-24.902,-24.902,-35.156,-28.320,-63.965
1689612627.231,-33.203,-18.066,-30.762,-57.617,3.418
1689612627.235,-37.109,-19.043,-23.926,-59.082,-24.414
1689612627.239,-38.086,-15.137,-27.832,-30.273,-70.312
1689612627.242,-30.273,-13.672,-23.438,-5.371,182.129
1689612627.246,-20.020,-19.531,-20.996,-12.207,525.879
1689612627.250,-22.461,-19.531,-25.879,-42.969,184.570
1689612627.254,-27.832,-20.996,-26.367,-42.969,-226.074
1689612627.258,-33.203,-25.391,-25.391,-21.484,-151.855
1689612627.260,-32.227,-26.367,-27.832,-10.742,-129.395
1689612627.264,-28.809,-22.461,-23.926,-24.902,-158.203
1689612627.268,-36.621,-21.484,-24.902,-55.176,-112.793
1689612627.272,-41.016,-21.484,-29.297,-55.664,-61.523
1689612627.276,-32.715,-19.043,-19.531,-29.297,-105.469
1689612627.280,-30.762,-19.531,-13.672,-12.207,-108.398
1689612627.284,-37.598,-22.949,-16.602,-22.949,102.539
1689612627.287,-37.598,-23.926,-19.043,-50.293,314.941
1689612627.291,-38.086,-20.996,-18.066,-60.547,11.230
1689612627.295,-37.598,-19.531,-16.113,-38.574,-210.449
1689612627.299,-25.879,-18.066,-22.949,-10.742,50.293
1689612627.303,-27.832,-23.926,-26.367,-18.066,154.785
1689612627.320,-28.320,-27.344,-22.949,-47.363,-112.793
1689612627.324,-27.832,-25.879,-25.391,-61.523,-192.383
1689612627.328,-29.785,-23.926,-27.832,-41.504,-114.746
1689612627.332,-23.926,-28.320,-27.832,-17.090,-62.500
1689612627.336,-22.461,-29.297,-30.273,-26.367,-59.082
1689612627.340,-23.438,-21.484,-30.762,-53.223,-34.180
1689612627.344,-26.855,-15.137,-34.180,-64.453,260.254
1689612627.347,-36.621,-15.137,-36.621,-52.246,335.938
1689612627.351,-36.133,-20.508,-30.762,-28.809,-71.289
1689612627.355,-31.250,-21.484,-27.832,-27.832,-181.641
1689612627.359,-38.086,-22.949,-32.227,-49.805,119.141
1689612627.363,-41.992,-20.020,-26.855,-63.477,90.820
1689612627.350,-35.645,-12.695,-20.020,-50.293,-248.535
1689612627.354,-32.227,-9.766,-23.438,-16.113,-199.219
1689612627.358,-33.203,-18.555,-32.227,-14.160,-107.422
1689612627.362,-41.016,-31.250,-32.715,-45.898,-114.746
1689612627.366,-44.922,-37.109,-28.320,-62.500,-205.566
1689612627.370,-37.598,-31.250,-24.902,-47.852,-63.477
1689612627.374,-31.250,-26.855,-22.461,-16.113,113.770
1689612627.377,-29.297,-25.391,-23.926,-9.277,-74.219
1689612627.381,-34.668,-24.414,-34.668,-33.691,-198.730
1689612627.385,-40.039,-31.250,-38.574,-54.199,-46.875
1689612627.389,-37.109,-32.227,-26.367,-42.969,162.598
1689612627.393,-33.203,-24.414,-21.484,-14.160,-9.277
1689612627.396,-36.621,-24.902,-25.391,-5.859,-71.289
1689612627.400,-39.062,-26.367,-30.273,-27.832,26.855
1689612627.404,-39.062,-21.484,-29.785,-59.082,-32.227
1689612627.408,-42.480,-25.879,-24.902,-60.547,-162.109
1689612627.412,-44.922,-35.645,-29.297,-32.715,-183.105
1689612627.416,-46.875,-36.621,-32.227,-19.043,80.078
1689612627.420,-41.016,-34.668,-27.344,-36.133,200.684
1689612627.423,-39.551,-30.762,-28.809,-62.500,54.688
1689612627.427,-42.969,-28.809,-31.250,-64.453,-109.375
1689612627.431,-42.969,-34.180,-30.273,-30.762,52.246
1689612627.435,-40.527,-29.785,-30.273,-13.184,241.211
1689612627.439,-34.180,-26.367,-23.438,-28.809,-108.398
1689612627.456,-30.273,-28.809,-20.996,-43.945,-198.730
1689612627.460,-31.738,-25.391,-24.414,-47.852,-172.363
1689612627.464,-28.320,-17.578,-23.438,-25.391,-107.910
1689612627.468,-21.484,-18.555,-28.809,-4.883,-95.215
1689612627.472,-24.414,-21.973,-30.762,-15.137,-41.504
1689612627.476,-30.273,-21.484,-23.926,-41.504,168.457
1689612627.480,-34.180,-24.414,-21.484,-56.641,58.105
1689612627.483,-37.598,-23.438,-25.879,-40.039,-195.801
1689612627.487,-35.645,-22.949,-30.762,-16.602,-71.777
1689612627.491,-29.785,-17.578,-27.832,-21.484,176.270
1689612627.495,-35.156,-14.160,-26.855,-55.664,-46.875
1689612627.499,-41.504,-19.531,-26.855,-72.266,-187.988
1689612627.500,-42.480,-21.484,-24.414,-53.223,-110.352
1689612627.504,-34.180,-20.020,-20.508,-19.531,-123.535
1689612627.508,-27.344,-19.043,-21.484,-13.672,-145.020
1689612627.512,-31.738,-26.367,-28.320,-46.875,-115.234
1689612627.516,-38.574,-31.250,-28.320,-64.453,-24.902
1689612627.520,-37.109,-22.949,-24.414,-53.711,25.391
1689612627.524,-29.297,-20.996,-20.508,-24.414,55.176
1689612627.527,-24.414,-21.484,-20.020,-16.602,0.000
1689612627.531,-28.320,-18.066,-27.832,-41.504,149.414
1689612627.535,-30.762,-17.578,-29.785,-60.059,457.031
1689612627.539,-33.691,-21.484,-25.391,-48.828,99.121
1689612627.543,-33.691,-27.344,-27.344,-24.414,-188.965
1689612627.545,-30.273,-22.949,-28.320,-18.555,-107.422
1689612627.549,-40.527,-23.438,-25.391,-38.086,-114.258
1689612627.553,-46.875,-29.297,-24.414,-58.594,-147.461
1689612627.557,-44.922,-29.785,-27.344,-52.246,-148.926
1689612627.561,-38.574,-24.414,-26.855,-28.320,-74.707
1689612627.565,-30.762,-18.555,-27.832,-16.113,-21.484
1689612627.569,-36.133,-23.438,-30.762,-35.156,-2.930
1689612627.572,-38.086,-26.855,-29.297,-60.059,56.152
1689612627.576,-33.691,-28.320,-29.785,-55.664,318.848
1689612627.580,-37.598,-27.344,-29.297,-32.227,207.520
1689612627.584,-34.180,-21.973,-23.926,-16.602,-96.191
1689612627.588,-28.320,-18.555,-20.508,-25.391,-98.633
1689612627.590,-31.250,-20.508,-26.367,-53.711,-166.016
1689612627.594,-36.133,-21.973,-27.832,-56.152,-215.332
1689612627.598,-32.715,-17.578,-20.508,-30.762,-194.336
1689612627.602,-27.832,-21.484,-23.926,-11.719,-138.184
1689612627.606,-31.738,-22.949,-24.902,-23.438,-93.262
1689612627.610,-30.762,-20.996,-22.949,-46.875,-89.355
1689612627.614,-34.668,-27.832,-21.973,-51.270,-145.996
1689612627.617,-36.133,-26.367,-18.066,-25.879,164.551
1689612627.621,-39.551,-21.973,-24.414,-7.812,470.215
1689612627.625,-42.480,-26.855,-29.297,-28.320,16.113
1689612627.629,-43.945,-27.344,-32.227,-64.941,-240.723
1689612627.633,-50.781,-23.926,-30.762,-78.125,-110.840
1689612627.634,-39.062,-20.508,-27.832,-51.758,-139.160
1689612627.638,-34.668,-19.531,-29.785,-29.785,-253.418
1689612627.642,-39.062,-21.973,-31.738,-34.180,-217.773
1689612627.646,-38.574,-20.996,-26.367,-49.805,-162.109
1689612627.650,-36.133,-25.391,-22.949,-56.641,-208.496
1689612627.654,-35.645,-22.949,-26.367,-40.039,-141.602
1689612627.658,-34.668,-17.090,-27.344,-10.254,91.797
1689612627.661,-32.227,-20.996,-29.785,-5.859,268.555
1689612627.665,-29.297,-20.996,-26.855,-38.574,18.066
1689612627.669,-26.855,-23.926,-22.461,-60.547,-244.629
1689612627.673,-28.809,-26.367,-23.926,-41.504,-149.414
1689612627.677,-26.367,-23.926,-24.902,-16.113,-66.895
1689612627.696,-15.137,-20.996,-28.320,-9.277,-4.395
1689612627.700,-3.906,-16.602,-25.879,-20.996,-8.301
1689612627.704,-22.949,-25.879,-18.555,-45.410,24.902
1689612627.708,-41.992,-32.715,-14.648,-44.434,39.062
1689612627.712,-41.504,-34.180,-9.766,-18.555,-103.516
1689612627.716,-41.992,-39.062,-9.277,-19.043,-22.461
1689612627.720,-45.410,-44.434,-12.207,-44.434,306.641
1689612627.723,-51.270,-48.828,-9.766,-70.801,373.047
1689612627.727,-49.805,-41.992,-2.930,-63.965,5.859
1689612627.731,-43.457,-35.645,2.930,-22.949,-62.500
1689612627.735,-47.852,-39.551,-1.465,-8.301,137.695
1689612627.739,-52.734,-42.480,-8.789,-24.902,51.758
1689612627.725,-48.828,-42.480,-7.812,-46.875,-181.641
1689612627.729,-49.316,-40.527,-12.695,-47.363,-155.273
1689612627.733,-48.340,-37.109,-16.602,-22.949,-83.496
1689612627.737,-42.480,-36.621,-18.555,-14.648,-46.875
1689612627.741,-41.016,-41.504,-17.578,-34.180,-117.676
1689612627.745,-42.969,-40.527,-18.066,-60.059,-22.461
1689612627.749,-36.621,-32.715,-19.043,-58.594,89.355
1689612627.752,-31.250,-28.809,-21.973,-31.738,-92.285
1689612627.756,-28.320,-29.785,-25.391,-14.648,-180.176
1689612627.760,-27.832,-37.109,-23.438,-25.391,-78.613
1689612627.764,-38.086,-34.180,-19.531,-46.387,262.207
1689612627.768,-40.039,-28.809,-13.672,-53.711,118.652
1689612627.800,-39.062,-28.320,-13.184,-33.203,-210.449
1689612627.804,-41.504,-28.809,-16.602,-13.672,-144.531
1689612627.808,-40.039,-29.297,-22.461,-19.531,-91.309
1689612627.812,-39.062,-27.344,-23.926,-39.551,-122.070
1689612627.816,-39.062,-34.668,-23.926,-52.246,-126.953
1689612627.820,-35.156,-34.180,-25.391,-35.645,-46.875
1689612627.824,-27.832,-24.902,-20.020,-7.324,65.918
1689612627.827,-28.320,-25.391,-19.043,-16.113,71.777
1689612627.831,-31.738,-25.879,-24.902,-52.734,28.320
1689612627.835,-39.062,-28.320,-27.832,-64.941,225.586
1689612627.839,-41.016,-29.297,-30.762,-46.875,405.762
1689612627.843,-38.086,-23.926,-35.645,-24.414,79.590
1689612627.830,-35.156,-24.414,-31.250,-25.391,-198.242
1689612627.834,-41.992,-32.227,-29.297,-57.129,-185.059
1689612627.838,-48.340,-31.738,-27.832,-76.660,-222.168
1689612627.842,-37.598,-21.484,-24.902,-52.246,-268.555
1689612627.846,-30.762,-21.973,-28.809,-20.508,-189.941
1689612627.850,-32.227,-29.297,-30.273,-19.043,-18.555
1689612627.854,-32.715,-29.297,-27.344,-37.109,43.457
1689612627.857,-35.156,-24.414,-24.902,-55.664,-23.438
1689612627.861,-32.715,-20.996,-27.344,-47.852,9.766
1689612627.865,-32.227,-24.414,-31.250,-19.531,36.133
1689612627.869,-39.551,-30.762,-32.227,-11.719,-83.008
1689612627.873,-38.086,-31.250,-30.273,-34.668,-175.293
1689612627.876,-44.922,-27.344,-31.250,-57.129,-93.750
1689612627.880,-50.293,-21.484,-33.203,-45.898,284.180
1689612627.884,-41.016,-22.461,-24.902,-19.043,112.793
1689612627.888,-30.762,-21.973,-21.973,-9.277,-160.645
1689612627.892,-32.715,-24.902,-28.809,-30.762,-51.270
1689612627.896,-37.598,-29.785,-30.273,-53.223,-78.613
1689612627.900,-37.109,-24.414,-32.227,-44.922,-168.945
1689612627.903,-39.551,-24.902,-31.250,-17.090,-61.523
1689612627.907,-39.551,-32.715,-30.762,7.812,221.680
1689612627.911,-36.621,-32.227,-30.762,0.000,369.629
1689612627.915,-35.645,-29.297,-28.809,-35.645,44.922
1689612627.919,-35.645,-27.344,-27.344,-40.039,-234.375
1689612627.919,-31.250,-28.320,-27.832,-9.277,-111.328
1689612627.923,-26.367,-30.762,-32.227,5.859,-83.984
1689612627.927,-26.367,-27.344,-35.156,-10.254,-213.867
1689612627.931,-29.297,-26.367,-34.668,-37.598,-156.738
1689612627.935,-24.902,-25.879,-27.832,-44.434,-105.957
1689612627.939,-22.461,-21.484,-22.949,-14.648,-79.590
1689612627.943,-22.461,-20.020,-25.879,3.906,-52.246
1689612627.946,-26.367,-21.484,-32.227,-11.230,-9.277
1689612627.950,-28.320,-19.531,-29.297,-31.738,178.223
1689612627.954,-30.762,-21.484,-22.461,-43.457,33.203
1689612627.958,-35.156,-23.926,-23.438,-27.832,-148.926
1689612627.962,-30.762,-27.344,-20.020,-0.977,28.320
1689612627.981,-28.809,-31.250,-20.996,-8.301,108.398
1689612627.985,-28.809,-31.250,-22.461,-36.133,-96.680
1689612627.989,-27.344,-27.344,-17.578,-49.316,-197.754
1689612627.993,-34.668,-23.926,-17.578,-30.273,3.418
1689612627.997,-41.992,-27.344,-19.043,-4.395,69.336
1689612628.001,-40.527,-27.832,-20.996,-12.695,-25.391
1689612628.005,-40.527,-25.879,-24.902,-43.457,-60.059
1689612628.008,-39.551,-27.832,-31.250,-56.641,138.184
1689612628.012,-36.621,-23.926,-24.414,-37.598,361.816
1689612628.016,-33.691,-21.973,-17.090,-13.184,22.949
1689612628.020,-31.250,-24.902,-24.902,-11.719,-126.465
1689612628.024,-30.273,-25.391,-23.926,-39.062,-84.473
1689612628.010,-34.668,-28.320,-22.461,-65.430,-178.711
1689612628.014,-40.527,-27.344,-19.531,-54.199,-270.508
1689612628.018,-32.715,-24.902,-18.555,-25.391,-143.066
1689612628.022,-28.809,-20.508,-16.602,-20.996,-9.766
1689612628.026,-28.320,-22.949,-14.160,-35.645,-104.980
1689612628.030,-24.902,-31.738,-17.090,-54.688,-138.184
1689612628.034,-33.203,-30.273,-27.832,-56.152,56.641
1689612628.037,-37.598,-28.320,-31.738,-35.156,77.637
1689612628.041,-39.062,-26.855,-25.391,-20.508,-92.285
1689612628.045,-44.434,-30.273,-27.344,-40.039,-131.348
1689612628.049,-53.223,-30.762,-24.414,-69.336,-67.871
1689612628.053,-54.688,-29.785,-19.531,-58.594,270.508
1689612628.054,-46.875,-31.250,-18.066,-27.832,126.953
1689612628.058,-38.086,-28.320,-17.578,-12.207,-163.086
1689612628.062,-33.203,-28.320,-17.578,-27.832,-83.496
1689612628.066,-36.133,-30.273,-17.578,-59.082,-99.121
1689612628.070,-38.086,-24.414,-17.578,-59.570,-116.211
1689612628.074,-38.086,-22.949,-23.438,-31.250,-63.477
1689612628.078,-33.691,-24.414,-27.832,-6.836,235.840
1689612628.081,-30.762,-26.367,-24.902,-17.578,351.074
1689612628.085,-34.668,-29.297,-23.438,-59.082,-2.441
1689612628.089,-36.133,-25.879,-21.973,-64.941,-151.855
1689612628.093,-37.109,-25.879,-19.531,-31.738,101.074
1689612628.097,-33.691,-27.344,-22.461,-8.789,177.246
1689612628.100,-27.344,-23.926,-26.367,-23.926,-157.227
1689612628.104,-31.250,-26.855,-26.855,-53.223,-177.734
1689612628.108,-40.039,-33.203,-30.762,-62.012,-163.086
1689612628.112,-32.227,-34.180,-33.203,-40.039,-188.477
1689612628.116,-20.996,-28.809,-31.738,-11.719,-191.406
1689612628.120,-22.949,-19.531,-32.227,-18.555,-23.438
1689612628.124,-26.367,-20.020,-29.297,-47.852,238.281
1689612628.127,-31.738,-26.855,-27.344,-65.430,2.441
1689612628.131,-35.645,-29.785,-28.809,-58.105,-200.684
1689612628.135,-32.227,-35.156,-31.738,-30.273,-6.836
1689612628.139,-28.320,-35.645,-29.297,-18.555,95.215
1689612628.143,-31.250,-32.227,-29.785,-48.828,-114.258
1689612628.159,-40.527,-34.180,-34.668,-67.871,-177.246
1689612628.163,-38.086,-34.668,-31.250,-44.922,-127.930
1689612628.167,-29.785,-27.832,-25.879,-12.695,-125.977
1689612628.171,-26.367,-23.926,-27.344,-7.324,-137.695
1689612628.175,-28.320,-20.996,-29.297,-34.180,-133.789
1689612628.179,-31.738,-20.508,-29.297,-54.199,-21.973
1689612628.183,-33.203,-27.832,-30.273,-43.945,3.418
1689612628.186,-30.273,-29.297,-29.297,-17.090,-36.133
1689612628.190,-26.855,-27.832,-24.414,-9.277,-64.941
1689612628.194,-30.273,-27.344,-24.414,-28.809,87.402
1689612628.198,-28.320,-25.879,-23.926,-50.293,261.719
1689612628.202,-25.879,-27.832,-21.973,-50.293,-41.504
1689612628.205,-29.297,-27.344,-26.855,-28.320,-179.199
1689612628.209,-29.785,-28.809,-27.832,-14.648,2.930
1689612628.213,-29.785,-31.738,-26.855,-22.949,-40.039
1689612628.217,-29.785,-28.809,-27.832,-41.016,-189.941
1689612628.221,-29.785,-28.809,-23.926,-38.086,-130.371
1689612628.225,-27.832,-31.738,-24.902,-16.113,44.434
1689612628.229,-26.855,-29.297,-26.367,-5.859,110.352
1689612628.232,-30.762,-25.391,-24.902,-22.461,-20.508
1689612628.236,-33.203,-21.484,-22.461,-45.898,-55.664
1689612628.240,-36.621,-19.043,-25.879,-45.410,132.812
1689612628.244,-32.715,-18.555,-26.855,-24.414,12.207
1689612628.248,-21.973,-18.555,-25.391,-2.930,-156.250
1689612628.250,-20.996,-20.020,-28.809,-14.648,21.484
1689612628.254,-24.414,-18.066,-29.297,-38.574,84.961
1689612628.258,-29.785,-16.113,-28.809,-44.434,-152.832
1689612628.262,-31.738,-18.066,-28.809,-25.879,-190.918
1689612628.266,-28.809,-26.855,-29.297,-0.488,0.488
1689612628.270,-24.902,-31.250,-31.250,-8.789,129.395
1689612628.274,-25.879,-29.785,-28.809,-36.133,60.059
1689612628.277,-33.203,-24.414,-28.809,-51.270,-75.684
1689612628.281,-38.086,-25.879,-33.691,-35.645,117.676
1689612628.285,-33.203,-23.926,-31.250,-6.348,425.293
1689612628.289,-28.809,-17.090,-26.367,-10.742,66.895
1689612628.293,-27.344,-21.973,-25.879,-41.992,-199.707
1689612628.295,-30.273,-27.832,-28.809,-57.617,-156.250
1689612628.299,-28.320,-26.855,-28.809,-38.574,-176.758
1689612628.303,-24.902,-25.879,-23.926,-5.371,-168.945
1689612628.307,-25.879,-21.484,-18.066,-2.930,-47.852
1689612628.311,-23.926,-23.438,-19.531,-30.273,43.457
1689612628.315,-31.250,-27.832,-23.438,-53.223,-44.434
1689612628.319,-28.320,-21.484,-23.438,-38.086,-41.016
1689612628.322,-19.531,-20.020,-21.484,-8.301,33.203
1689612628.326,-19.531,-25.879,-20.996,-3.418,275.391
1689612628.330,-21.973,-21.484,-24.414,-30.273,115.234
1689612628.334,-27.832,-15.137,-25.391,-54.688,-230.957
1689612628.338,-36.133,-20.020,-27.344,-48.828,-198.730
1689612628.355,-33.203,-24.902,-24.902,-20.020,-133.789
1689612628.359,-22.949,-25.879,-21.973,-6.836,-148.438
1689612628.363,-25.879,-22.949,-21.973,-29.297,-144.043
1689612628.367,-39.551,-29.297,-23.438,-55.664,-67.871
1689612628.371,-39.551,-31.738,-20.508,-43.457,-93.262
1689612628.375,-32.227,-23.438,-21.973,-14.648,-145.508
1689612628.379,-33.203,-19.043,-26.367,-8.301,-61.523
1689612628.382,-38.086,-23.926,-25.391,-26.367,207.031
1689612628.386,-42.969,-29.297,-28.809,-50.781,511.230
1689612628.390,-42.480,-26.855,-27.344,-53.223,150.391
1689612628.394,-34.668,-22.461,-21.973,-27.344,-203.613
1689612628.398,-28.809,-19.531,-27.344,-7.812,-61.523
1689612628.384,-21.973,-20.020,-25.391,-23.926,-95.215
1689612628.388,-19.531,-23.438,-20.996,-56.641,-221.191
1689612628.392,-28.320,-24.902,-22.461,-62.988,-196.777
1689612628.396,-32.227,-29.785,-22.949,-36.133,-119.629
1689612628.400,-26.367,-27.832,-27.832,-17.090,-116.211
1689612628.404,-29.785,-29.297,-29.297,-36.621,-84.961
1689612628.408,-33.691,-31.738,-25.879,-60.059,57.617
1689612628.411,-32.227,-31.250,-28.320,-58.105,64.453
1689612628.415,-36.621,-34.180,-26.367,-34.668,-36.621
1689612628.419,-37.109,-36.133,-27.832,-12.207,-15.137
1689612628.423,-33.203,-36.133,-30.273,-21.484,29.297
1689612628.427,-34.180,-29.785,-21.973,-41.992,254.883
1689612628.431,-39.062,-28.809,-20.508,-54.199,67.383
1689612628.435,-37.598,-32.715,-26.367,-40.527,-226.074
1689612628.439,-33.691,-31.738,-32.227,-12.207,-120.117
1689612628.443,-32.715,-25.879,-26.855,-7.812,-82.520
1689612628.447,-33.203,-23.438,-20.996,-37.109,-137.695
1689612628.451,-38.574,-26.367,-22.949,-53.223,-149.414
1689612628.455,-40.527,-28.320,-26.855,-35.156,142.578
1689612628.458,-41.016,-25.879,-30.273,-17.090,318.359
1689612628.462,-35.645,-30.273,-34.668,-19.531,5.371
1689612628.466,-34.668,-32.227,-34.668,-43.457,-189.453
1689612628.470,-34.668,-28.809,-27.344,-59.570,-108.887
1689612628.474,-31.250,-28.320,-27.344,-42.480,17.578
1689612628.475,-23.926,-21.973,-29.297,-16.113,-80.566
1689612628.479,-15.625,-18.555,-26.855,-13.672,-143.555
1689612628.483,-20.020,-24.414,-31.250,-37.598,61.523
1689612628.487,-19.531,-22.461,-34.668,-61.035,-19.531
1689612628.491,-21.484,-23.438,-38.086,-56.152,-196.777
1689612628.495,-24.902,-27.832,-35.156,-27.344,-98.633
1689612628.499,-22.461,-25.391,-27.832,-9.277,275.879
1689612628.502,-25.879,-25.879,-28.320,-29.785,296.387
1689612628.506,-33.203,-30.273,-27.832,-63.965,-168.945
1689612628.510,-40.039,-27.832,-32.715,-59.082,-163.086
1689612628.514,-41.504,-24.902,-37.109,-32.227,-66.406
1689612628.518,-35.645,-23.438,-28.809,-18.555,-142.578
1689612628.521,-31.738,-24.902,-20.996,-28.809,-177.246
1689612628.525,-39.062,-29.785,-20.508,-53.711,-62.012
1689612628.529,-47.363,-30.273,-21.484,-57.129,-32.715
1689612628.533,-45.898,-27.344,-21.484,-30.273,-147.461
1689612628.537,-37.109,-24.902,-24.414,-13.184,-147.461
1689612628.541,-32.227,-27.832,-26.367,-26.367,130.859
1689612628.545,-30.762,-27.832,-24.902,-51.758,159.180
1689612628.548,-29.785,-20.996,-27.344,-57.129,-52.734
1689612628.552,-30.273,-20.020,-30.762,-32.715,-53.223
1689612628.556,-26.855,-15.625,-23.438,-4.883,162.109
1689612628.560,-21.484,-14.648,-20.996,-7.324,250.488
1689612628.564,-30.273,-20.508,-24.902,-43.945,-174.316
1689612628.580,-32.227,-17.090,-23.926,-49.316,-252.930
1689612628.584,-25.391,-15.625,-26.367,-25.879,-141.113
1689612628.588,-23.438,-19.043,-23.926,-11.230,-156.250
1689612628.592,-24.902,-24.902,-23.926,-21.484,-171.387
1689612628.596,-31.738,-31.738,-27.344,-43.457,-85.938
1689612628.600,-36.133,-24.902,-25.391,-48.340,109.375
1689612628.604,-32.227,-20.020,-18.066,-26.855,53.223
1689612628.607,-28.809,-24.414,-18.555,-6.348,-129.883
1689612628.611,-31.738,-24.902,-25.391,-12.207,-55.664
1689612628.615,-33.691,-28.320,-20.020,-35.645,117.188
1689612628.619,-34.668,-31.250,-17.090,-56.152,-85.938
1689612628.623,-37.109,-30.762,-23.438,-39.062,-223.633
1689612628.625,-33.203,-32.715,-24.414,-8.301,-68.848
1689612628.629,-27.344,-29.785,-27.344,-8.301,-17.090
1689612628.633,-30.762,-24.902,-24.902,-33.203,-99.609
1689612628.637,-37.598,-27.344,-23.926,-51.270,-112.305
1689612628.641,-38.086,-21.973,-28.809,-36.621,-103.516
1689612628.645,-32.227,-21.484,-26.855,-12.695,-72.754
1689612628.649,-27.344,-27.832,-23.438,-7.324,0.000
1689612628.652,-30.762,-25.879,-21.973,-29.785,-40.527
