timestamps,TP9,AF7,AF8,TP10,Right AUX
1689608808.762,-62.988,-45.898,-39.062,-56.641,-125.488
1689608808.766,-51.758,-43.457,-40.527,-43.457,-178.223
1689608808.770,-42.480,-43.457,-41.504,-37.109,-134.766
1689608808.774,-38.574,-39.551,-35.645,-49.805,-78.125
1689608808.778,-45.410,-44.922,-43.457,-65.430,-78.125
1689608808.782,-62.500,-47.363,-49.316,-61.035,-77.148
1689608808.786,-55.176,-41.016,-44.434,-57.617,-51.270
1689608808.789,-39.551,-42.969,-44.434,-54.688,371.582
1689608808.793,-30.762,-43.457,-47.852,-51.758,406.738
1689608808.797,-35.156,-45.898,-49.805,-58.594,-60.059
1689608808.801,-36.133,-45.410,-48.828,-53.711,-95.215
1689608808.805,-46.387,-47.363,-50.293,-49.316,-1.953
1689608808.806,-32.227,-54.199,-43.457,-22.949,-118.652
1689608808.810,-11.230,-45.898,-42.969,-4.883,-133.789
1689608808.814,-32.227,-26.855,-52.734,-32.227,-56.641
1689608808.818,-34.668,-17.090,-52.246,-44.922,-100.586
1689608808.822,-38.574,-15.625,-53.223,-42.969,-192.871
1689608808.826,-46.875,-10.254,-64.941,-51.758,-14.160
1689608808.830,-33.691,0.977,-73.242,-53.711,200.684
1689608808.833,-40.527,10.254,-78.613,-61.035,58.594
1689608808.837,-52.734,16.602,-86.914,-83.984,-118.164
1689608808.841,-57.129,15.137,-89.844,-83.496,-181.152
1689608808.845,-65.430,13.184,-91.309,-71.289,63.965
1689608808.849,-55.664,15.625,-91.797,-67.871,183.105
1689608808.853,-42.969,6.836,-91.797,-66.895,-85.449
1689608808.857,-48.340,3.906,-87.402,-68.359,-142.090
1689608808.861,-63.477,2.930,-84.473,-65.918,-36.133
1689608808.865,-62.988,-6.348,-84.961,-61.523,-33.203
1689608808.869,-35.156,-7.324,-80.078,-49.805,-71.777
1689608808.873,-30.762,-10.742,-73.242,-60.059,54.688
1689608808.877,-48.340,-12.207,-70.312,-72.266,223.145
1689608808.880,-41.992,-7.812,-72.266,-78.125,130.371
1689608808.884,-26.855,-11.719,-67.871,-73.242,-96.680
1689608808.888,-23.926,-19.043,-62.012,-43.945,-17.578
1689608808.892,-24.902,-22.461,-61.523,-38.086,131.836
1689608808.896,-45.410,-22.461,-61.523,-57.617,-87.402
1689608808.912,-60.059,-27.832,-61.035,-53.223,-211.914
1689608808.916,-53.711,-35.156,-56.641,-45.898,-43.945
1689608808.920,-48.340,-26.855,-54.199,-35.645,71.777
1689608808.924,-31.250,-20.508,-55.176,-35.156,-97.656
1689608808.928,-31.738,-24.414,-53.223,-51.758,-248.535
1689608808.932,-53.711,-28.809,-49.805,-56.641,56.641
1689608808.936,-46.387,-36.621,-45.898,-36.621,344.238
1689608808.939,-28.809,-42.480,-44.922,-18.555,0.977
1689608808.943,-35.645,-39.062,-47.363,-22.461,-201.660
1689608808.947,-39.551,-36.133,-48.340,-31.250,-62.500
1689608808.951,-35.645,-36.133,-47.363,-41.016,-44.434
1689608808.955,-39.551,-37.109,-43.945,-41.504,-145.996
1689608808.957,-22.461,-39.551,-44.922,-34.668,-89.844
1689608808.961,-2.930,-40.039,-42.969,-34.668,-54.688
1689608808.965,-20.996,-39.062,-41.992,-41.504,-66.895
1689608808.969,-30.762,-36.621,-43.457,-42.480,-161.621
1689608808.973,-28.809,-36.133,-41.504,-37.598,-66.895
1689608808.977,-36.621,-38.086,-43.457,-34.668,139.648
1689608808.981,-10.742,-36.621,-46.387,-40.527,30.762
1689608808.984,-28.320,-39.062,-43.945,-43.457,31.738
1689608808.988,-70.801,-42.480,-37.598,-48.340,83.008
1689608808.992,-57.129,-41.992,-36.621,-54.688,260.742
1689608808.996,-33.691,-40.527,-39.551,-46.387,196.777
1689608809.000,-33.691,-43.945,-33.203,-36.133,-146.973
1689608809.002,-45.410,-44.922,-32.227,-41.016,-125.977
1689608809.006,-58.105,-44.922,-40.527,-51.758,-126.953
1689608809.010,-69.336,-47.852,-42.480,-61.523,-218.750
1689608809.014,-62.988,-49.805,-44.922,-62.988,-215.820
1689608809.018,-56.641,-46.875,-44.922,-58.105,-48.828
1689608809.022,-55.664,-44.922,-41.016,-70.312,40.039
1689608809.026,-62.012,-47.852,-47.852,-83.008,-25.391
1689608809.029,-70.312,-49.316,-48.340,-77.637,-58.594
1689608809.033,-62.012,-49.316,-37.598,-54.688,128.906
1689608809.037,-54.199,-45.410,-37.598,-49.316,261.230
1689608809.041,-57.129,-45.898,-37.109,-54.688,-97.168
1689608809.045,-60.547,-53.711,-35.645,-60.547,-206.543
1689608809.046,-65.430,-46.387,-41.504,-68.848,-145.508
1689608809.050,-56.152,-38.086,-40.039,-48.340,-183.105
1689608809.054,-49.316,-38.574,-38.574,-47.363,-210.938
1689608809.058,-68.848,-43.457,-40.527,-55.176,-128.418
1689608809.062,-68.848,-46.875,-37.598,-52.734,-66.895
1689608809.066,-57.617,-44.434,-38.086,-52.246,-96.191
1689608809.070,-42.969,-41.992,-40.039,-36.133,-84.473
1689608809.073,-38.574,-35.645,-36.133,-28.320,65.430
1689608809.077,-46.387,-35.645,-36.621,-30.273,396.484
1689608809.081,-44.922,-39.551,-38.574,-33.203,290.527
1689608809.085,-46.387,-33.691,-38.086,-43.945,-138.672
1689608809.089,-47.852,-36.621,-33.203,-29.297,-126.465
1689608809.091,-42.969,-43.457,-30.762,-15.137,-36.133
1689608809.095,-38.086,-37.598,-32.227,-26.367,-175.293
1689608809.099,-34.668,-34.668,-30.762,-28.809,-170.410
1689608809.103,-37.598,-34.180,-30.273,-26.367,-124.512
1689608809.107,-48.828,-32.715,-31.250,-22.949,-92.773
1689608809.111,-48.828,-35.156,-34.668,-19.043,-59.570
1689608809.115,-31.738,-32.227,-38.574,-31.250,14.648
1689608809.118,-46.875,-37.598,-37.109,-36.133,209.473
1689608809.122,-63.965,-42.969,-37.598,-35.156,199.707
1689608809.126,-60.059,-46.387,-43.457,-36.621,-109.863
1689608809.130,-47.363,-50.781,-41.504,-33.691,-152.832
1689608809.134,-39.551,-48.828,-40.039,-43.945,-46.387
1689608809.137,-54.688,-46.875,-41.504,-49.805,-2.441
1689608809.141,-58.594,-44.434,-38.086,-51.758,-111.816
1689608809.145,-46.875,-43.457,-35.156,-45.410,-101.562
1689608809.149,-29.297,-43.945,-35.156,-36.621,41.016
1689608809.153,-29.297,-42.969,-33.203,-39.062,-44.922
1689608809.157,-46.875,-44.434,-30.273,-38.574,-66.895
1689608809.161,-54.688,-46.387,-30.762,-44.434,56.641
1689608809.164,-60.547,-48.340,-34.180,-42.969,302.246
1689608809.168,-47.852,-49.805,-35.156,-37.598,187.500
1689608809.172,-29.785,-43.945,-33.203,-24.902,-135.742
1689608809.176,-30.273,-43.945,-33.203,-28.320,-44.434
1689608809.180,-52.246,-50.781,-32.715,-52.246,-17.578
1689608809.183,-63.965,-47.852,-30.762,-50.293,-176.758
1689608809.187,-56.641,-45.410,-30.762,-35.156,-186.035
1689608809.191,-49.316,-45.898,-32.715,-39.551,-27.832
1689608809.195,-49.316,-40.527,-29.297,-38.574,23.926
1689608809.199,-51.270,-38.086,-31.250,-40.039,-88.867
1689608809.203,-49.805,-41.016,-39.551,-52.246,-65.430
1689608809.207,-47.852,-43.457,-39.062,-39.551,197.266
1689608809.210,-50.293,-46.875,-33.691,-30.762,342.773
1689608809.214,-48.828,-51.270,-37.598,-48.828,-39.551
1689608809.218,-47.852,-47.363,-39.551,-57.617,-240.234
1689608809.222,-52.734,-43.457,-33.691,-60.547,-187.988
1689608809.226,-47.852,-44.434,-34.668,-59.082,-176.758
1689608809.227,-37.598,-46.387,-37.109,-47.852,-133.789
1689608809.231,-34.180,-47.363,-40.039,-58.105,-91.309
1689608809.235,-49.316,-47.363,-37.109,-60.059,-95.703
1689608809.239,-41.992,-41.992,-36.621,-64.941,-129.395
1689608809.243,-38.574,-43.457,-38.574,-65.430,-109.863
1689608809.247,-52.246,-49.316,-37.598,-54.688,92.285
1689608809.251,-41.016,-43.457,-36.133,-61.523,401.367
1689608809.254,-38.086,-38.574,-33.691,-63.965,208.008
1689608809.258,-45.410,-36.133,-28.320,-54.688,-146.484
1689608809.262,-43.945,-37.109,-25.879,-42.480,-52.246
1689608809.266,-42.480,-42.480,-29.297,-35.156,168.457
1689608809.270,-36.621,-40.527,-37.598,-53.711,-27.344
1689608809.286,-37.109,-40.039,-39.551,-60.059,-189.941
1689608809.290,-46.387,-42.969,-37.109,-59.082,-137.695
1689608809.294,-49.805,-41.016,-39.551,-63.477,-143.555
1689608809.298,-41.504,-37.109,-35.645,-50.781,-118.164
1689608809.302,-32.715,-40.039,-35.156,-42.969,-80.566
1689608809.306,-47.852,-43.945,-43.457,-56.152,56.641
1689608809.310,-45.898,-43.457,-48.828,-61.523,69.824
1689608809.313,-25.391,-44.922,-37.109,-33.203,-104.492
1689608809.317,-41.016,-47.852,-22.461,-32.715,-169.922
1689608809.321,-42.969,-53.223,-21.484,-46.875,116.699
1689608809.325,-36.133,-55.664,-23.926,-47.852,277.344
1689608809.329,-46.387,-61.035,-20.996,-56.152,-128.418
1689608809.332,-44.434,-68.848,-20.020,-54.199,-211.914
1689608809.336,-37.109,-66.406,-21.484,-40.527,-107.422
1689608809.340,-37.598,-63.965,-18.066,-30.273,-114.746
1689608809.344,-41.504,-62.988,-16.113,-33.203,-153.809
1689608809.348,-56.152,-58.105,-15.137,-41.504,-79.102
1689608809.352,-62.012,-58.105,-18.555,-43.457,94.238
1689608809.356,-53.223,-53.711,-24.414,-33.691,58.594
1689608809.359,-49.316,-51.758,-27.344,-35.156,-45.410
1689608809.363,-54.688,-54.688,-22.949,-44.922,-19.531
1689608809.367,-59.570,-54.688,-20.020,-41.992,349.121
1689608809.371,-63.477,-57.129,-27.832,-46.875,382.324
1689608809.375,-57.617,-61.035,-33.203,-48.828,-70.312
1689608809.376,-42.969,-56.641,-32.715,-33.203,-126.953
1689608809.380,-38.574,-53.711,-31.250,-30.273,-93.750
1689608809.384,-49.805,-53.223,-26.855,-39.551,-170.898
1689608809.388,-51.270,-49.805,-24.414,-42.480,-169.434
1689608809.392,-32.715,-45.410,-26.855,-37.109,-101.562
1689608809.396,-24.414,-45.410,-30.762,-38.574,-25.879
1689608809.400,-41.992,-46.387,-37.598,-56.641,-56.152
1689608809.403,-55.176,-42.969,-37.598,-62.988,-188.965
1689608809.407,-52.246,-45.898,-31.250,-42.480,66.406
1689608809.411,-41.016,-51.758,-29.785,-35.156,215.332
1689608809.415,-25.391,-46.387,-27.344,-30.273,-125.000
1689608809.419,-20.020,-43.457,-27.344,-27.832,-149.414
1689608809.422,-34.668,-46.387,-30.762,-39.551,41.016
1689608809.426,-53.711,-45.410,-30.762,-43.457,-51.270
1689608809.430,-44.434,-42.969,-34.180,-38.086,-216.309
1689608809.434,-34.668,-42.969,-37.109,-30.762,-95.215
1689608809.438,-25.879,-40.527,-37.109,-29.785,72.266
1689608809.442,-11.230,-38.574,-39.551,-38.086,27.832
1689608809.446,-35.156,-40.039,-37.109,-34.180,-21.484
1689608809.449,-44.434,-37.598,-34.180,-33.203,36.133
1689608809.453,-30.762,-35.645,-37.109,-34.180,362.305
1689608809.457,-23.438,-33.203,-37.598,-29.297,294.922
1689608809.461,-32.715,-36.133,-33.203,-41.016,-115.723
1689608809.465,-62.988,-41.992,-37.598,-58.105,-120.117
1689608809.466,-54.688,-35.156,-41.992,-64.453,-114.746
1689608809.470,-42.480,-31.250,-36.133,-54.688,-175.781
1689608809.474,-42.480,-36.621,-34.180,-44.922,-131.836
1689608809.478,-40.527,-37.598,-35.156,-55.664,58.594
1689608809.482,-49.316,-36.621,-36.133,-66.895,28.809
1689608809.486,-58.594,-42.969,-36.621,-61.523,-36.621
1689608809.490,-51.270,-43.457,-40.527,-53.223,-11.719
1689608809.493,-42.480,-40.039,-41.992,-44.434,137.207
1689608809.497,-41.992,-44.922,-41.992,-45.410,218.750
1689608809.501,-51.758,-47.363,-38.086,-58.594,-117.188
1689608809.505,-57.617,-41.504,-35.645,-74.707,-189.941
1689608809.509,-42.969,-40.527,-40.039,-90.332,-114.746
1689608809.512,-43.945,-40.527,-41.016,-83.008,-127.441
1689608809.516,-33.691,-31.738,-40.527,-78.613,-166.016
1689608809.520,-35.156,-34.668,-35.645,-76.172,-139.160
1689608809.524,-50.781,-50.293,-35.156,-73.730,-81.543
1689608809.528,-39.551,-49.316,-47.363,-77.148,-53.223
1689608809.532,-15.625,-39.551,-52.246,-53.223,-47.363
1689608809.536,-11.230,-39.551,-28.809,-36.133,68.359
1689608809.539,-35.645,-49.805,-13.672,-55.664,333.984
1689608809.543,-74.707,-51.270,-21.484,-99.121,178.711
1689608809.547,-116.699,-43.457,-44.922,-130.859,-150.879
1689608809.551,-117.188,-60.547,-67.383,-121.582,-84.961
1689608809.555,-145.508,-67.871,-9.766,-162.598,252.930
1689608809.556,-206.055,-62.988,48.340,-242.188,64.941
1689608809.560,-232.422,-75.195,65.430,-250.977,-214.844
1689608809.564,-261.230,-84.473,49.805,-280.273,-84.473
1689608809.568,-270.508,-87.402,-8.789,-308.105,-56.152
1689608809.572,-281.738,-88.867,-8.301,-327.148,-86.914
1689608809.576,-307.617,-89.844,18.066,-363.281,-47.363
1689608809.580,-285.645,-88.867,17.090,-334.473,156.738
1689608809.583,-293.457,-86.426,26.855,-325.684,249.512
1689608809.587,-319.336,-105.957,12.695,-346.191,-13.184
1689608809.591,-260.742,-75.684,1.465,-284.180,-140.137
1689608809.595,-242.676,-42.480,-7.324,-262.207,-68.848
1689608809.599,-248.047,-41.992,16.113,-272.461,-54.688
1689608809.606,-275.391,-63.965,14.648,-292.480,-160.645
1689608809.610,-292.969,-99.121,-57.129,-303.223,-123.047
1689608809.614,-247.559,-86.914,-77.148,-267.090,-58.105
1689608809.618,-226.562,-95.215,-66.406,-260.254,-116.699
1689608809.622,-211.914,-104.980,-79.102,-248.047,-188.965
1689608809.626,-179.688,-96.680,-93.262,-216.309,-45.898
1689608809.630,-152.832,-92.285,-95.703,-186.035,183.594
1689608809.633,-145.996,-87.402,-107.910,-171.875,77.637
1689608809.637,-135.742,-89.844,-123.535,-156.250,-103.027
1689608809.641,-102.051,-96.680,-143.066,-134.766,-41.504
1689608809.645,-83.496,-92.285,-172.363,-125.000,68.848
1689608809.649,-87.402,-79.590,-184.082,-127.930,-67.871
1689608809.647,-68.848,-71.777,-213.867,-120.605,-129.883
1689608809.651,-41.016,-64.941,-241.699,-111.328,-28.809
1689608809.655,-21.484,-58.594,-239.258,-100.586,-27.832
1689608809.659,-20.508,-60.059,-237.305,-86.426,-145.508
1689608809.663,-8.789,-54.199,-241.211,-54.688,-188.965
1689608809.667,11.230,-50.293,-248.535,-24.414,103.516
1689608809.671,2.930,-62.500,-245.117,-29.785,634.766
1689608809.674,0.000,-57.617,-221.191,-31.250,415.527
1689608809.678,0.488,-43.945,-217.773,-24.902,-123.535
1689608809.682,9.766,-47.852,-213.867,-13.672,-191.895
1689608809.686,30.762,-55.176,-197.266,-1.465,-106.445
1689608809.690,35.156,-48.340,-199.219,-1.953,-139.648
1689608809.708,21.484,-35.156,-202.637,-13.672,-141.602
1689608809.712,17.090,-30.273,-186.523,-15.625,8.789
1689608809.716,28.320,-32.715,-174.316,4.883,-4.883
1689608809.720,32.227,-36.621,-186.035,10.254,-139.160
1689608809.724,29.785,-29.785,-187.988,1.465,-101.562
1689608809.728,38.574,-17.090,-167.480,10.742,-20.996
1689608809.732,37.598,-19.531,-163.574,6.836,-76.172
1689608809.735,28.320,-22.461,-167.969,5.371,-35.645
1689608809.739,28.809,-20.020,-165.039,23.926,32.227
1689608809.743,29.785,-20.996,-160.645,22.949,298.828
1689608809.747,17.090,-18.066,-159.180,2.441,189.941
1689608809.751,12.207,-16.113,-157.227,0.488,-214.844
1689608809.752,17.090,-19.531,-151.855,9.766,-145.996
1689608809.756,20.996,-18.555,-145.020,17.578,-84.473
1689608809.760,21.484,-18.555,-139.648,19.043,-110.840
1689608809.764,7.812,-22.461,-145.020,5.859,-34.180
1689608809.768,5.371,-20.508,-148.438,-1.465,45.410
1689608809.772,0.488,-22.949,-137.695,-2.441,59.570
1689608809.776,3.418,-19.043,-126.953,7.324,7.324
1689608809.779,0.488,-15.625,-129.395,11.230,-131.836
1689608809.783,-19.043,-25.391,-133.789,4.395,55.176
1689608809.787,-17.090,-27.344,-131.348,-7.324,231.445
1689608809.791,-7.812,-30.273,-125.488,-10.742,-83.984
1689608809.795,0.488,-30.762,-124.512,2.930,-146.973
1689608809.797,-4.395,-28.320,-129.395,-3.906,-62.012
1689608809.801,-18.555,-28.809,-124.512,-28.809,-82.520
1689608809.805,-33.203,-31.738,-118.652,-37.109,-177.246
1689608809.809,-23.438,-28.320,-112.793,-16.602,-163.086
1689608809.813,-22.461,-19.531,-118.164,-28.320,-77.637
1689608809.817,-37.109,-20.508,-123.535,-56.152,-53.223
1689608809.821,-37.109,-20.508,-123.047,-63.965,29.785
1689608809.824,-44.434,-14.160,-126.465,-63.965,-5.371
1689608809.828,-54.199,-15.137,-133.789,-63.477,343.750
1689608809.832,-48.340,-20.020,-136.719,-62.012,434.082
1689608809.836,-32.227,-20.508,-135.742,-44.434,-122.070
1689608809.840,-25.879,-20.020,-128.418,-41.504,-219.238
1689608809.842,-27.344,-17.578,-123.047,-57.617,-175.293
1689608809.846,-42.480,-19.043,-124.023,-58.594,-216.797
1689608809.850,-43.945,-25.879,-127.930,-40.039,-150.391
1689608809.854,-34.668,-27.344,-135.742,-33.203,-89.355
1689608809.858,-39.062,-26.855,-128.418,-40.039,-108.887
1689608809.862,-37.109,-28.320,-117.188,-42.969,-45.898
1689608809.866,-39.551,-27.832,-118.164,-42.969,-5.859
1689608809.869,-44.434,-33.203,-115.234,-32.715,194.336
1689608809.873,-44.922,-33.691,-111.328,-27.832,319.824
1689608809.877,-41.504,-27.832,-110.840,-42.969,-95.215
1689608809.881,-46.875,-31.738,-110.840,-55.664,-252.930
1689608809.885,-57.617,-39.062,-116.699,-66.895,-73.730
1689608809.886,-54.688,-41.504,-110.352,-67.383,-34.180
1689608809.890,-55.176,-37.109,-92.773,-57.617,-130.371
1689608809.894,-58.594,-35.156,-89.844,-60.059,-144.043
1689608809.898,-59.082,-41.016,-94.727,-70.312,-116.211
1689608809.902,-59.082,-40.527,-92.285,-74.707,-72.754
1689608809.906,-61.035,-42.480,-87.402,-75.195,-47.363
1689608809.910,-50.781,-44.434,-89.355,-65.430,-43.457
1689608809.913,-47.363,-41.504,-87.891,-62.500,407.715
1689608809.917,-62.988,-42.480,-90.820,-87.402,356.445
1689608809.921,-68.848,-39.551,-85.938,-91.309,-265.137
1689608809.925,-75.684,-33.691,-77.148,-69.336,-108.887
1689608809.929,-67.871,-34.668,-77.148,-66.406,109.863
1689608809.932,-50.293,-37.109,-74.219,-68.848,-101.074
1689608809.936,-52.734,-34.180,-68.359,-70.312,-171.387
1689608809.940,-53.223,-35.645,-66.406,-77.637,-151.855
1689608809.944,-58.105,-37.109,-66.406,-80.078,-132.812
1689608809.948,-55.176,-37.109,-71.289,-76.660,-145.996
1689608809.952,-38.574,-38.086,-67.383,-68.359,-107.910
1689608809.956,-51.758,-34.180,-62.012,-72.266,183.105
1689608809.959,-56.641,-31.738,-58.105,-76.172,223.145
1689608809.963,-49.316,-34.180,-54.688,-67.383,-133.301
1689608809.967,-50.293,-36.621,-58.594,-59.082,-154.297
1689608809.971,-41.992,-38.086,-60.059,-53.711,-59.570
1689608809.975,-43.945,-37.109,-59.570,-59.082,-76.660
1689608809.978,-65.918,-40.039,-59.082,-69.824,-153.320
1689608809.982,-59.570,-42.480,-59.082,-69.336,-104.980
1689608809.986,-51.270,-41.016,-59.570,-65.430,33.691
1689608809.990,-45.898,-39.551,-57.129,-57.617,-24.902
1689608809.994,-43.945,-41.504,-59.082,-60.059,-135.254
1689608809.998,-57.617,-48.828,-61.035,-71.777,-12.695
1689608810.002,-55.176,-49.805,-53.223,-69.336,197.754
1689608810.005,-52.734,-42.969,-50.781,-63.965,88.379
1689608810.009,-53.711,-36.133,-53.711,-62.988,-90.820
1689608810.013,-50.293,-39.062,-54.199,-76.172,-17.090
1689608810.017,-51.270,-47.363,-53.223,-86.426,157.227
1689608810.021,-61.035,-47.852,-56.641,-83.008,-19.531
1689608810.022,-59.082,-47.363,-52.246,-70.801,-162.109
1689608810.026,-41.992,-43.945,-48.828,-64.941,-70.801
1689608810.030,-54.199,-38.574,-55.176,-72.266,-67.871
1689608810.034,-62.500,-41.992,-56.641,-80.078,-64.453
1689608810.038,-67.383,-48.828,-54.688,-81.543,-171.875
1689608810.042,-62.500,-47.852,-58.105,-78.125,70.312
1689608810.046,-45.898,-48.340,-62.012,-73.242,357.422
1689608810.049,-44.922,-44.434,-58.105,-68.359,-23.438
1689608810.053,-58.594,-41.504,-48.828,-73.730,-186.523
1689608810.057,-57.129,-41.992,-46.387,-68.359,-55.664
1689608810.061,-59.570,-37.109,-54.199,-71.289,-66.406
1689608810.065,-54.199,-30.273,-55.176,-76.172,-136.719
1689608810.082,-41.992,-31.738,-52.734,-67.871,-82.520
1689608810.086,-48.828,-34.668,-56.152,-77.148,-73.242
1689608810.090,-59.082,-32.715,-50.781,-77.637,-127.930
1689608810.094,-60.059,-34.668,-39.551,-62.500,-147.461
1689608810.098,-52.246,-38.574,-42.969,-56.152,-85.449
1689608810.102,-50.293,-46.875,-50.781,-62.988,83.008
1689608810.106,-60.059,-49.805,-50.293,-69.824,10.254
1689608810.109,-70.801,-42.969,-48.828,-73.730,-125.977
1689608810.113,-68.848,-39.551,-51.758,-65.918,29.785
1689608810.117,-59.082,-39.062,-49.316,-52.734,392.578
1689608810.121,-49.316,-42.969,-48.828,-53.223,290.039
1689608810.125,-54.199,-40.527,-51.270,-65.918,-121.094
1689608810.126,-59.570,-36.621,-50.781,-76.660,-112.793
1689608810.130,-59.082,-36.621,-54.688,-71.289,-102.051
1689608810.134,-60.059,-44.434,-50.781,-57.617,-158.691
1689608810.138,-46.875,-43.457,-43.457,-54.199,-130.371
1689608810.142,-50.293,-37.598,-42.969,-64.941,-69.336
1689608810.146,-63.477,-39.551,-45.898,-73.730,60.547
1689608810.150,-57.617,-38.574,-47.363,-70.801,65.918
1689608810.153,-48.340,-40.039,-40.527,-58.594,-156.738
1689608810.157,-44.922,-38.086,-36.621,-45.898,141.113
1689608810.161,-39.551,-31.738,-40.039,-48.340,426.270
1689608810.165,-53.223,-40.527,-43.945,-72.754,-54.199
1689608810.169,-67.383,-45.410,-42.969,-78.613,-244.141
1689608810.172,-55.176,-38.086,-39.551,-59.570,-106.445
1689608810.176,-58.594,-41.016,-46.387,-59.570,-61.035
1689608810.180,-66.895,-39.551,-44.434,-69.824,-141.602
1689608810.184,-63.965,-36.621,-33.203,-70.801,-204.102
1689608810.188,-66.895,-35.645,-33.691,-62.012,-103.516
1689608810.192,-68.359,-38.086,-42.480,-57.129,9.277
1689608810.196,-57.129,-46.875,-47.363,-58.105,-15.625
1689608810.199,-49.805,-47.852,-46.387,-60.547,19.531
1689608810.203,-59.082,-39.551,-38.086,-58.105,340.820
1689608810.207,-67.871,-39.551,-37.598,-60.059,219.727
1689608810.211,-65.430,-37.109,-42.969,-65.430,-233.887
1689608810.215,-51.758,-29.297,-35.645,-58.594,23.926
1689608810.216,-54.199,-33.691,-38.086,-59.082,171.875
1689608810.220,-64.941,-36.621,-46.387,-68.359,-143.066
1689608810.224,-55.176,-34.668,-43.945,-67.871,-237.305
1689608810.228,-55.176,-31.738,-36.133,-57.129,-155.762
1689608810.232,-52.734,-32.715,-38.086,-42.969,-78.125
1689608810.236,-50.781,-40.527,-43.945,-49.805,-46.387
1689608810.240,-47.363,-35.156,-35.645,-55.176,-61.523
1689608810.243,-50.781,-29.297,-32.715,-44.922,77.637
1689608810.247,-51.758,-32.227,-33.203,-41.016,148.438
1689608810.251,-40.527,-30.273,-33.203,-42.480,-131.348
1689608810.255,-39.062,-34.668,-35.645,-53.223,-177.246
1689608810.259,-55.664,-40.039,-37.598,-60.547,-104.492
1689608810.263,-72.754,-39.062,-40.039,-65.918,-135.742
1689608810.267,-57.129,-37.109,-34.668,-59.570,-119.629
1689608810.271,-36.133,-37.598,-32.227,-49.805,-38.574
1689608810.275,-41.992,-39.062,-39.551,-57.617,29.785
1689608810.279,-49.805,-36.133,-37.109,-59.082,-2.441
1689608810.283,-53.223,-34.180,-36.621,-59.570,-69.336
1689608810.287,-60.547,-38.086,-42.969,-64.453,-29.297
1689608810.290,-49.805,-34.668,-45.410,-53.711,289.551
1689608810.294,-44.922,-24.902,-41.504,-45.898,246.582
1689608810.298,-56.152,-31.738,-36.133,-62.988,-180.176
1689608810.302,-64.941,-39.062,-44.434,-69.824,-93.262
1689608810.306,-70.312,-37.109,-47.363,-61.035,-39.062
1689608810.306,-66.895,-41.016,-39.062,-57.617,-149.414
1689608810.310,-58.105,-42.480,-35.645,-48.828,-130.371
1689608810.314,-71.777,-40.527,-37.109,-56.641,-69.824
1689608810.318,-81.543,-37.598,-44.434,-67.383,-85.449
1689608810.322,-67.383,-33.691,-46.387,-54.688,-87.891
1689608810.326,-61.035,-40.527,-41.992,-52.246,4.395
1689608810.330,-50.781,-43.945,-42.969,-52.246,194.824
1689608810.333,-51.270,-40.039,-39.062,-43.945,299.316
1689608810.337,-69.824,-41.992,-35.156,-61.035,-67.871
1689608810.341,-77.148,-45.410,-38.574,-72.754,-230.469
1689608810.345,-65.918,-43.457,-38.574,-56.152,-140.137
1689608810.349,-60.547,-41.992,-37.109,-44.434,-104.492
1689608810.352,-61.035,-47.852,-40.527,-50.293,-81.055
1689608810.356,-62.988,-45.410,-41.504,-64.941,-82.520
1689608810.360,-78.125,-41.992,-42.480,-68.848,-72.754
1689608810.364,-76.172,-43.945,-40.039,-59.082,-89.355
1689608810.368,-60.547,-40.527,-35.645,-47.363,-111.328
1689608810.372,-63.477,-41.504,-40.039,-51.758,20.020
1689608810.376,-71.289,-45.898,-44.434,-66.406,213.379
1689608810.379,-71.777,-46.387,-44.922,-68.359,60.059
1689608810.383,-61.523,-44.434,-38.086,-53.711,-105.469
1689608810.387,-46.875,-42.480,-37.109,-45.410,11.719
1689608810.391,-58.105,-40.527,-43.457,-49.316,36.621
1689608810.395,-68.359,-34.668,-38.086,-58.594,-93.262
1689608810.397,-61.523,-30.762,-37.109,-62.500,-190.430
1689608810.401,-54.688,-32.227,-41.504,-52.246,-61.523
1689608810.405,-48.340,-33.691,-41.504,-51.270,265.137
1689608810.409,-42.480,-34.668,-41.992,-59.082,66.895
1689608810.413,-46.875,-35.156,-40.039,-61.523,-190.918
1689608810.417,-53.711,-40.039,-40.039,-61.035,-124.023
1689608810.421,-51.270,-40.039,-37.109,-58.105,-24.902
1689608810.424,-48.340,-38.574,-30.273,-51.270,-23.438
1689608810.428,-44.434,-43.945,-31.250,-50.293,-109.863
1689608810.432,-50.781,-43.457,-28.320,-52.246,153.809
1689608810.436,-67.871,-41.992,-30.762,-59.570,238.281
1689608810.440,-68.359,-41.016,-32.227,-63.477,-109.863
1689608810.457,-56.152,-47.363,-34.668,-53.711,-170.410
1689608810.461,-48.340,-53.711,-38.086,-52.246,-97.168
1689608810.465,-48.828,-50.293,-36.621,-62.012,-90.820
1689608810.469,-52.246,-40.039,-36.621,-65.918,-182.129
1689608810.473,-63.965,-41.016,-35.645,-59.570,-161.621
1689608810.477,-63.965,-42.969,-40.039,-54.199,-12.207
1689608810.481,-47.852,-34.668,-34.668,-47.852,40.527
1689608810.484,-55.176,-40.039,-38.574,-57.617,27.344
1689608810.488,-56.641,-46.875,-40.527,-68.359,-10.742
1689608810.492,-59.082,-43.945,-40.527,-61.523,233.398
1689608810.496,-64.941,-41.504,-45.898,-57.617,169.922
1689608810.500,-51.758,-46.387,-40.039,-67.383,-132.324
1689608810.502,-56.641,-48.828,-36.621,-67.871,-10.254
1689608810.506,-52.734,-42.480,-34.668,-61.523,-22.949
1689608810.510,-53.711,-40.527,-36.133,-61.035,-167.480
1689608810.514,-56.641,-45.410,-39.551,-56.641,-205.078
1689608810.518,-48.340,-44.434,-41.016,-62.012,-22.461
1689608810.522,-52.246,-41.992,-34.668,-62.500,84.961
1689608810.526,-57.129,-39.551,-28.809,-68.359,4.883
1689608810.529,-62.988,-36.133,-34.180,-71.777,-103.516
1689608810.533,-62.988,-33.691,-34.668,-53.711,52.246
1689608810.537,-50.781,-35.156,-39.551,-49.316,255.371
1689608810.541,-43.945,-37.598,-39.551,-54.199,-41.016
1689608810.545,-47.363,-38.574,-39.551,-54.688,-137.695
1689608810.548,-48.340,-37.109,-44.434,-56.641,-99.121
1689608810.552,-52.734,-38.574,-45.410,-59.082,-138.672
1689608810.556,-43.945,-40.527,-45.410,-58.105,-113.770
1689608810.560,-42.969,-42.480,-43.945,-55.664,-68.848
1689608810.564,-59.082,-40.039,-41.992,-60.059,2.441
1689608810.568,-62.012,-34.180,-41.504,-61.035,44.434
1689608810.572,-64.453,-37.598,-43.945,-57.129,-13.184
1689608810.575,-60.059,-38.086,-46.875,-59.570,-12.207
1689608810.579,-55.664,-39.551,-48.828,-58.594,302.734
1689608810.583,-55.664,-41.016,-46.875,-64.941,233.398
1689608810.587,-54.688,-39.551,-42.969,-68.359,-176.758
1689608810.591,-56.152,-38.086,-43.945,-59.570,-102.539
1689608810.592,-45.410,-31.250,-38.574,-41.016,-16.113
1689608810.596,-37.598,-32.715,-27.344,-34.180,-161.133
1689608810.600,-42.480,-33.691,-30.762,-51.758,-190.430
1689608810.604,-49.316,-26.855,-34.180,-58.594,-129.883
1689608810.608,-48.828,-24.414,-25.391,-41.504,-57.617
1689608810.612,-45.410,-30.762,-21.484,-31.250,-25.879
1689608810.616,-51.270,-40.039,-32.227,-46.875,-60.547
1689608810.619,-49.316,-39.062,-39.551,-54.199,101.074
1689608810.623,-44.434,-29.297,-34.180,-40.527,288.574
1689608810.627,-39.551,-27.832,-29.297,-22.461,-13.672
1689608810.631,-39.062,-32.715,-26.855,-11.230,-149.414
1689608810.635,-32.227,-35.156,-35.645,-22.461,-62.012
1689608810.637,-30.273,-35.645,-36.621,-35.156,-96.680
1689608810.641,-46.387,-37.109,-38.086,-44.434,-139.648
1689608810.645,-53.223,-36.621,-40.039,-43.457,-89.355
1689608810.649,-50.293,-40.527,-31.738,-29.297,-29.297
1689608810.653,-35.645,-43.457,-31.250,-29.297,-35.156
1689608810.657,-29.785,-37.109,-32.715,-39.551,-4.883
1689608810.661,-37.598,-35.156,-30.762,-45.410,44.434
1689608810.664,-52.734,-37.109,-32.227,-49.805,413.086
1689608810.668,-49.805,-33.203,-32.715,-49.805,433.105
1689608810.672,-34.180,-23.438,-27.344,-41.504,-93.262
1689608810.676,-42.969,-26.855,-29.785,-46.387,-80.566
1689608810.680,-54.688,-32.227,-32.715,-62.988,54.199
1689608810.681,-55.664,-27.832,-30.273,-67.383,-172.363
1689608810.685,-52.734,-26.855,-27.832,-57.617,-205.078
1689608810.689,-58.594,-29.785,-33.203,-57.129,-62.012
1689608810.693,-56.641,-33.691,-36.621,-58.105,-84.961
1689608810.697,-57.617,-34.668,-30.273,-58.594,-145.508
1689608810.701,-61.035,-35.645,-27.832,-55.664,-104.004
1689608810.705,-49.805,-33.691,-33.691,-47.363,169.922
1689608810.708,-53.711,-30.273,-38.574,-43.457,298.828
1689608810.712,-51.758,-33.691,-37.109,-55.664,-88.379
1689608810.716,-56.641,-36.621,-36.621,-68.359,-186.523
1689608810.720,-61.035,-29.297,-31.738,-66.406,-13.672
1689608810.724,-46.875,-27.832,-23.926,-59.570,41.016
1689608810.727,-39.551,-34.668,-30.273,-56.641,-76.172
1689608810.731,-41.992,-33.691,-36.621,-59.082,-83.984
1689608810.735,-52.734,-33.203,-36.621,-70.801,-62.500
1689608810.739,-59.570,-32.715,-37.109,-76.172,-106.445
1689608810.743,-65.430,-34.668,-34.668,-63.965,-140.137
1689608810.747,-62.500,-38.086,-39.062,-55.176,-6.348
1689608810.751,-51.270,-33.203,-40.039,-56.152,264.160
1689608810.754,-55.176,-28.320,-32.227,-70.312,92.773
1689608810.758,-61.035,-24.414,-29.785,-71.777,-187.988
1689608810.762,-55.176,-22.949,-27.832,-58.105,-81.543
1689608810.766,-47.852,-29.785,-28.320,-47.363,134.766
1689608810.770,-46.875,-31.738,-34.180,-60.059,21.973
1689608810.773,-51.758,-31.738,-35.156,-64.941,-112.305
1689608810.777,-59.082,-34.668,-29.785,-56.152,-22.949
1689608810.781,-56.641,-36.621,-28.809,-55.664,23.926
1689608810.785,-61.523,-39.551,-31.738,-56.641,-120.605
1689608810.789,-67.383,-37.598,-39.062,-63.965,-129.883
1689608810.793,-59.570,-33.691,-36.133,-67.383,5.371
1689608810.797,-70.312,-35.156,-31.250,-67.871,51.270
1689608810.800,-82.031,-42.969,-36.621,-72.266,-62.012
1689608810.804,-66.895,-42.480,-37.109,-59.570,-198.242
1689608810.808,-55.664,-32.715,-32.715,-52.246,59.082
1689608810.812,-56.641,-27.832,-31.250,-61.523,165.039
1689608810.816,-74.219,-29.297,-34.180,-73.730,-113.770
1689608810.833,-85.938,-31.250,-32.227,-69.336,-141.602
1689608810.837,-58.105,-31.738,-30.273,-51.758,-90.820
1689608810.841,-46.875,-34.668,-35.645,-45.898,27.344
1689608810.845,-45.410,-30.273,-37.598,-53.223,-32.227
1689608810.849,-51.758,-28.320,-33.691,-55.176,-103.027
1689608810.853,-64.941,-32.715,-36.621,-50.781,167.480
1689608810.857,-53.223,-32.227,-35.645,-41.992,163.086
1689608810.860,-41.992,-32.227,-31.250,-41.016,-33.691
1689608810.864,-44.434,-31.738,-31.738,-55.176,-51.270
1689608810.868,-53.223,-30.762,-32.227,-53.711,176.758
1689608810.872,-58.105,-29.297,-32.227,-50.781,65.430
1689608810.876,-56.641,-30.273,-32.227,-46.387,-197.266
1689608810.877,-43.945,-29.785,-30.762,-40.039,-100.098
1689608810.881,-40.039,-29.785,-35.156,-51.758,-81.055
1689608810.885,-45.898,-35.156,-41.504,-62.988,-164.551
1689608810.889,-59.570,-33.203,-34.180,-59.570,-177.246
1689608810.893,-58.105,-29.297,-27.344,-46.875,-140.137
1689608810.897,-49.316,-39.551,-34.180,-46.387,-32.715
1689608810.901,-48.340,-47.363,-37.109,-55.176,-37.109
1689608810.904,-49.805,-44.434,-35.645,-60.547,-111.816
1689608810.908,-63.965,-38.574,-39.062,-59.570,99.121
1689608810.912,-69.824,-33.691,-32.227,-48.828,311.035
1689608810.916,-60.059,-36.133,-28.320,-43.457,26.855
1689608810.920,-47.363,-39.062,-34.180,-50.781,-116.699
1689608810.921,-54.199,-37.598,-35.156,-57.129,-32.715
1689608810.925,-70.801,-36.621,-37.109,-61.523,-101.074
1689608810.929,-65.918,-34.668,-35.156,-62.500,-179.688
1689608810.933,-48.340,-30.762,-32.227,-50.781,-158.691
1689608810.937,-34.668,-29.785,-34.668,-41.992,-50.293
1689608810.941,-42.969,-36.133,-34.668,-51.270,42.480
1689608810.945,-48.828,-35.645,-38.086,-65.430,-26.367
1689608810.948,-44.434,-33.691,-37.598,-62.988,-7.324
1689608810.952,-49.316,-36.133,-36.621,-44.434,417.969
1689608810.956,-51.270,-35.156,-40.039,-43.457,502.441
1689608810.960,-52.734,-33.691,-35.645,-58.105,-1.953
1689608810.964,-54.688,-31.250,-26.855,-55.664,-223.633
1689608810.966,-47.852,-28.320,-22.949,-45.898,-183.594
1689608810.970,-49.316,-32.715,-29.297,-49.805,-197.754
1689608810.974,-56.152,-38.086,-36.133,-61.523,-187.012
1689608810.978,-56.152,-36.133,-38.574,-74.219,-124.512
1689608810.982,-54.688,-31.250,-43.457,-91.797,-120.117
1689608810.986,-52.734,-33.203,-41.504,-75.684,-114.746
1689608810.990,-56.641,-32.715,-31.250,-43.457,-86.914
1689608810.993,-48.828,-32.227,-25.391,-39.551,112.793
1689608810.997,-41.016,-33.691,-22.949,-41.504,208.008
1689608811.001,-56.152,-35.645,-25.391,-51.270,-74.219
1689608811.005,-60.059,-36.133,-27.832,-55.176,-121.582
1689608811.009,-42.969,-36.133,-26.855,-30.273,-17.578
1689608811.011,-31.250,-34.668,-32.227,-28.320,-47.852
1689608811.015,-58.594,-34.668,-35.156,-63.965,-141.113
1689608811.019,-67.871,-31.738,-31.738,-78.125,-94.727
1689608811.023,-64.941,-33.203,-30.762,-77.637,-92.285
1689608811.027,-84.473,-43.945,-29.297,-85.938,-112.305
1689608811.031,-67.383,-42.480,-37.109,-84.961,-16.113
1689608811.035,-54.199,-32.227,-41.504,-75.684,33.691
1689608811.038,-64.453,-37.109,-40.527,-79.102,371.582
1689608811.042,-67.871,-44.922,-43.457,-80.078,356.445
1689608811.046,-73.242,-43.945,-45.898,-69.824,-133.789
1689608811.050,-53.711,-41.504,-45.898,-57.617,-49.316
1689608811.054,-31.738,-41.504,-42.480,-54.688,20.508
1689608811.058,-49.316,-40.039,-36.133,-62.500,-111.816
1689608811.062,-71.777,-43.457,-34.668,-60.059,-192.871
1689608811.066,-64.453,-46.387,-36.621,-49.805,-85.938
1689608811.070,-44.922,-43.945,-43.945,-51.758,21.484
1689608811.074,-58.594,-41.992,-46.875,-66.895,-138.672
1689608811.078,-63.965,-38.086,-49.316,-73.730,-111.816
1689608811.082,-51.270,-36.133,-47.363,-70.801,245.117
1689608811.085,-56.641,-39.551,-41.992,-64.941,237.793
1689608811.089,-42.480,-35.156,-41.016,-53.223,-137.695
1689608811.093,-26.367,-33.691,-33.691,-55.664,-137.207
1689608811.097,-49.316,-41.016,-34.668,-58.594,-122.070
1689608811.101,-67.871,-38.574,-42.969,-54.199,-174.316
1689608811.102,-59.082,-33.691,-40.039,-52.734,-160.645
1689608811.106,-39.551,-36.621,-31.250,-45.898,-71.777
1689608811.110,-30.273,-34.668,-34.668,-40.527,37.109
1689608811.114,-43.457,-28.809,-37.109,-54.688,9.277
1689608811.118,-58.105,-29.297,-38.574,-68.848,-111.328
1689608811.122,-63.477,-36.133,-39.551,-55.176,-37.598
1689608811.126,-55.664,-42.969,-34.668,-34.668,407.227
1689608811.129,-40.527,-38.574,-32.227,-35.156,386.719
1689608811.133,-40.039,-34.668,-31.250,-58.105,-136.719
1689608811.137,-46.875,-31.738,-31.738,-65.430,-153.809
1689608811.141,-46.875,-28.320,-29.785,-59.082,-1.953
1689608811.145,-40.039,-26.855,-27.832,-48.828,-104.492
1689608811.147,-32.227,-24.902,-25.391,-41.992,-153.320
1689608811.151,-36.133,-28.320,-31.738,-53.223,-94.727
1689608811.155,-46.387,-26.367,-36.621,-65.918,-88.867
1689608811.159,-47.363,-30.273,-33.691,-56.641,-143.555
1689608811.163,-55.664,-34.668,-33.691,-41.504,-115.723
1689608811.167,-59.570,-27.832,-34.180,-41.016,66.895
1689608811.171,-56.641,-28.320,-31.250,-50.781,85.938
1689608811.174,-68.359,-39.062,-28.809,-62.012,-81.055
1689608811.178,-82.520,-40.527,-33.203,-64.941,-168.945
1689608811.182,-76.172,-39.062,-37.109,-59.570,97.168
1689608811.186,-59.082,-37.598,-34.180,-50.781,264.648
1689608811.190,-50.781,-33.691,-32.715,-52.734,-97.656
1689608811.207,-62.500,-36.621,-33.691,-57.617,-196.777
1689608811.211,-64.453,-32.227,-33.203,-50.781,-55.664
1689608811.215,-52.246,-24.414,-32.715,-41.504,-101.562
1689608811.219,-53.711,-34.668,-38.086,-46.387,-175.781
1689608811.223,-56.152,-38.086,-40.039,-54.199,-60.547
1689608811.227,-56.641,-31.250,-34.180,-55.664,104.004
1689608811.231,-67.383,-33.691,-29.785,-58.105,59.082
1689608811.234,-70.801,-38.574,-33.203,-53.711,-47.363
1689608811.238,-54.199,-35.645,-37.109,-41.504,17.090
1689608811.242,-63.965,-31.738,-41.504,-56.152,327.148
1689608811.246,-75.195,-33.203,-45.410,-71.289,279.297
1689608811.250,-70.312,-34.180,-40.527,-72.266,-156.250
1689608811.252,-79.590,-29.785,-36.133,-62.988,-166.992
1689608811.256,-66.406,-22.949,-32.227,-45.410,-95.215
1689608811.260,-51.758,-22.949,-28.320,-44.434,-163.574
1689608811.264,-62.500,-35.645,-33.691,-48.828,-166.504
1689608811.268,-63.965,-38.086,-44.434,-53.711,-121.582
1689608811.272,-58.594,-29.785,-41.504,-44.922,-29.785
1689608811.276,-52.734,-31.738,-31.250,-34.668,-16.602
1689608811.279,-46.387,-31.250,-39.551,-37.109,-74.219
1689608811.283,-47.363,-32.715,-42.969,-41.992,128.418
1689608811.287,-55.664,-34.180,-34.668,-52.246,187.500
1689608811.291,-57.129,-32.227,-32.715,-50.781,-32.227
1689608811.295,-59.082,-34.668,-37.598,-39.062,-92.773
1689608811.296,-52.246,-32.715,-33.691,-35.156,-41.016
1689608811.300,-41.504,-30.762,-33.691,-41.016,-24.414
1689608811.304,-41.504,-30.273,-37.598,-55.664,-123.535
1689608811.308,-44.922,-27.832,-34.668,-52.734,-101.562
1689608811.312,-36.133,-27.344,-31.250,-31.250,-38.086
1689608811.316,-32.227,-31.250,-34.180,-32.715,75.684
1689608811.320,-38.574,-37.109,-36.621,-47.363,56.152
1689608811.323,-46.387,-37.109,-39.551,-51.270,-41.992
1689608811.327,-47.852,-36.133,-40.039,-49.805,200.684
1689608811.331,-37.109,-34.668,-43.457,-39.551,114.258
1689608811.335,-25.391,-32.715,-39.551,-30.273,-154.785
1689608811.339,-27.344,-29.785,-35.156,-32.227,-29.297
1689608811.342,-32.227,-24.902,-35.156,-29.297,156.250
1689608811.346,-28.809,-24.902,-35.156,-20.508,-57.617
1689608811.350,-35.156,-25.391,-34.668,-20.508,-200.195
1689608811.354,-38.574,-28.320,-38.086,-26.367,-17.090
1689608811.358,-34.668,-28.809,-40.039,-39.551,-4.883
1689608811.362,-40.527,-23.926,-35.156,-51.758,-155.273
1689608811.366,-41.992,-22.461,-41.016,-56.641,-174.805
1689608811.369,-45.410,-27.832,-42.969,-56.641,69.824
1689608811.373,-44.922,-32.715,-38.086,-52.734,197.754
1689608811.377,-34.668,-32.227,-36.621,-42.969,-108.887
1689608811.381,-44.434,-32.715,-35.645,-39.062,-204.102
1689608811.385,-57.617,-31.738,-38.574,-42.480,-148.438
1689608811.386,-53.223,-33.203,-39.062,-47.852,-88.379
1689608811.390,-47.852,-34.180,-37.109,-51.758,-62.012
1689608811.394,-41.992,-27.832,-30.762,-49.316,-68.848
1689608811.398,-44.434,-26.367,-28.320,-59.082,-23.926
1689608811.402,-62.500,-31.250,-26.367,-64.941,-89.844
1689608811.406,-61.035,-27.832,-20.508,-54.688,-53.711
1689608811.410,-42.969,-25.879,-23.438,-48.340,99.121
1689608811.413,-37.109,-28.809,-26.855,-50.781,221.191
1689608811.417,-47.852,-33.203,-30.762,-57.129,79.102
1689608811.421,-66.895,-38.574,-32.227,-67.383,-154.297
1689608811.425,-76.660,-35.645,-27.344,-68.848,-102.539
1689608811.429,-61.523,-31.250,-21.973,-53.223,288.574
1689608811.432,-55.664,-26.367,-25.879,-60.547,196.289
1689608811.436,-72.754,-29.785,-31.250,-84.473,-172.363
1689608811.440,-67.383,-31.738,-31.250,-80.566,-139.160
1689608811.444,-56.152,-27.832,-26.855,-59.570,-150.391
1689608811.448,-47.852,-24.902,-22.461,-49.805,-190.430
1689608811.452,-40.039,-25.879,-26.367,-53.223,-100.098
1689608811.456,-47.363,-30.762,-29.785,-59.082,175.781
1689608811.459,-47.852,-27.832,-25.879,-63.965,306.152
1689608811.463,-48.828,-27.344,-19.531,-59.570,-46.875
1689608811.467,-48.340,-30.273,-21.973,-56.641,-184.082
1689608811.471,-35.645,-31.250,-26.367,-54.199,-6.836
1689608811.475,-46.875,-33.691,-30.762,-58.105,-50.293
1689608811.477,-71.289,-31.250,-33.691,-68.848,-222.168
1689608811.481,-69.824,-35.156,-32.227,-67.871,-165.527
1689608811.485,-60.059,-43.457,-26.855,-52.734,-113.770
1689608811.489,-63.477,-45.410,-29.297,-47.852,-94.727
1689608811.493,-56.152,-40.527,-30.273,-48.828,-111.816
1689608811.497,-51.270,-27.344,-27.832,-44.434,-38.574
1689608811.501,-58.105,-24.414,-26.367,-44.922,245.117
1689608811.504,-50.781,-34.180,-18.555,-38.086,194.824
1689608811.508,-44.922,-33.203,-17.090,-29.785,-39.062
1689608811.512,-41.016,-26.855,-14.648,-27.344,-30.273
1689608811.516,-40.039,-30.762,-13.184,-32.227,178.711
1689608811.520,-54.199,-37.109,-22.461,-38.574,40.527
1689608811.522,-49.805,-36.133,-25.391,-34.668,-171.875
1689608811.526,-40.527,-32.715,-29.785,-41.016,-38.086
1689608811.530,-52.246,-32.227,-36.133,-52.734,-62.500
1689608811.534,-55.664,-31.738,-33.203,-58.105,-222.168
1689608811.538,-49.805,-30.762,-27.832,-56.152,-195.312
1689608811.542,-43.945,-29.297,-23.926,-42.969,-34.180
1689608811.546,-41.992,-27.344,-29.785,-34.668,49.316
1689608811.549,-41.992,-27.344,-34.668,-47.363,-7.812
1689608811.553,-42.480,-28.320,-25.879,-58.105,-163.086
1689608811.557,-44.922,-23.438,-22.461,-54.199,21.484
1689608811.561,-43.945,-23.926,-26.855,-55.176,193.359
1689608811.565,-34.180,-33.691,-29.297,-45.410,-20.508
1689608811.596,-26.367,-36.133,-27.344,-40.527,-127.441
1689608811.600,-38.574,-39.551,-30.273,-49.316,-54.688
1689608811.604,-47.852,-41.016,-35.645,-54.688,-65.430
1689608811.608,-51.270,-37.109,-35.645,-51.270,-202.148
1689608811.612,-46.875,-37.598,-39.551,-44.922,-87.402
1689608811.616,-41.504,-39.551,-38.086,-49.316,101.074
1689608811.620,-42.969,-34.180,-37.109,-54.199,18.555
1689608811.623,-57.129,-32.715,-40.527,-58.594,12.695
1689608811.627,-59.570,-36.621,-33.691,-54.199,36.133
1689608811.631,-41.504,-38.086,-31.738,-40.039,296.875
1689608811.635,-32.715,-32.227,-34.180,-37.598,241.211
1689608811.639,-38.574,-29.785,-36.133,-49.805,-156.250
1689608811.626,-47.363,-33.203,-35.645,-53.711,-99.121
1689608811.630,-36.621,-26.367,-30.273,-47.852,-29.785
1689608811.634,-19.531,-18.555,-33.691,-42.969,-131.836
1689608811.638,-20.020,-25.879,-36.621,-34.668,-156.738
1689608811.642,-37.109,-34.668,-34.180,-37.598,-12.695
1689608811.646,-43.457,-36.133,-39.551,-48.340,59.570
1689608811.650,-48.828,-37.109,-40.039,-49.805,-45.898
1689608811.653,-47.852,-31.250,-29.297,-29.297,-136.230
1689608811.657,-40.039,-32.227,-26.367,-25.879,-53.223
1689608811.661,-42.480,-40.527,-34.668,-46.387,-33.691
1689608811.665,-50.293,-30.762,-40.527,-56.641,-121.094
1689608811.669,-53.223,-26.367,-38.086,-52.246,-150.391
1689608811.671,-45.410,-30.762,-34.180,-43.457,144.043
1689608811.675,-31.250,-23.438,-35.156,-41.016,234.863
1689608811.679,-32.715,-23.438,-32.227,-49.805,-110.840
1689608811.683,-41.504,-25.879,-36.133,-63.965,-102.051
1689608811.687,-34.668,-24.414,-34.180,-62.988,-1.465
1689608811.691,-37.109,-29.297,-21.973,-51.758,45.410
1689608811.695,-46.387,-32.715,-20.996,-57.129,-39.551
1689608811.698,-42.480,-30.762,-26.367,-68.848,-90.820
1689608811.702,-49.805,-29.785,-20.996,-66.895,213.867
1689608811.706,-61.035,-30.762,-20.020,-67.383,121.582
1689608811.710,-42.969,-33.203,-28.809,-72.754,-249.512
1689608811.714,-26.367,-32.227,-29.297,-64.941,-65.918
1689608811.716,-33.691,-29.785,-26.367,-62.500,141.602
1689608811.720,-49.805,-30.273,-29.297,-71.289,-74.219
1689608811.724,-60.547,-34.180,-28.320,-74.219,-175.781
1689608811.728,-44.922,-31.738,-26.367,-56.152,-88.867
1689608811.732,-39.062,-34.180,-29.297,-52.246,-43.457
1689608811.736,-56.152,-38.574,-32.227,-62.988,21.484
1689608811.740,-52.734,-34.180,-30.762,-63.965,-58.594
1689608811.743,-45.410,-30.762,-30.762,-72.266,132.324
1689608811.747,-41.504,-25.391,-33.691,-64.941,356.445
1689608811.751,-35.645,-28.809,-36.133,-57.617,-7.324
1689608811.755,-42.480,-35.156,-37.109,-62.500,-151.367
1689608811.759,-53.711,-32.227,-37.598,-65.918,-90.332
1689608811.762,-52.734,-34.180,-41.016,-75.684,-157.227
1689608811.766,-41.992,-33.203,-38.574,-73.730,-195.312
1689608811.770,-41.016,-30.762,-34.668,-61.523,-175.293
1689608811.774,-41.016,-33.691,-34.668,-49.316,-118.164
1689608811.778,-37.598,-32.227,-34.668,-56.152,-116.699
1689608811.782,-45.898,-28.320,-28.320,-64.941,-81.543
1689608811.786,-52.246,-27.344,-30.273,-50.293,1.953
1689608811.789,-40.039,-25.391,-30.273,-38.574,329.590
1689608811.793,-37.598,-25.391,-25.391,-44.922,331.543
1689608811.797,-52.734,-31.250,-30.273,-59.570,-100.098
1689608811.801,-58.594,-35.645,-33.691,-69.336,-93.750
1689608811.805,-59.082,-36.133,-32.715,-61.523,-15.625
1689608811.822,-52.246,-31.738,-27.832,-48.340,-159.180
1689608811.826,-45.898,-32.715,-29.785,-52.734,-205.566
1689608811.830,-62.012,-35.156,-36.621,-69.336,-44.434
1689608811.834,-63.965,-36.133,-34.668,-69.824,64.453
1689608811.838,-49.805,-33.691,-33.203,-52.734,-125.977
1689608811.842,-49.316,-29.785,-32.715,-40.039,-70.312
1689608811.846,-50.293,-25.879,-30.762,-35.645,220.215
1689608811.849,-48.828,-23.438,-32.227,-44.922,270.508
1689608811.853,-54.199,-29.297,-29.297,-50.293,-79.102
1689608811.857,-53.223,-26.855,-27.344,-43.457,-195.312
1689608811.861,-48.340,-26.855,-28.809,-35.645,-96.680
1689608811.865,-47.363,-33.203,-31.250,-33.691,-25.879
1689608811.852,-42.969,-36.621,-31.738,-44.922,-118.652
1689608811.856,-55.664,-41.992,-27.344,-44.434,-156.250
1689608811.860,-57.129,-39.551,-27.832,-40.527,-49.805
1689608811.864,-46.387,-34.180,-36.133,-50.781,-75.195
1689608811.868,-38.086,-28.809,-40.039,-51.270,-180.664
1689608811.872,-30.762,-23.926,-40.527,-53.223,-18.555
1689608811.876,-45.898,-27.832,-40.039,-68.359,97.168
1689608811.879,-50.293,-32.227,-38.574,-59.082,-48.828
1689608811.883,-54.199,-30.273,-39.551,-43.457,-28.809
1689608811.887,-43.457,-33.691,-38.574,-40.039,-29.297
1689608811.891,-35.645,-35.156,-37.598,-32.715,312.500
1689608811.895,-41.016,-35.645,-40.527,-38.574,322.754
1689608811.898,-59.570,-42.969,-43.457,-43.457,-191.406
1689608811.902,-55.664,-38.574,-36.621,-26.367,-60.059
1689608811.906,-30.273,-35.156,-33.203,-29.785,44.922
1689608811.910,-37.598,-39.062,-38.086,-43.457,-102.051
1689608811.914,-60.059,-38.086,-39.551,-48.340,-112.793
1689608811.918,-62.988,-41.016,-38.086,-45.410,88.867
1689608811.922,-49.316,-39.551,-36.133,-38.086,167.480
1689608811.925,-31.738,-34.180,-34.668,-36.133,-18.066
1689608811.929,-31.250,-33.203,-33.203,-38.574,-142.578
1689608811.933,-30.762,-31.250,-36.133,-47.363,-12.207
1689608811.937,-40.527,-27.832,-33.691,-50.781,8.789
1689608811.941,-52.734,-30.273,-32.227,-43.457,-191.406
1689608811.956,-38.086,-33.691,-33.691,-36.621,-145.508
1689608811.960,-38.086,-36.621,-34.668,-41.016,-85.938
1689608811.964,-44.922,-34.180,-33.203,-47.363,-115.723
1689608811.968,-47.852,-29.297,-26.855,-39.551,-156.250
1689608811.972,-45.898,-34.668,-27.832,-37.109,-34.180
1689608811.976,-44.922,-38.086,-34.668,-35.156,258.301
1689608811.980,-33.691,-32.227,-36.621,-31.738,140.137
1689608811.983,-24.414,-25.879,-33.203,-38.574,-101.562
1689608811.987,-39.062,-32.715,-29.785,-48.828,-122.559
1689608811.991,-55.664,-39.551,-29.297,-47.852,123.047
1689608811.995,-37.109,-31.250,-28.809,-32.227,113.770
1689608811.999,-31.250,-27.832,-34.180,-32.227,-130.371
1689608812.001,-40.527,-30.762,-37.109,-44.434,-67.383
1689608812.005,-34.668,-27.344,-26.855,-42.480,-74.707
1689608812.009,-53.711,-28.809,-27.344,-55.664,-107.422
1689608812.013,-42.480,-32.227,-31.250,-58.594,-81.055
1689608812.017,-20.996,-33.203,-28.809,-48.828,-53.223
1689608812.021,-28.809,-33.691,-35.156,-55.664,-69.824
1689608812.025,-47.363,-38.574,-32.715,-57.129,-16.602
1689608812.028,-61.035,-43.457,-27.344,-51.758,9.766
1689608812.032,-46.875,-33.203,-26.367,-38.086,144.043
1689608812.036,-37.598,-33.203,-28.320,-33.691,339.844
1689608812.040,-33.691,-33.203,-32.227,-52.246,-22.461
1689608812.044,-57.617,-33.691,-36.133,-64.941,-213.379
1689608812.046,-70.312,-37.598,-32.227,-53.223,-155.762
1689608812.050,-45.410,-33.691,-24.414,-31.250,-216.309
1689608812.054,-27.344,-31.250,-26.367,-22.461,-207.031
1689608812.058,-24.902,-33.203,-26.855,-29.297,-109.863
1689608812.062,-31.250,-31.250,-26.367,-33.203,-40.039
1689608812.066,-34.668,-27.832,-27.344,-35.645,-54.199
1689608812.070,-46.387,-30.762,-24.902,-33.203,-46.875
1689608812.073,-52.246,-41.504,-24.414,-17.578,62.500
1689608812.077,-42.969,-43.945,-29.785,-21.973,374.023
1689608812.081,-46.875,-31.250,-34.668,-45.410,400.391
1689608812.085,-45.410,-24.902,-37.598,-49.805,-94.238
1689608812.089,-46.387,-28.320,-37.598,-30.762,-187.988
1689608812.091,-43.945,-26.855,-36.621,-30.762,-125.488
1689608812.095,-37.598,-26.367,-36.133,-39.062,-182.617
1689608812.099,-50.293,-31.738,-33.203,-38.574,-208.496
1689608812.103,-53.711,-28.809,-27.832,-42.969,-145.020
1689608812.107,-57.129,-28.320,-27.344,-38.574,-62.012
1689608812.111,-42.480,-31.250,-31.250,-29.785,52.734
1689608812.115,-28.809,-28.320,-35.645,-41.992,48.340
1689608812.118,-37.598,-21.973,-32.227,-51.270,168.945
1689608812.122,-63.965,-20.020,-27.344,-54.199,171.875
1689608812.126,-60.547,-22.949,-26.855,-64.453,-202.148
1689608812.130,-33.203,-22.461,-23.438,-53.223,-221.680
1689608812.134,-37.598,-23.926,-20.508,-48.828,-5.371
1689608812.136,-41.992,-23.438,-28.320,-63.965,39.062
1689608812.140,-48.340,-25.391,-35.645,-65.918,-133.789
1689608812.144,-46.387,-26.367,-25.391,-51.270,-129.883
1689608812.148,-32.227,-25.391,-25.879,-54.199,-9.766
1689608812.152,-32.227,-29.297,-29.297,-67.871,-21.973
1689608812.156,-30.762,-25.879,-26.367,-63.477,-52.246
1689608812.160,-30.762,-21.484,-25.391,-61.523,-8.789
1689608812.163,-46.875,-25.391,-24.414,-59.082,305.664
1689608812.167,-49.316,-26.855,-25.879,-41.504,359.375
1689608812.171,-35.156,-28.809,-25.879,-42.969,-86.426
1689608812.175,-30.273,-26.367,-28.320,-60.059,-202.148
1689608812.179,-34.180,-30.762,-23.926,-59.570,-214.844
1689608812.198,-34.668,-30.273,-21.973,-51.758,-263.672
1689608812.202,-32.227,-24.414,-29.785,-51.270,-228.516
1689608812.206,-34.180,-31.738,-28.320,-52.734,24.902
1689608812.210,-48.828,-35.156,-24.902,-60.059,111.328
1689608812.214,-41.016,-31.738,-27.344,-75.195,-59.082
1689608812.218,-42.480,-33.203,-25.391,-73.242,-96.191
1689608812.222,-57.617,-35.156,-19.043,-49.805,125.000
1689608812.225,-42.969,-38.086,-18.066,-41.504,250.488
1689608812.229,-23.438,-36.621,-23.926,-52.246,-45.898
1689608812.233,-38.086,-35.156,-25.391,-61.035,-162.598
1689608812.237,-43.457,-35.156,-23.926,-60.059,-148.438
1689608812.241,-33.691,-28.320,-27.344,-57.617,-173.828
1689608812.227,-32.715,-32.715,-23.438,-57.129,-176.758
1689608812.231,-33.691,-35.645,-17.090,-56.641,-146.484
1689608812.235,-34.668,-27.344,-18.555,-66.895,-109.863
1689608812.239,-41.992,-28.809,-23.438,-72.754,-118.164
1689608812.243,-46.387,-31.738,-26.367,-63.965,-109.863
1689608812.247,-31.250,-32.227,-29.785,-57.129,18.066
1689608812.251,-27.344,-34.668,-30.273,-59.570,103.027
1689608812.254,-42.480,-36.621,-34.180,-70.801,1.465
1689608812.258,-44.434,-32.715,-35.645,-69.824,-92.285
1689608812.262,-51.270,-30.273,-29.297,-58.594,-83.008
1689608812.266,-54.688,-33.691,-29.297,-47.852,292.969
1689608812.270,-42.969,-38.086,-34.180,-52.246,385.742
1689608812.272,-42.480,-38.086,-34.668,-66.895,-36.621
1689608812.276,-53.223,-36.133,-31.738,-65.430,-93.262
1689608812.280,-54.199,-36.621,-34.180,-53.223,-32.227
1689608812.284,-50.781,-39.062,-32.227,-47.363,-109.863
1689608812.288,-57.129,-32.715,-37.598,-49.805,-96.191
1689608812.292,-47.852,-25.391,-39.062,-46.875,41.992
1689608812.296,-55.176,-35.645,-30.273,-55.664,24.414
1689608812.299,-83.984,-43.945,-28.809,-67.871,-41.016
1689608812.303,-75.684,-44.434,-27.832,-62.012,-113.281
1689608812.307,-69.336,-44.922,-28.320,-60.059,62.988
1689608812.311,-75.684,-39.062,-33.691,-78.613,301.270
1689608812.315,-88.379,-39.062,-39.062,-89.355,13.672
1689608812.331,-75.195,-35.156,-32.227,-63.965,-115.234
1689608812.335,-57.617,-31.250,-28.809,-44.434,-57.129
1689608812.339,-59.082,-35.156,-30.762,-39.062,-93.262
1689608812.343,-59.082,-37.598,-29.297,-41.504,-171.387
1689608812.347,-63.477,-35.156,-30.273,-49.316,-93.262
1689608812.351,-62.012,-38.086,-32.227,-47.363,35.645
1689608812.355,-63.965,-37.109,-37.109,-49.805,-67.871
1689608812.358,-56.152,-35.645,-37.598,-37.598,-46.387
1689608812.362,-48.828,-34.180,-41.504,-34.180,49.805
1689608812.366,-62.012,-30.762,-42.969,-54.688,113.770
1689608812.370,-67.383,-32.227,-36.621,-44.922,0.000
1689608812.374,-61.035,-32.715,-33.691,-32.715,-200.195
1689608812.377,-45.898,-36.133,-32.715,-32.227,-92.773
1689608812.381,-50.781,-35.156,-34.180,-30.273,295.898
1689608812.385,-51.758,-31.738,-38.574,-45.410,177.246
1689608812.389,-47.363,-33.203,-39.062,-46.875,-112.793
1689608812.393,-47.852,-34.668,-30.762,-20.996,-62.988
1689608812.397,-36.621,-30.762,-28.809,-14.648,51.758
1689608812.401,-41.016,-29.785,-34.668,-33.203,48.340
1689608812.404,-41.992,-33.691,-34.668,-46.875,-170.410
1689608812.408,-50.781,-33.203,-31.738,-46.387,-0.977
1689608812.412,-60.059,-31.738,-32.227,-31.738,163.086
1689608812.416,-41.016,-28.320,-39.062,-32.715,-160.645
1689608812.420,-38.086,-26.855,-40.039,-37.109,-163.574
1689608812.423,-44.434,-28.320,-34.668,-38.086,35.645
1689608812.427,-43.945,-28.809,-34.668,-41.016,-41.504
1689608812.431,-51.270,-35.156,-35.156,-39.062,-227.539
1689608812.435,-45.410,-34.180,-32.715,-35.645,-160.156
1689608812.439,-49.316,-33.691,-36.621,-34.180,-78.125
1689608812.443,-63.477,-37.598,-38.574,-34.668,-109.375
1689608812.447,-56.152,-35.156,-32.715,-30.273,-49.805
1689608812.450,-46.875,-36.133,-31.250,-29.297,12.207
1689608812.454,-36.133,-39.062,-28.809,-23.438,262.695
1689608812.458,-28.809,-40.527,-28.320,-21.484,257.812
1689608812.462,-33.203,-39.062,-30.273,-45.898,-152.832
1689608812.466,-41.992,-33.203,-29.297,-52.734,-152.344
1689608812.468,-39.551,-32.715,-30.273,-38.574,-105.957
1689608812.472,-24.902,-32.227,-28.809,-30.762,-172.852
1689608812.476,-17.578,-28.809,-26.855,-32.227,-106.445
1689608812.480,-26.367,-30.762,-29.785,-40.039,-12.695
1689608812.484,-34.180,-32.715,-33.691,-50.293,-55.664
1689608812.488,-40.527,-34.668,-28.809,-45.410,-81.055
1689608812.492,-35.645,-35.156,-26.367,-30.273,-95.703
1689608812.495,-20.996,-33.691,-31.250,-38.086,116.211
1689608812.499,-26.367,-31.738,-34.668,-43.945,344.238
1689608812.503,-39.062,-32.227,-36.133,-50.293,-17.090
1689608812.507,-37.109,-33.203,-34.668,-52.734,-237.305
1689608812.511,-26.855,-32.715,-29.297,-43.945,-140.137
1689608812.511,-29.297,-29.297,-23.438,-47.852,-91.309
1689608812.515,-41.016,-25.391,-27.344,-52.734,-117.676
1689608812.519,-39.062,-25.391,-29.297,-52.734,-164.551
1689608812.523,-46.387,-30.273,-24.902,-50.293,-120.117
1689608812.527,-53.711,-33.203,-31.250,-54.199,-49.805
1689608812.531,-41.992,-25.879,-38.574,-58.105,-23.926
1689608812.535,-40.039,-26.855,-31.250,-59.082,17.578
1689608812.538,-54.688,-32.715,-28.809,-64.453,411.133
1689608812.542,-55.176,-37.109,-31.738,-67.871,357.910
1689608812.546,-60.059,-38.574,-31.738,-68.359,-126.953
1689608812.550,-53.711,-33.691,-33.203,-64.941,-86.914
1689608812.554,-51.758,-30.273,-28.320,-62.500,45.898
1689608812.556,-69.336,-33.203,-23.438,-60.059,-82.031
1689608812.560,-63.477,-36.133,-24.902,-49.805,-198.730
1689608812.564,-61.523,-37.109,-30.273,-53.711,-126.953
1689608812.568,-68.359,-36.133,-30.762,-53.711,-64.941
1689608812.572,-60.547,-33.691,-25.391,-52.246,-129.395
1689608812.576,-62.988,-31.738,-30.762,-59.570,-129.883
1689608812.580,-69.824,-33.203,-30.762,-54.688,109.863
1689608812.583,-71.777,-38.574,-28.809,-46.387,268.555
1689608812.587,-61.035,-34.180,-29.785,-47.852,-16.113
1689608812.591,-54.199,-28.320,-23.926,-47.363,-152.832
1689608812.595,-65.430,-27.344,-22.461,-51.758,-38.574
1689608812.599,-76.172,-28.320,-24.902,-57.129,-35.645
1689608812.601,-70.801,-29.297,-20.996,-52.734,-104.004
1689608812.605,-58.105,-13.184,-17.090,-48.340,-110.840
1689608812.609,-58.105,-18.555,-23.926,-62.500,3.418
1689608812.613,-73.730,-42.969,-28.809,-89.355,-8.789
1689608812.617,-96.191,-37.109,-26.367,-107.910,-153.320
1689608812.621,-93.262,-27.344,-15.137,-95.703,-37.109
1689608812.625,-73.730,-20.508,-11.230,-68.359,264.648
1689608812.628,-81.543,-4.883,-23.926,-88.867,241.211
1689608812.632,-95.703,-3.418,-21.973,-112.793,-74.707
1689608812.636,-106.934,-16.113,-17.578,-113.281,-170.898
1689608812.640,-114.746,-14.648,-22.461,-99.121,179.199
1689608812.644,-112.793,-13.672,-26.367,-89.355,130.859
1689608812.648,-101.074,-14.160,-27.344,-104.492,-167.480
1689608812.652,-92.285,-5.859,-18.555,-105.469,-125.977
1689608812.656,-96.680,-8.789,-18.066,-109.375,-145.996
1689608812.660,-96.680,-15.625,-24.902,-107.422,-176.270
1689608812.664,-82.031,-11.230,-24.902,-89.355,-180.664
1689608812.668,-69.336,-13.672,-32.715,-87.891,89.844
1689608812.672,-56.152,-16.602,-35.645,-88.379,174.316
1689608812.675,-49.316,-8.789,-28.320,-80.566,-144.043
1689608812.679,-34.668,-7.324,-29.785,-58.105,-202.148
1689608812.683,-10.742,-3.906,-29.785,-25.879,24.414
1689608812.687,14.648,-0.488,-31.738,-1.953,92.773
1689608812.691,42.969,-2.441,-38.086,11.230,-120.605
1689608812.706,57.129,-1.953,-41.504,38.086,-57.129
1689608812.710,74.219,-3.906,-46.387,62.500,14.648
1689608812.714,96.680,-4.883,-54.688,83.496,-84.473
1689608812.718,129.395,-1.953,-60.547,113.281,-143.066
1689608812.722,152.344,-0.977,-62.988,132.812,-90.820
1689608812.726,151.367,0.000,-56.641,133.789,121.094
1689608812.730,156.250,-4.883,-46.387,155.762,139.648
1689608812.733,161.133,-7.812,-48.828,187.012,13.184
1689608812.737,159.180,-4.395,-55.176,189.941,-55.664
1689608812.741,169.434,-3.906,-48.828,187.988,186.523
1689608812.745,164.062,-3.906,-52.246,175.293,112.305
1689608812.749,145.508,-7.812,-63.965,158.691,-231.445
1689608812.751,144.043,-8.301,-59.570,170.898,-137.695
1689608812.755,140.137,-12.207,-54.688,164.062,-70.312
1689608812.759,132.324,-16.602,-51.758,149.414,-72.266
1689608812.763,115.234,-20.020,-50.293,136.719,-136.719
1689608812.767,89.355,-25.391,-50.293,112.305,-50.781
1689608812.771,78.125,-22.461,-46.387,114.258,73.730
1689608812.775,81.543,-19.531,-40.039,117.188,-42.969
1689608812.778,72.754,-22.461,-39.062,104.492,-184.570
1689608812.782,48.828,-24.902,-38.574,94.238,-21.484
1689608812.786,27.344,-24.902,-40.039,73.242,156.738
1689608812.790,21.973,-23.438,-40.527,69.824,-112.793
1689608812.794,31.738,-24.902,-35.156,78.125,-125.488
1689608812.796,32.715,-24.902,-31.250,74.219,-13.672
1689608812.800,38.086,-24.902,-25.879,64.941,-82.031
1689608812.804,26.855,-28.320,-28.809,51.270,-161.621
1689608812.808,14.160,-23.926,-32.227,44.922,-122.559
1689608812.812,18.066,-23.926,-26.855,47.363,-56.641
1689608812.816,18.555,-31.250,-25.879,45.410,-21.484
1689608812.820,14.160,-30.273,-20.508,33.691,46.387
1689608812.823,1.953,-24.902,-15.625,23.438,33.203
1689608812.827,-9.277,-25.391,-19.043,28.809,398.438
1689608812.831,-0.977,-22.461,-22.949,29.785,547.852
1689608812.835,15.625,-20.020,-22.949,12.207,2.441
1689608812.839,3.418,-20.020,-21.484,2.441,-194.824
1689608812.857,-13.184,-28.809,-22.949,-3.418,-157.715
1689608812.861,-24.414,-36.133,-25.391,-13.672,-255.859
1689608812.865,-32.715,-36.621,-26.367,-17.578,-286.621
1689608812.869,-32.227,-32.227,-22.949,-13.184,-178.711
1689608812.873,-30.762,-29.785,-20.996,-20.020,-123.047
1689608812.877,-38.574,-31.738,-21.484,-28.320,-101.074
1689608812.881,-46.875,-30.273,-19.531,-31.250,-70.801
1689608812.884,-43.945,-33.691,-20.996,-32.715,182.617
1689608812.888,-31.738,-39.062,-19.043,-19.531,419.922
1689608812.892,-8.789,-36.621,-12.695,-5.371,28.809
1689608812.896,-27.344,-27.832,-21.973,-35.156,-210.938
1689608812.900,-51.270,-23.926,-33.203,-53.711,-172.852
1689608812.886,-27.832,-17.578,-32.227,-28.320,-130.371
1689608812.890,-13.184,-19.043,-31.250,-25.391,-79.590
1689608812.894,-13.184,-25.391,-24.414,-28.320,-82.520
1689608812.898,-20.508,-24.902,-22.949,-36.621,-81.055
1689608812.902,-40.039,-26.367,-25.879,-44.922,-127.930
1689608812.906,-36.621,-29.297,-20.996,-37.109,-136.230
1689608812.910,-29.297,-31.738,-19.531,-26.367,23.438
1689608812.913,-26.367,-31.738,-25.391,-32.715,83.984
1689608812.917,-25.391,-32.227,-23.926,-45.410,-26.367
1689608812.921,-38.086,-33.691,-20.020,-34.180,-162.598
1689608812.925,-48.828,-35.156,-23.926,-24.414,-169.922
1689608812.929,-44.922,-34.180,-24.902,-26.855,223.145
1689608812.931,-48.828,-32.715,-25.879,-34.668,326.172
1689608812.935,-51.758,-33.691,-18.066,-47.852,-106.934
1689608812.939,-53.223,-31.738,-14.648,-50.781,-206.055
1689608812.943,-58.594,-30.762,-20.996,-40.039,-127.441
1689608812.947,-47.363,-28.809,-18.555,-31.250,-103.027
1689608812.951,-36.621,-28.320,-18.555,-30.273,-40.039
1689608812.955,-46.875,-30.762,-20.020,-36.621,186.035
1689608812.958,-63.477,-30.273,-19.531,-46.875,309.082
1689608812.962,-48.340,-29.297,-24.902,-45.898,-33.203
1689608812.966,-32.227,-32.715,-21.484,-36.621,-145.020
1689608812.970,-43.457,-34.668,-19.531,-38.574,-105.957
1689608812.974,-55.176,-33.203,-22.949,-43.945,-105.469
1689608812.978,-72.266,-31.738,-21.973,-45.898,-106.934
1689608812.982,-67.383,-30.273,-22.949,-41.016,-122.559
1689608812.986,-49.316,-32.715,-21.484,-33.691,-5.859
1689608812.990,-51.270,-35.156,-23.438,-36.621,18.555
1689608812.994,-53.711,-35.156,-26.855,-47.363,-125.488
1689608812.998,-59.570,-37.109,-26.367,-56.152,-45.898
1689608813.002,-74.219,-35.645,-23.926,-51.270,253.418
1689608813.005,-65.918,-31.250,-21.484,-36.133,126.465
1689608813.009,-46.387,-36.133,-25.879,-40.527,-106.934
1689608813.013,-42.969,-41.992,-27.832,-54.688,-77.148
1689608813.017,-56.641,-38.574,-24.414,-54.199,-62.012
1689608813.021,-61.523,-35.645,-25.391,-46.387,-159.668
1689608813.022,-53.711,-37.598,-29.785,-35.156,-232.422
1689608813.026,-44.434,-37.109,-28.809,-30.762,-31.738
1689608813.030,-44.434,-30.762,-20.508,-36.621,210.449
1689608813.034,-47.852,-31.738,-19.531,-45.898,-16.602
1689608813.038,-59.570,-35.645,-25.879,-45.898,-222.656
1689608813.042,-67.871,-40.039,-28.320,-38.086,60.547
1689608813.046,-58.594,-42.969,-28.809,-34.668,411.621
1689608813.049,-52.246,-41.016,-27.832,-41.016,87.891
1689608813.053,-56.641,-39.551,-25.391,-44.922,-191.406
1689608813.057,-51.270,-42.969,-25.391,-41.016,-33.203
1689608813.061,-42.969,-37.598,-34.668,-43.457,-41.992
1689608813.065,-48.828,-34.668,-38.086,-57.129,-159.668
1689608813.082,-46.875,-39.062,-29.785,-59.570,-132.812
1689608813.086,-46.875,-35.156,-31.250,-60.059,-107.910
1689608813.090,-51.758,-32.715,-34.180,-59.082,-105.469
1689608813.094,-56.641,-38.574,-36.621,-55.664,-169.434
1689608813.098,-46.387,-38.574,-37.109,-48.828,-99.609
1689608813.102,-34.668,-33.203,-33.691,-44.434,51.758
1689608813.106,-44.434,-36.133,-38.086,-51.758,12.695
1689608813.109,-54.199,-38.574,-37.109,-53.223,-54.199
1689608813.113,-50.781,-39.062,-31.250,-41.504,-68.359
1689608813.117,-48.340,-42.480,-35.645,-32.227,278.320
1689608813.121,-36.133,-38.086,-38.574,-34.180,314.453
1689608813.125,-27.344,-34.180,-31.250,-40.527,-96.191
1689608813.126,-43.457,-35.156,-28.809,-43.945,-148.438
1689608813.130,-56.152,-34.180,-34.668,-41.016,-98.633
1689608813.134,-45.410,-32.715,-35.645,-31.250,-139.160
1689608813.138,-37.598,-35.645,-36.133,-29.297,-186.035
1689608813.142,-45.898,-38.086,-38.574,-40.527,-114.746
1689608813.146,-57.617,-41.504,-40.039,-50.781,-101.562
1689608813.150,-50.293,-43.457,-38.086,-47.363,-104.004
1689608813.153,-47.852,-40.039,-36.621,-34.180,-90.332
1689608813.157,-55.176,-40.527,-35.156,-32.715,118.652
1689608813.161,-56.152,-41.992,-33.203,-51.270,333.984
1689608813.165,-57.129,-45.898,-31.250,-60.547,-6.348
1689608813.169,-62.988,-43.945,-29.297,-48.828,-161.621
1689608813.172,-52.734,-43.945,-31.738,-47.852,-68.848
1689608813.176,-30.273,-42.969,-31.250,-42.480,-5.371
1689608813.180,-33.203,-39.551,-25.391,-44.922,-80.566
1689608813.184,-41.992,-42.480,-24.902,-58.594,-123.047
1689608813.188,-44.434,-39.062,-24.414,-52.734,-48.340
1689608813.192,-37.109,-37.598,-22.461,-49.805,6.348
1689608813.196,-40.039,-41.016,-23.438,-45.410,72.754
1689608813.199,-47.363,-42.480,-23.926,-44.434,81.543
1689608813.203,-48.340,-40.039,-25.879,-40.527,325.195
1689608813.207,-47.363,-37.109,-28.809,-41.504,267.578
1689608813.211,-36.133,-36.621,-30.273,-37.598,-140.625
1689608813.215,-22.461,-36.133,-30.762,-27.832,-25.879
1689608813.217,-29.297,-37.109,-29.297,-35.645,58.105
1689608813.221,-42.969,-36.133,-27.832,-35.645,-137.695
1689608813.225,-40.039,-35.645,-28.809,-37.109,-172.363
1689608813.229,-37.109,-43.945,-30.273,-40.527,-62.988
1689608813.233,-41.504,-43.457,-32.715,-33.691,-47.852
1689608813.237,-41.504,-38.086,-34.180,-37.109,-41.016
1689608813.241,-47.363,-40.039,-30.762,-48.340,-92.773
1689608813.244,-59.570,-37.598,-29.785,-45.898,47.363
1689608813.248,-51.270,-35.156,-30.762,-34.668,196.777
1689608813.252,-30.273,-37.109,-30.762,-33.691,-38.574
1689608813.256,-41.016,-39.551,-32.227,-40.527,-155.273
1689608813.260,-57.129,-41.504,-28.320,-42.480,-145.508
1689608813.263,-46.387,-39.062,-26.367,-38.574,-128.418
1689608813.267,-43.457,-35.645,-31.250,-31.738,-119.141
1689608813.271,-36.133,-37.109,-33.691,-30.762,-66.895
1689608813.275,-46.875,-37.109,-31.250,-28.320,-10.742
1689608813.279,-55.664,-34.668,-30.273,-32.227,-30.273
1689608813.283,-45.410,-33.203,-31.250,-33.691,-52.246
1689608813.287,-42.969,-35.645,-30.762,-26.855,-29.785
1689608813.290,-41.016,-35.645,-29.785,-26.855,324.219
1689608813.294,-34.668,-30.762,-29.785,-28.320,458.008
1689608813.298,-45.410,-34.668,-30.762,-35.645,-10.254
1689608813.302,-51.758,-35.156,-28.809,-32.227,-163.574
1689608813.306,-49.805,-32.227,-27.344,-27.832,-130.859
1689608813.306,-41.504,-31.250,-29.297,-25.391,-138.184
1689608813.310,-29.297,-32.715,-31.250,-21.973,-120.605
1689608813.314,-38.086,-31.250,-31.250,-31.738,-123.047
1689608813.318,-48.340,-24.414,-29.297,-30.273,-118.164
1689608813.322,-44.922,-24.414,-27.832,-20.020,-40.527
1689608813.326,-34.180,-32.715,-27.344,-14.648,-36.621
1689608813.330,-44.922,-41.992,-31.250,-19.043,149.414
1689608813.333,-69.336,-44.922,-36.133,-34.668,203.125
1689608813.337,-64.941,-43.945,-37.109,-42.969,-125.000
1689608813.341,-52.734,-44.434,-33.691,-36.133,-225.586
1689608813.345,-40.039,-47.363,-34.668,-29.785,60.547
1689608813.349,-25.879,-44.434,-37.598,-28.320,191.406
1689608813.366,-27.344,-38.574,-35.645,-37.109,-95.215
1689608813.370,-36.133,-35.645,-33.691,-42.969,-137.207
1689608813.374,-38.086,-36.621,-33.691,-38.086,-171.875
1689608813.378,-27.832,-40.527,-34.180,-26.855,-172.852
1689608813.382,-40.527,-39.551,-35.156,-27.832,-149.414
1689608813.386,-48.340,-39.062,-33.203,-37.598,-43.945
1689608813.390,-51.270,-34.668,-30.762,-31.738,248.047
1689608813.393,-58.594,-32.715,-32.715,-27.832,112.305
1689608813.397,-51.758,-36.133,-33.691,-29.785,-95.215
1689608813.401,-40.527,-30.273,-28.809,-22.461,-16.602
1689608813.405,-32.715,-26.367,-26.367,-16.113,242.188
1689608813.409,-23.926,-17.090,-19.531,-18.066,113.770
1689608813.397,-42.969,-25.879,-26.855,-41.992,-238.770
1689608813.401,-53.711,-38.574,-35.645,-54.199,-152.832
1689608813.405,-25.879,-30.273,-25.391,-20.996,-66.895
1689608813.409,-34.180,-36.133,-20.996,-27.344,-139.160
1689608813.413,-90.820,-36.621,-15.625,-86.426,-163.574
1689608813.417,-147.949,-39.062,-13.184,-135.254,39.062
1689608813.421,-178.223,-47.852,-12.695,-159.668,172.363
1689608813.424,-194.824,-51.758,-9.766,-179.199,-2.441
1689608813.428,-230.469,-58.105,-7.812,-215.820,-156.250
1689608813.432,-269.531,-59.570,6.348,-255.371,32.227
1689608813.436,-302.246,-62.500,11.230,-282.715,262.207
1689608813.440,-315.918,-69.336,8.789,-287.598,-19.531
1689608813.456,-317.871,-75.684,17.578,-290.039,-177.246
1689608813.460,-313.965,-77.637,21.484,-302.734,-104.004
1689608813.464,-308.594,-71.777,-3.418,-312.012,-141.602
1689608813.468,-306.641,-70.312,4.395,-309.570,-221.680
1689608813.472,-312.988,-68.848,26.367,-291.504,-138.184
1689608813.476,-292.480,-61.035,24.902,-293.457,56.152
1689608813.480,-251.953,-52.734,33.203,-299.316,24.414
1689608813.483,-254.395,-62.500,17.090,-302.734,-42.480
1689608813.487,-268.555,-69.336,5.859,-301.270,-56.152
1689608813.491,-241.211,-65.918,1.465,-260.254,235.352
1689608813.495,-223.145,-72.754,-12.207,-237.793,320.312
1689608813.499,-200.684,-75.684,-17.090,-221.680,-44.922
1689608813.502,-161.621,-73.242,-15.137,-192.383,-74.219
1689608813.506,-156.250,-71.289,-25.391,-181.641,-20.996
1689608813.510,-146.484,-72.754,-31.250,-160.645,-194.824
1689608813.514,-104.492,-65.430,-31.738,-121.094,-210.449
1689608813.518,-89.844,-58.594,-41.016,-100.098,-136.230
1689608813.522,-85.938,-52.734,-47.363,-87.891,-54.688
1689608813.526,-74.219,-50.293,-51.758,-77.637,-20.996
1689608813.529,-59.082,-54.688,-59.082,-63.477,-145.996
1689608813.533,-34.180,-54.199,-63.477,-40.527,38.574
1689608813.537,-18.555,-53.223,-67.383,-15.625,218.750
1689608813.541,-7.324,-47.852,-65.918,-6.348,-74.707
1689608813.545,-0.488,-38.574,-65.918,-9.766,-172.363
1689608813.548,4.883,-35.156,-68.359,2.930,-125.977
1689608813.552,19.531,-39.551,-67.871,22.461,-107.422
1689608813.556,22.949,-39.062,-70.312,28.320,-97.656
1689608813.560,21.484,-36.133,-68.359,24.414,-74.219
1689608813.564,22.461,-34.668,-64.941,23.926,39.551
1689608813.568,17.578,-31.738,-68.359,26.855,70.312
1689608813.572,25.391,-29.785,-72.266,41.992,62.500
1689608813.575,30.762,-33.691,-74.707,44.434,37.598
1689608813.579,24.414,-31.250,-68.848,35.156,284.668
1689608813.583,17.090,-28.320,-61.035,34.180,318.359
1689608813.587,22.461,-29.785,-61.523,28.809,-110.840
1689608813.591,28.320,-31.250,-64.453,28.809,-118.164
1689608813.591,28.320,-29.785,-64.453,26.367,-74.707
1689608813.595,35.645,-27.832,-61.523,14.160,-162.598
1689608813.599,30.273,-28.809,-59.570,6.836,-236.816
1689608813.603,19.043,-23.926,-55.664,12.207,-109.863
1689608813.607,12.207,-20.996,-48.340,18.066,28.320
1689608813.611,21.973,-18.555,-48.340,18.066,0.488
1689608813.615,15.137,-21.973,-59.082,4.395,-68.848
1689608813.618,-5.859,-30.273,-58.594,-12.207,68.848
1689608813.622,-6.348,-30.762,-50.293,-7.324,344.727
1689608813.626,-2.930,-29.785,-46.875,9.277,69.336
1689608813.630,4.395,-26.855,-46.875,12.695,-176.270
1689608813.634,10.742,-25.391,-44.922,10.742,-117.676
1689608813.636,2.930,-25.391,-40.039,-2.930,-139.160
1689608813.640,-37.598,-20.508,-43.457,-43.457,-202.148
1689608813.644,-51.758,-16.602,-43.457,-55.176,-181.152
1689608813.648,-35.156,-22.461,-47.363,-36.621,-70.312
1689608813.652,-32.715,-28.320,-53.711,-33.691,-71.777
1689608813.656,-42.969,-26.367,-47.363,-46.387,-121.094
1689608813.660,-49.316,-22.461,-42.480,-53.223,-69.336
1689608813.663,-45.898,-18.066,-40.527,-42.969,275.879
1689608813.667,-35.645,-18.066,-43.945,-36.621,325.195
1689608813.671,-25.879,-19.043,-41.504,-35.156,-66.895
1689608813.675,-26.855,-21.973,-39.062,-38.574,-77.148
1689608813.679,-28.809,-24.902,-38.574,-44.434,45.898
1689608813.681,-37.109,-26.367,-40.527,-43.945,-92.285
1689608813.685,-33.203,-25.879,-37.598,-36.133,-190.430
1689608813.689,-15.137,-18.555,-29.785,-31.250,-132.812
1689608813.693,-20.996,-20.508,-32.227,-33.691,-122.070
1689608813.697,-23.438,-20.996,-34.180,-27.832,-194.336
1689608813.701,-22.461,-26.367,-32.715,-28.320,-115.234
1689608813.705,-27.344,-27.832,-35.156,-26.367,183.594
1689608813.708,-26.367,-24.902,-32.715,-19.043,243.652
1689608813.712,-26.367,-30.273,-29.785,-22.461,-45.410
1689608813.716,-29.785,-31.738,-25.879,-27.832,-122.559
1689608813.720,-28.320,-29.785,-29.785,-28.320,-82.031
1689608813.724,-24.414,-28.320,-37.109,-26.367,-58.105
1689608813.726,-18.066,-28.809,-35.156,-23.926,-114.258
1689608813.730,-18.555,-26.855,-32.715,-31.250,-139.160
1689608813.734,-27.344,-23.926,-30.762,-39.062,-105.957
1689608813.738,-35.645,-26.855,-31.250,-37.109,-132.324
1689608813.742,-40.527,-32.715,-33.691,-36.621,-158.691
1689608813.746,-40.039,-32.715,-31.250,-28.320,-58.594
1689608813.750,-37.598,-32.715,-31.738,-28.809,207.520
1689608813.753,-37.109,-28.320,-36.621,-43.457,193.848
1689608813.757,-44.434,-25.391,-38.086,-45.410,-87.891
1689608813.761,-34.668,-33.691,-32.715,-26.855,-166.016
1689608813.765,-24.902,-33.691,-29.297,-17.578,37.598
1689608813.769,-51.270,-22.461,-32.715,-59.570,-17.090
1689608813.773,-68.359,-21.973,-40.039,-89.355,-234.863
1689608813.777,-61.035,-29.297,-41.504,-73.242,-85.938
1689608813.781,-58.594,-28.809,-30.762,-60.059,20.996
1689608813.785,-62.500,-33.203,-33.691,-60.547,-85.449
1689608813.789,-51.758,-34.668,-38.086,-59.570,-137.695
1689608813.793,-52.734,-33.203,-33.691,-52.734,43.457
1689608813.797,-56.152,-35.645,-35.156,-54.688,166.992
1689608813.800,-59.570,-30.762,-33.691,-45.898,-38.574
1689608813.804,-49.805,-28.809,-30.273,-37.598,-116.699
1689608813.808,-34.180,-29.297,-31.250,-36.621,58.594
1689608813.812,-33.691,-29.297,-35.156,-40.039,97.168
1689608813.816,-29.785,-31.250,-36.133,-41.016,-143.066
1689608813.832,-36.133,-36.133,-37.598,-36.621,-187.988
1689608813.836,-29.297,-36.621,-35.645,-35.156,-47.852
1689608813.840,-29.785,-35.645,-34.180,-29.297,35.156
1689608813.844,-42.480,-34.668,-36.621,-32.715,-82.031
1689608813.848,-41.016,-29.297,-31.250,-33.691,-154.785
1689608813.852,-38.086,-30.762,-27.344,-19.531,148.438
1689608813.856,-32.715,-39.062,-32.715,-11.230,253.906
1689608813.859,-26.855,-37.598,-37.109,-17.090,72.266
1689608813.863,-32.715,-38.086,-39.551,-32.227,-17.578
1689608813.867,-41.992,-34.668,-38.086,-36.621,199.707
1689608813.871,-44.434,-24.902,-32.715,-30.273,105.957
1689608813.875,-34.668,-25.391,-34.668,-26.855,-246.094
1689608813.877,-24.414,-29.297,-31.250,-22.461,-130.859
1689608813.881,-32.715,-31.250,-29.297,-25.879,-118.164
1689608813.885,-44.434,-31.738,-30.762,-39.551,-203.125
1689608813.889,-46.387,-27.344,-30.273,-37.598,-193.359
1689608813.893,-36.133,-30.762,-32.227,-18.555,-9.277
1689608813.897,-22.461,-31.738,-32.227,-17.090,168.457
1689608813.901,-23.438,-27.344,-34.180,-31.738,63.965
1689608813.904,-34.180,-34.180,-32.227,-40.527,-156.738
1689608813.908,-34.668,-34.668,-30.273,-32.227,8.301
1689608813.912,-25.391,-32.715,-33.691,-25.391,254.883
1689608813.916,-24.414,-35.156,-31.738,-26.855,13.672
1689608813.920,-22.949,-29.297,-30.762,-27.832,-134.766
1689608813.922,-32.715,-29.297,-35.645,-39.551,-105.469
1689608813.926,-43.945,-29.297,-34.180,-45.898,-114.746
1689608813.930,-37.109,-27.832,-29.785,-34.668,-85.449
1689608813.934,-33.203,-29.785,-27.344,-31.738,-19.531
1689608813.938,-26.855,-32.227,-27.344,-45.410,39.551
1689608813.942,-34.180,-28.809,-27.832,-52.734,132.812
1689608813.946,-51.270,-27.832,-29.297,-48.828,24.414
1689608813.949,-47.852,-29.785,-34.668,-43.457,-44.922
1689608813.953,-31.738,-25.879,-34.668,-27.832,389.648
1689608813.957,-31.738,-29.297,-32.715,-36.621,472.168
1689608813.961,-45.410,-35.156,-35.156,-54.688,-8.789
1689608813.965,-45.898,-30.762,-37.598,-54.688,-144.531
1689608813.967,-46.875,-28.320,-42.480,-52.734,-116.699
1689608813.971,-31.250,-28.809,-41.992,-34.180,-194.336
1689608813.975,-33.691,-28.809,-38.574,-41.016,-195.312
1689608813.979,-67.383,-31.250,-32.715,-72.266,-106.445
1689608813.983,-69.336,-37.109,-29.785,-69.824,-96.191
1689608813.987,-64.453,-38.086,-27.344,-56.152,-86.914
1689608813.991,-60.059,-36.621,-28.809,-54.688,-62.988
1689608813.994,-42.969,-32.227,-29.785,-46.875,99.609
1689608813.998,-39.062,-29.785,-29.297,-42.969,191.895
1689608814.002,-43.945,-31.738,-31.738,-52.734,-59.082
1689608814.006,-34.668,-29.297,-28.809,-48.828,-128.418
1689608814.010,-31.250,-29.785,-26.367,-41.992,18.066
1689608814.011,-41.504,-31.250,-28.809,-41.992,41.016
1689608814.015,-44.434,-29.785,-27.832,-42.480,-145.508
1689608814.019,-42.480,-32.715,-24.902,-50.293,-169.434
1689608814.023,-38.574,-31.738,-26.855,-48.828,-42.969
1689608814.027,-32.227,-28.809,-28.809,-42.969,-65.430
1689608814.031,-30.273,-27.344,-25.879,-44.922,-137.695
1689608814.035,-30.762,-25.391,-29.785,-46.387,-41.992
1689608814.038,-33.203,-24.902,-29.297,-49.316,392.090
1689608814.042,-38.086,-25.879,-25.391,-51.270,379.395
1689608814.046,-43.457,-33.691,-29.297,-49.805,-121.094
1689608814.050,-37.598,-38.086,-28.320,-39.551,-110.840
1689608814.054,-36.133,-34.180,-25.391,-40.527,-47.363
1689608814.057,-39.062,-34.668,-25.879,-54.199,-112.305
1689608814.061,-41.992,-36.133,-20.508,-50.293,-208.496
1689608814.065,-32.227,-35.156,-20.508,-38.086,-39.551
1689608814.069,-25.879,-33.203,-25.879,-36.621,52.734
1689608814.073,-43.945,-32.227,-24.414,-43.457,-118.652
1689608814.077,-56.641,-31.250,-23.926,-53.223,-155.273
1689608814.081,-58.594,-35.156,-35.156,-55.664,95.703
1689608814.084,-41.504,-36.621,-35.645,-43.457,262.207
1689608814.088,-27.344,-26.367,-27.344,-39.551,-92.773
1689608814.092,-23.438,-21.484,-22.949,-35.156,-190.430
1689608814.096,-29.785,-27.832,-21.484,-37.598,-114.258
1689608814.100,-51.270,-34.180,-25.879,-39.062,-102.051
1689608814.103,-51.270,-32.715,-29.297,-30.762,-150.391
1689608814.107,-41.016,-31.250,-33.203,-27.344,-71.777
1689608814.111,-45.898,-37.109,-33.203,-34.668,83.984
1689608814.115,-46.387,-36.621,-31.250,-44.434,-59.570
1689608814.119,-42.480,-28.809,-28.320,-38.086,-170.898
1689608814.123,-39.551,-29.785,-32.227,-34.668,-72.754
1689608814.127,-35.156,-34.180,-37.109,-37.598,291.016
1689608814.130,-32.227,-30.762,-33.691,-40.527,255.371
1689608814.134,-37.109,-31.250,-34.668,-52.734,-141.113
1689608814.138,-52.734,-28.320,-28.320,-56.641,-169.922
1689608814.142,-55.176,-26.855,-19.531,-42.480,67.383
1689608814.146,-52.246,-32.715,-21.973,-31.738,11.719
1689608814.146,-44.922,-31.738,-28.320,-34.180,-162.598
1689608814.150,-39.062,-30.273,-30.273,-41.016,-89.844
1689608814.154,-49.805,-31.250,-24.902,-46.387,-96.191
1689608814.158,-52.246,-28.320,-19.043,-41.016,-116.211
1689608814.162,-41.504,-25.879,-21.484,-33.203,-93.262
1689608814.166,-28.809,-26.855,-31.250,-34.668,234.375
1689608814.170,-28.320,-30.762,-29.297,-40.039,424.805
1689608814.173,-42.480,-34.180,-29.297,-49.805,19.043
1689608814.177,-43.945,-35.645,-28.809,-42.480,-227.051
1689608814.181,-41.016,-33.203,-24.414,-27.344,14.648
1689608814.185,-34.180,-34.668,-33.203,-30.762,85.938
1689608814.189,-32.227,-37.598,-38.574,-41.504,-170.410
1689608814.206,-43.945,-36.621,-33.691,-46.875,-182.617
1689608814.210,-41.992,-30.273,-25.391,-42.969,-133.789
1689608814.214,-35.645,-27.344,-25.879,-37.109,-89.844
1689608814.218,-33.691,-30.762,-29.297,-35.156,-90.332
1689608814.222,-36.133,-35.645,-30.762,-37.598,-78.613
1689608814.226,-38.574,-36.133,-36.133,-46.387,46.875
1689608814.230,-44.434,-37.109,-37.109,-45.410,38.574
1689608814.233,-52.246,-40.039,-38.574,-30.762,-10.742
1689608814.237,-41.016,-39.551,-41.504,-24.414,78.613
1689608814.241,-31.250,-35.156,-39.551,-19.043,365.723
1689608814.245,-38.086,-30.273,-32.227,-22.949,306.641
1689608814.249,-41.992,-29.785,-28.809,-34.668,-140.137
1689608814.251,-35.645,-29.785,-30.273,-28.809,-193.359
1689608814.255,-31.738,-32.715,-32.227,-21.973,-114.258
1689608814.259,-33.691,-29.785,-36.621,-29.785,-167.969
1689608814.263,-34.668,-31.738,-38.086,-46.875,-220.215
1689608814.267,-42.969,-40.039,-26.855,-40.039,-122.559
1689608814.271,-48.828,-40.527,-24.902,-24.414,36.133
1689608814.275,-44.434,-38.086,-32.715,-28.320,86.426
1689608814.278,-35.645,-31.738,-40.039,-38.574,-50.293
1689608814.282,-39.062,-27.832,-35.645,-41.992,-8.789
1689608814.286,-48.828,-26.855,-28.320,-37.598,192.383
1689608814.290,-40.039,-24.414,-29.297,-36.133,-38.086
1689608814.294,-33.691,-28.809,-33.203,-30.273,-173.340
1689608814.326,-32.227,-31.738,-34.180,-35.156,-49.805
1689608814.330,-47.363,-34.180,-30.762,-41.992,-57.617
1689608814.334,-55.176,-35.156,-38.574,-41.016,-139.160
1689608814.338,-38.574,-30.762,-36.621,-37.598,-138.184
1689608814.342,-34.180,-31.250,-31.250,-32.715,-84.473
1689608814.346,-36.133,-34.668,-32.227,-35.645,25.879
1689608814.350,-39.062,-34.668,-32.715,-38.574,25.879
1689608814.353,-44.434,-31.738,-32.227,-37.109,-7.324
1689608814.357,-54.199,-31.738,-31.250,-27.832,286.621
1689608814.361,-39.551,-34.180,-34.668,-29.785,293.457
1689608814.365,-20.996,-33.691,-34.180,-34.180,-119.141
1689608814.369,-45.898,-37.109,-34.668,-35.156,-140.625
1689608814.341,-56.641,-41.016,-34.668,-38.574,-20.020
1689608814.345,-43.945,-42.480,-28.320,-36.621,-112.305
1689608814.349,-44.434,-37.598,-32.227,-31.250,-212.891
1689608814.353,-45.410,-31.738,-36.621,-27.344,-41.016
1689608814.357,-42.969,-31.738,-34.668,-42.480,35.156
1689608814.361,-42.480,-29.785,-28.809,-54.199,-109.863
1689608814.365,-53.711,-26.367,-18.555,-43.945,-86.426
1689608814.368,-55.176,-27.344,-20.996,-30.762,15.137
1689608814.372,-51.758,-32.227,-29.785,-39.062,0.488
1689608814.376,-44.434,-25.879,-31.738,-58.594,-100.586
1689608814.380,-37.109,-23.438,-28.320,-61.035,-117.188
1689608814.384,-49.316,-33.203,-25.391,-48.828,-26.855
1689608814.387,-44.922,-31.738,-30.762,-40.039,-5.859
1689608814.391,-27.344,-27.832,-32.227,-34.180,-99.609
1689608814.395,-44.434,-30.762,-24.902,-37.109,-139.648
1689608814.399,-68.848,-29.297,-26.367,-38.574,166.504
1689608814.403,-60.547,-24.902,-27.832,-42.480,299.805
1689608814.407,-61.035,-29.297,-30.273,-50.293,10.742
1689608814.411,-56.152,-32.715,-40.039,-52.734,-47.852
1689608814.414,-41.504,-27.832,-40.039,-62.500,305.664
1689608814.418,-54.199,-29.785,-28.809,-63.965,316.895
1689608814.422,-57.129,-28.809,-29.785,-50.781,-200.195
1689608814.426,-43.457,-30.762,-27.344,-40.039,-196.777
1689608814.430,-27.832,-33.203,-21.973,-36.621,-87.891
1689608814.431,-33.691,-28.320,-29.297,-46.387,-194.824
1689608814.435,-49.805,-26.367,-28.809,-55.664,-208.984
1689608814.439,-60.547,-30.273,-21.484,-51.270,-123.535
1689608814.443,-56.152,-30.273,-20.020,-43.457,-133.789
1689608814.447,-40.527,-25.391,-23.926,-41.016,-136.230
1689608814.451,-46.387,-26.367,-23.438,-37.598,-6.836
1689608814.455,-50.293,-30.762,-21.973,-38.574,162.598
1689608814.458,-54.199,-31.738,-26.367,-47.852,292.480
1689608814.462,-48.340,-25.879,-25.391,-45.898,-34.180
1689608814.466,-37.109,-26.855,-27.344,-34.668,-216.309
1689608814.470,-30.762,-29.785,-29.297,-35.645,-78.125
1689608814.474,-29.785,-27.344,-20.996,-41.016,-68.848
1689608814.476,-47.363,-29.785,-20.020,-41.992,-146.484
1689608814.480,-57.129,-33.203,-22.461,-44.922,-92.285
1689608814.484,-53.223,-30.273,-16.113,-34.668,33.691
1689608814.488,-31.738,-26.367,-23.926,-33.203,-17.578
1689608814.492,-24.414,-25.391,-34.668,-49.316,-164.062
1689608814.496,-55.176,-28.809,-30.273,-42.969,-117.188
1689608814.500,-62.988,-31.738,-26.855,-35.645,163.574
1689608814.503,-47.363,-36.133,-24.414,-34.668,147.461
1689608814.507,-44.434,-41.016,-27.344,-38.574,-106.934
1689608814.511,-49.805,-41.016,-30.273,-48.828,-136.719
1689608814.515,-58.105,-37.598,-28.809,-50.293,145.020
1689608814.519,-50.781,-36.621,-33.203,-48.340,25.391
1689608814.522,-37.109,-32.227,-31.738,-43.945,-285.156
1689608814.526,-28.320,-21.973,-25.391,-30.273,-184.082
1689608814.530,-26.855,-20.508,-31.738,-25.879,-118.164
1689608814.534,-41.016,-27.344,-33.203,-38.574,-136.719
1689608814.538,-44.922,-30.273,-24.902,-36.621,-133.789
1689608814.542,-41.016,-26.855,-19.043,-27.344,-0.977
1689608814.546,-44.434,-22.949,-23.438,-22.461,78.613
1689608814.549,-39.551,-28.809,-30.273,-27.832,-22.949
1689608814.553,-36.621,-28.320,-34.180,-41.992,-174.805
1689608814.557,-46.875,-28.809,-34.180,-34.668,62.500
1689608814.561,-32.227,-32.715,-31.250,-22.461,291.504
1689608814.565,-16.602,-30.273,-32.715,-27.344,14.648
1689608814.596,-26.367,-31.738,-31.738,-30.762,-102.051
1689608814.600,-31.738,-33.203,-33.203,-40.039,-43.945
1689608814.604,-35.645,-31.250,-38.574,-46.875,-104.004
1689608814.608,-41.016,-29.297,-33.203,-30.273,-215.820
1689608814.612,-33.203,-24.902,-27.832,-15.137,-135.254
1689608814.616,-29.297,-24.902,-26.855,-19.531,49.316
1689608814.620,-36.621,-25.391,-23.438,-27.344,-7.812
1689608814.623,-39.551,-27.344,-28.320,-33.691,-158.203
1689608814.627,-32.227,-32.227,-32.227,-35.645,-102.539
1689608814.631,-18.066,-31.250,-27.344,-25.879,276.855
1689608814.635,-29.297,-26.855,-33.203,-28.809,282.227
1689608814.639,-50.293,-23.926,-36.621,-43.945,-169.922
1689608814.626,-44.922,-25.879,-30.762,-46.875,-30.762
1689608814.630,-36.133,-27.344,-32.227,-38.574,116.211
1689608814.634,-32.227,-27.344,-34.668,-39.062,-66.406
1689608814.638,-35.645,-27.344,-32.227,-42.969,-107.910
1689608814.642,-52.246,-34.180,-33.691,-39.551,-46.875
1689608814.646,-59.082,-34.668,-34.668,-43.457,-14.160
1689608814.650,-46.387,-29.785,-30.762,-41.992,-13.184
1689608814.653,-46.875,-36.133,-41.504,-36.621,-42.969
1689608814.657,-46.387,-38.086,-45.898,-41.504,27.344
1689608814.661,-45.410,-32.715,-38.574,-49.805,-5.859
1689608814.665,-50.293,-33.691,-38.574,-65.430,-118.164
1689608814.669,-40.039,-31.250,-41.504,-62.500,-142.578
1689608814.672,-38.086,-30.273,-32.715,-41.016,90.332
1689608814.676,-50.293,-32.715,-27.344,-35.156,233.887
1689608814.680,-43.945,-34.180,-32.227,-49.805,-81.055
1689608814.684,-43.457,-35.645,-30.273,-56.641,-73.730
1689608814.688,-46.875,-34.180,-29.297,-43.945,19.043
1689608814.692,-39.551,-31.250,-24.414,-29.297,-2.441
1689608814.696,-39.551,-30.762,-23.438,-21.484,-41.992
1689608814.699,-41.016,-34.668,-30.762,-26.855,-62.988
1689608814.703,-41.016,-37.598,-26.855,-29.785,239.258
1689608814.707,-50.781,-35.645,-23.438,-32.715,298.828
1689608814.711,-48.340,-35.156,-28.320,-30.273,-91.797
1689608814.715,-32.227,-32.227,-29.297,-20.508,-133.301
1689608814.717,-26.855,-28.320,-26.855,-17.578,-99.609
1689608814.721,-24.414,-26.855,-28.320,-30.273,-131.836
1689608814.725,-31.738,-29.297,-32.227,-38.574,-148.926
1689608814.729,-38.086,-27.832,-29.785,-30.762,-106.445
1689608814.733,-25.391,-26.367,-28.320,-17.090,-30.762
1689608814.737,-19.043,-30.762,-34.180,-21.484,-39.062
1689608814.741,-29.297,-32.227,-36.133,-26.367,-87.891
1689608814.744,-51.270,-32.227,-29.297,-27.832,92.285
1689608814.748,-36.621,-26.855,-22.461,-20.996,339.355
1689608814.752,-12.207,-24.414,-21.484,-12.695,38.574
1689608814.756,-21.973,-28.809,-27.832,-28.809,-176.758
1689608814.760,-30.273,-30.762,-33.691,-46.875,-112.793
1689608814.762,-46.387,-33.203,-30.762,-38.574,-134.277
1689608814.766,-55.664,-35.156,-35.645,-34.180,-155.273
1689608814.770,-43.945,-37.598,-40.527,-41.992,-104.980
1689608814.774,-39.551,-36.621,-38.574,-46.387,-81.543
1689608814.778,-52.246,-34.180,-37.109,-53.223,-129.883
1689608814.782,-49.316,-34.180,-38.086,-48.340,-91.309
1689608814.786,-33.691,-34.668,-35.156,-39.551,-35.645
1689608814.789,-30.273,-35.645,-30.273,-21.973,281.738
1689608814.793,-31.250,-36.621,-29.297,-18.066,394.531
1689608814.797,-33.203,-38.086,-32.227,-30.273,-38.574
1689608814.801,-30.273,-26.855,-32.715,-33.691,-160.645
1689608814.805,-26.855,-23.438,-28.809,-35.645,-2.441
1689608814.806,-36.133,-33.691,-33.691,-33.203,-140.625
1689608814.810,-35.645,-36.133,-30.762,-34.180,-217.773
1689608814.814,-25.879,-37.109,-35.156,-47.852,-135.254
1689608814.818,-38.574,-34.668,-41.504,-51.758,-155.762
1689608814.822,-46.875,-35.156,-39.062,-38.086,-139.160
1689608814.826,-30.273,-41.504,-31.250,-21.484,-78.613
1689608814.830,-23.438,-35.156,-35.645,-22.461,211.426
1689608814.833,-34.180,-29.785,-39.062,-37.109,345.703
1689608814.837,-35.645,-28.320,-22.949,-40.527,-39.062
1689608814.841,-38.574,-27.832,-18.555,-43.457,-160.156
1689608814.845,-41.016,-34.180,-30.762,-44.922,-12.207
1689608814.849,-36.621,-39.062,-35.156,-45.410,-22.949
1689608814.851,-33.203,-27.832,-28.809,-49.805,-180.664
1689608814.855,-34.668,-24.902,-34.668,-57.617,-207.520
1689608814.859,-40.527,-28.320,-35.156,-53.711,-66.406
1689608814.863,-38.574,-30.273,-31.250,-35.645,-8.789
1689608814.867,-32.227,-36.133,-30.273,-20.508,-82.520
1689608814.871,-47.363,-32.227,-33.691,-40.039,-48.828
1689608814.875,-72.754,-28.320,-41.504,-73.242,240.723
1689608814.878,-69.336,-26.367,-34.668,-71.777,298.340
1689608814.882,-72.754,-27.344,-34.668,-71.777,-11.230
1689608814.886,-78.125,-28.809,-41.992,-74.707,-77.637
1689608814.890,-76.172,-25.879,-40.527,-86.914,32.227
1689608814.894,-90.332,-27.832,-42.969,-92.773,-68.848
1689608814.898,-78.613,-28.320,-48.828,-84.473,-208.496
1689608814.902,-66.406,-30.762,-46.875,-69.824,-22.949
1689608814.906,-49.316,-26.367,-39.551,-58.594,72.266
1689608814.910,-44.922,-23.438,-41.992,-50.781,-128.906
1689608814.914,-60.547,-27.344,-41.992,-62.988,-201.172
1689608814.918,-61.035,-24.414,-32.715,-63.477,-55.176
1689608814.922,-57.129,-29.297,-29.785,-41.016,137.207
1689608814.925,-46.387,-33.203,-33.203,-37.109,2.930
1689608814.929,-35.645,-32.227,-31.738,-45.898,-208.008
1689608814.933,-44.434,-30.273,-33.691,-48.828,-42.969
1689608814.937,-60.059,-34.180,-34.668,-43.945,13.184
1689608814.941,-59.570,-39.062,-30.273,-34.668,-194.336
1689608814.971,-39.062,-29.297,-26.855,-22.461,-134.277
1689608814.975,-27.344,-25.391,-29.297,-30.273,-50.781
1689608814.979,-35.156,-27.832,-34.180,-40.039,-63.477
1689608814.983,-47.363,-30.762,-35.645,-36.133,-71.777
1689608814.987,-50.781,-36.133,-28.809,-37.598,-81.543
1689608814.991,-40.039,-33.203,-21.973,-28.320,255.859
1689608814.995,-38.086,-38.086,-36.133,-26.367,297.852
1689608814.998,-46.387,-43.457,-43.457,-46.875,-15.137
1689608815.002,-47.852,-35.156,-30.762,-52.734,-59.082
1689608815.006,-45.898,-28.320,-29.785,-41.504,114.746
1689608815.010,-37.109,-33.203,-34.668,-33.203,91.797
1689608815.014,-31.250,-38.086,-32.227,-30.273,-104.004
1689608815.001,-43.457,-34.180,-29.785,-38.574,-64.941
1689608815.005,-50.293,-31.738,-39.551,-52.734,-116.699
1689608815.009,-48.340,-32.715,-41.992,-46.875,-153.809
1689608815.013,-45.410,-28.320,-34.180,-35.156,-98.145
1689608815.017,-42.480,-27.344,-32.227,-29.785,1.953
1689608815.021,-47.363,-33.203,-35.156,-36.133,0.977
1689608815.025,-57.129,-30.762,-35.156,-42.480,-43.945
1689608815.028,-66.895,-29.297,-35.645,-34.180,8.789
1689608815.032,-56.641,-31.738,-34.180,-21.484,67.871
1689608815.036,-44.922,-30.273,-33.203,-21.484,47.852
1689608815.040,-48.828,-26.855,-36.621,-36.621,-60.547
1689608815.044,-60.059,-27.344,-38.574,-41.504,-135.742
1689608815.046,-58.594,-27.344,-30.273,-36.621,107.910
1689608815.050,-49.316,-26.367,-28.320,-26.855,354.004
1689608815.054,-55.176,-31.738,-36.621,-27.344,15.137
1689608815.058,-52.734,-31.738,-33.691,-36.621,-168.945
1689608815.062,-50.293,-26.855,-33.691,-38.086,-119.141
1689608815.066,-61.523,-30.273,-39.551,-32.715,-24.414
1689608815.070,-64.453,-33.203,-37.109,-30.762,-7.324
1689608815.073,-63.965,-31.250,-34.668,-37.598,-43.457
1689608815.077,-73.730,-30.273,-36.621,-39.062,247.070
1689608815.081,-68.359,-30.273,-37.109,-40.527,217.773
1689608815.085,-55.664,-27.344,-33.203,-39.062,-162.598
1689608815.089,-58.594,-25.391,-25.391,-27.832,-144.531
1689608815.091,-43.457,-20.996,-25.879,-20.508,217.285
1689608815.095,-41.504,-20.508,-27.832,-25.391,103.027
1689608815.099,-60.547,-23.438,-21.484,-32.227,-241.699
1689608815.103,-60.547,-22.461,-16.602,-31.738,-181.641
1689608815.107,-54.199,-25.391,-18.555,-27.832,-89.844
1689608815.111,-52.246,-27.832,-26.855,-33.691,0.977
1689608815.115,-51.270,-26.855,-25.879,-40.527,-85.938
1689608815.118,-45.898,-26.367,-20.996,-41.504,28.320
1689608815.122,-48.340,-22.949,-25.391,-38.086,198.730
1689608815.126,-44.922,-24.414,-31.250,-30.762,-129.883
1689608815.130,-31.738,-34.180,-34.180,-33.691,-186.035
1689608815.134,-30.762,-34.180,-30.273,-38.574,-0.977
1689608815.136,-32.227,-31.250,-27.832,-44.922,-36.621
1689608815.140,-48.828,-32.715,-32.715,-50.293,-109.863
1689608815.144,-71.289,-33.691,-30.273,-43.457,-126.953
1689608815.148,-54.199,-29.785,-32.715,-35.156,-78.125
1689608815.152,-28.809,-33.203,-33.203,-36.133,-20.020
1689608815.156,-25.879,-36.621,-38.574,-48.340,-35.156
1689608815.160,-29.297,-32.227,-37.109,-53.711,-85.449
1689608815.163,-23.926,-29.785,-17.578,-38.086,312.500
1689608815.167,-19.043,-29.785,-20.020,-32.715,469.238
1689608815.171,-30.762,-29.785,-26.855,-36.133,-44.922
1689608815.175,-28.320,-29.297,-22.949,-41.016,-180.664
1689608815.179,-15.137,-26.855,-22.461,-41.504,-161.621
1689608815.183,-20.508,-29.297,-25.391,-32.715,-178.711
1689608815.187,-23.926,-29.297,-23.438,-28.320,-140.625
1689608815.191,-24.902,-30.762,-23.926,-25.879,-11.719
1689608815.195,-41.504,-34.180,-26.367,-28.320,-3.906
1689608815.199,-50.781,-39.551,-22.461,-21.973,-175.781
1689608815.203,-49.316,-32.227,-25.879,-22.461,-180.176
1689608815.207,-57.129,-21.484,-31.738,-40.039,128.906
1689608815.210,-50.293,-24.414,-33.203,-35.156,354.492
1689608815.214,-40.527,-26.855,-35.156,-27.832,-11.719
1689608815.218,-43.945,-24.414,-39.062,-31.250,-202.148
1689608815.222,-36.133,-23.438,-42.969,-31.738,-103.516
1689608815.226,-13.672,-19.043,-43.945,-19.531,-100.586
1689608815.227,11.719,-15.625,-31.738,-0.488,-136.719
1689608815.231,18.555,-18.555,-28.809,-6.348,-111.816
1689608815.235,0.488,-22.949,-33.691,-14.648,-115.234
1689608815.239,-12.695,-23.438,-32.715,-17.578,-113.281
1689608815.243,-9.277,-21.484,-32.715,-18.066,-33.203
1689608815.247,-1.953,-19.531,-36.133,-10.742,-34.668
1689608815.251,5.859,-22.949,-37.109,-16.113,272.461
1689608815.254,3.906,-20.508,-35.645,-27.344,408.691
1689608815.258,3.906,-16.602,-32.227,-34.668,12.207
1689608815.262,-12.695,-24.414,-28.320,-28.320,-125.977
1689608815.266,-6.836,-29.297,-30.273,-14.648,31.250
1689608815.270,10.742,-30.273,-27.832,-17.578,0.488
1689608815.272,2.441,-29.785,-26.367,-28.320,-186.035
1689608815.276,-11.719,-28.320,-31.738,-36.621,-138.184
1689608815.280,-21.973,-27.832,-28.809,-30.762,-61.523
1689608815.284,-17.578,-30.273,-27.832,-20.996,-145.996
1689608815.288,-16.602,-33.691,-31.250,-18.066,-164.062
1689608815.292,-16.602,-33.203,-30.273,-22.949,75.195
1689608815.296,-20.508,-31.250,-31.250,-32.715,141.602
1689608815.299,-20.020,-28.809,-36.621,-34.180,-82.520
1689608815.303,-8.301,-31.250,-39.062,-29.297,-166.992
1689608815.307,-13.672,-32.715,-38.086,-26.367,-56.641
1689608815.311,-25.391,-34.180,-36.133,-33.691,-41.992
1689608815.315,-27.832,-32.715,-35.645,-40.527,-142.578
1689608815.331,-25.391,-29.297,-40.039,-38.086,-193.359
1689608815.335,-21.973,-28.809,-39.062,-27.344,113.770
1689608815.339,-17.578,-32.227,-34.668,-25.879,265.625
1689608815.343,-21.484,-26.367,-33.203,-33.691,-116.211
1689608815.347,-29.297,-24.902,-32.227,-30.762,-138.672
1689608815.351,-28.809,-28.320,-29.785,-22.949,51.270
1689608815.355,-17.090,-26.367,-35.645,-20.020,20.996
1689608815.358,-7.812,-27.344,-42.480,-23.926,-58.594
1689608815.362,-13.184,-28.320,-38.086,-30.762,-6.836
1689608815.366,-20.020,-26.855,-35.156,-24.902,273.926
1689608815.370,-17.578,-24.902,-31.250,-21.484,296.387
1689608815.374,-17.090,-25.391,-26.367,-23.926,-108.887
1689608815.376,-24.902,-28.809,-29.297,-23.926,-161.621
1689608815.380,-30.273,-30.762,-31.250,-35.645,-119.141
1689608815.384,-31.738,-34.668,-35.645,-47.852,-183.594
1689608815.388,-31.250,-34.668,-39.062,-41.992,-205.566
1689608815.392,-35.645,-32.715,-36.133,-32.227,-134.766
1689608815.396,-27.344,-34.668,-34.668,-29.297,-20.508
1689608815.400,-39.062,-39.062,-35.156,-30.273,21.484
1689608815.403,-52.246,-41.992,-35.156,-36.621,-77.637
1689608815.407,-51.270,-42.480,-34.180,-40.039,37.598
1689608815.411,-52.246,-38.086,-32.715,-31.250,235.840
1689608815.415,-43.457,-37.109,-33.203,-34.180,16.602
1689608815.419,-34.180,-38.574,-32.227,-37.109,-86.914
1689608815.421,-37.109,-34.180,-34.180,-46.875,-1.465
1689608815.425,-42.480,-35.156,-37.109,-47.363,-69.336
1689608815.429,-41.016,-30.762,-27.344,-27.344,-188.477
1689608815.433,-32.715,-28.320,-29.785,-20.996,-145.020
1689608815.437,-26.367,-30.273,-34.668,-25.879,-75.195
1689608815.441,-31.250,-28.809,-27.344,-31.738,-52.246
1689608815.445,-34.668,-26.855,-30.273,-39.062,-26.855
1689608815.448,-28.809,-30.762,-31.250,-28.809,22.949
1689608815.452,-27.344,-32.227,-25.391,-12.695,308.105
1689608815.456,-20.508,-28.809,-23.438,-12.695,309.570
1689608815.460,-24.902,-28.809,-30.762,-30.762,-132.812
1689608815.464,-36.621,-29.785,-37.598,-32.715,-197.266
1689608815.467,-30.762,-33.691,-38.086,-18.066,-170.410
1689608815.471,-23.438,-30.762,-31.738,-13.672,-155.273
1689608815.475,-30.273,-30.273,-29.785,-20.996,-116.699
1689608815.479,-39.551,-37.598,-31.738,-27.344,-86.426
1689608815.483,-35.645,-36.621,-32.715,-30.273,-10.254
1689608815.487,-33.691,-36.621,-32.715,-28.809,-1.465
1689608815.491,-29.785,-38.086,-31.250,-18.066,10.254
1689608815.494,-26.367,-36.133,-38.086,-20.996,100.586
1689608815.498,-16.602,-36.133,-44.434,-18.066,235.352
1689608815.502,-20.996,-40.527,-33.203,-9.766,-25.391
1689608815.506,-54.199,-45.898,-26.855,-27.344,-134.277
1689608815.510,-48.828,-48.828,-29.785,-38.086,-65.918
1689608815.511,-36.133,-52.734,-25.391,-31.250,-79.590
1689608815.515,-50.781,-53.223,-24.414,-36.133,-108.887
1689608815.519,-50.781,-55.664,-24.902,-37.598,-139.160
1689608815.523,-49.316,-57.617,-26.367,-31.738,-150.391
1689608815.527,-35.156,-54.688,-27.344,-22.461,-84.961
1689608815.531,-20.020,-52.246,-25.391,-13.672,18.555
1689608815.535,-28.809,-47.363,-22.949,-17.578,-12.207
1689608815.538,-37.109,-47.363,-26.855,-20.020,242.188
1689608815.542,-33.203,-50.293,-34.668,-16.602,466.797
1689608815.546,-32.715,-52.734,-36.621,-14.648,28.320
1689608815.550,-24.902,-47.363,-36.133,-9.766,-143.555
1689608815.554,-21.973,-43.457,-38.574,-15.137,-34.180
1689608815.556,-41.016,-45.410,-38.574,-27.832,-185.547
1689608815.560,-49.805,-42.969,-37.598,-26.367,-222.656
1689608815.564,-33.203,-40.039,-33.691,-14.160,-88.867
1689608815.568,-27.832,-42.969,-36.133,-8.301,-33.691
1689608815.572,-23.926,-42.969,-36.621,-17.090,-151.855
1689608815.576,-30.762,-36.621,-32.227,-28.809,-123.047
1689608815.580,-41.016,-35.156,-36.133,-32.227,112.793
1689608815.583,-27.832,-35.645,-40.527,-25.879,392.090
1689608815.587,-4.395,-37.109,-40.527,-18.555,128.418
1689608815.591,-11.230,-37.598,-31.738,-27.344,-180.664
1689608815.595,-29.785,-36.133,-29.785,-35.645,-96.680
1689608815.599,-39.062,-34.180,-33.691,-32.227,-96.191
1689608815.601,-41.504,-34.180,-33.203,-22.949,-145.020
1689608815.605,-32.227,-38.086,-33.203,-12.695,-83.496
1689608815.609,-35.645,-40.527,-37.598,-22.461,-50.293
1689608815.613,-43.457,-36.621,-36.133,-36.133,-113.770
1689608815.617,-44.434,-33.691,-34.180,-36.621,-117.676
1689608815.621,-37.109,-31.738,-38.086,-28.320,-106.934
1689608815.625,-28.320,-29.785,-31.250,-8.301,205.566
1689608815.628,-20.508,-31.738,-29.785,-10.742,309.570
1689608815.632,-24.902,-31.250,-35.645,-27.832,-44.922
1689608815.636,-39.062,-33.691,-31.738,-30.273,-36.133
1689608815.640,-39.551,-37.109,-33.203,-23.926,166.504
1689608815.644,-39.551,-37.109,-30.762,-15.137,36.133
1689608815.647,-35.645,-33.691,-25.879,-17.578,-188.965
1689608815.651,-25.391,-28.809,-31.250,-29.297,-155.762
1689608815.655,-33.203,-29.785,-37.598,-36.133,-118.164
1689608815.659,-41.016,-35.645,-34.668,-33.203,-167.480
1689608815.663,-28.809,-34.668,-29.297,-23.926,-127.441
1689608815.667,-20.996,-30.762,-35.156,-22.949,176.758
1689608815.671,-26.855,-31.738,-37.109,-34.180,221.191
1689608815.674,-36.133,-35.645,-31.250,-39.551,-71.289
1689608815.678,-39.551,-37.598,-35.156,-30.273,-196.777
1689608815.682,-31.250,-30.273,-38.574,-13.184,-6.348
1689608815.686,-21.484,-26.855,-32.715,-9.766,94.238
1689608815.690,-25.391,-31.250,-30.273,-30.273,-89.355
1689608815.708,-26.367,-29.785,-31.250,-36.621,-140.625
1689608815.712,-22.949,-24.902,-36.621,-26.855,-49.316
1689608815.716,-20.020,-24.414,-35.645,-19.043,2.441
1689608815.720,-13.672,-27.832,-25.391,-14.648,-115.723
1689608815.724,-24.414,-28.809,-30.762,-21.973,-131.348
1689608815.728,-31.250,-23.926,-31.250,-24.414,-66.895
1689608815.732,-22.461,-20.508,-23.926,-18.555,-42.969
1689608815.735,-21.973,-23.926,-29.785,-15.137,-11.719
1689608815.739,-10.742,-20.996,-33.691,-14.160,-43.457
1689608815.743,-14.160,-26.367,-34.668,-24.414,279.785
1689608815.747,-31.738,-36.621,-40.527,-40.527,327.637
1689608815.751,-25.879,-35.156,-38.574,-35.645,-136.230
1689608815.752,-20.996,-35.645,-39.062,-26.367,-128.418
1689608815.756,-18.066,-39.062,-42.480,-23.438,-76.660
1689608815.760,-9.766,-32.715,-39.062,-20.020,-110.352
1689608815.764,-24.902,-30.762,-34.180,-23.926,-146.484
1689608815.768,-34.180,-31.250,-29.297,-19.043,-43.945
1689608815.772,-27.832,-27.344,-41.016,-7.324,166.016
1689608815.776,-31.738,-29.297,-36.133,-6.348,131.348
1689608815.779,-37.109,-33.203,-24.902,-16.602,-63.965
1689608815.783,-32.227,-34.180,-27.344,-19.531,-38.574
1689608815.787,-26.367,-28.809,-25.879,-19.043,226.074
1689608815.791,-21.484,-24.902,-24.414,-23.926,9.277
1689608815.795,-11.230,-25.391,-24.902,-16.113,-207.031
1689608815.796,-6.836,-28.809,-31.250,-20.508,-139.160
1689608815.800,-14.160,-33.203,-37.598,-36.133,-124.512
1689608815.804,-22.461,-29.297,-34.180,-37.109,-168.457
1689608815.808,-25.391,-24.902,-29.297,-23.438,-125.488
1689608815.812,-19.531,-23.438,-30.273,-16.113,-2.441
1689608815.816,-17.578,-21.484,-29.785,-19.531,98.633
1689608815.820,-17.090,-22.949,-23.438,-21.484,54.688
1689608815.823,-25.879,-26.367,-26.855,-38.086,-36.133
1689608815.827,-37.598,-30.273,-33.203,-40.039,295.410
1689608815.831,-32.227,-30.273,-22.461,-23.926,435.547
1689608815.835,-18.555,-26.855,-21.973,-25.391,9.277
1689608815.839,-26.367,-27.344,-29.297,-36.621,-154.785
1689608815.841,-44.434,-28.320,-28.809,-40.039,-172.852
1689608815.845,-46.875,-24.414,-30.762,-39.551,-248.047
1689608815.849,-32.715,-16.113,-31.738,-40.039,-209.961
1689608815.853,-21.484,-15.137,-25.391,-35.645,-102.051
1689608815.857,-36.621,-24.414,-22.461,-44.922,-51.758
1689608815.861,-49.805,-32.715,-27.832,-55.176,-57.617
1689608815.865,-48.340,-31.738,-28.320,-46.387,-94.727
1689608815.868,-40.527,-29.785,-24.414,-33.691,125.488
1689608815.872,-36.621,-30.762,-27.832,-30.762,346.191
1689608815.876,-47.363,-30.273,-29.297,-36.133,27.832
1689608815.880,-46.387,-25.879,-26.855,-41.016,-237.793
1689608815.884,-40.039,-26.855,-30.762,-36.133,-96.191
1689608815.886,-37.598,-30.762,-22.949,-27.832,-48.828
1689608815.890,-28.809,-24.902,-22.949,-31.250,-123.535
1689608815.894,-49.316,-24.902,-29.297,-44.434,-46.387
1689608815.898,-55.176,-26.367,-26.367,-49.316,-44.434
1689608815.902,-36.621,-24.902,-27.832,-41.992,-99.121
1689608815.906,-33.203,-25.391,-31.738,-28.320,-49.316
1689608815.910,-25.879,-27.344,-31.250,-24.902,4.395
1689608815.913,-32.227,-32.227,-31.250,-26.855,278.809
1689608815.917,-49.805,-34.180,-30.762,-36.621,344.238
1689608815.921,-50.781,-33.691,-30.273,-49.316,-74.707
1689608815.925,-41.992,-33.691,-29.297,-37.109,-104.492
1689608815.929,-31.250,-30.762,-27.832,-21.484,69.336
1689608815.931,-29.297,-29.785,-26.367,-25.391,-48.828
1689608815.935,-34.668,-30.762,-23.438,-32.227,-232.422
1689608815.939,-34.668,-30.762,-22.949,-35.156,-173.340
1689608815.943,-32.227,-24.414,-24.414,-27.344,-136.230
1689608815.947,-20.508,-28.320,-33.691,-26.367,-124.512
1689608815.951,-21.973,-32.227,-35.156,-35.645,-81.055
1689608815.955,-43.945,-34.668,-32.227,-37.109,115.723
1689608815.958,-59.082,-33.203,-35.156,-34.668,211.914
1689608815.962,-54.688,-25.879,-32.227,-30.762,-75.684
1689608815.966,-35.645,-28.320,-31.738,-21.484,-128.418
1689608815.970,-42.480,-32.227,-39.062,-36.621,-70.312
1689608815.974,-51.758,-32.715,-38.086,-47.852,-125.977
1689608815.977,-52.734,-32.227,-31.250,-41.504,-106.445
1689608815.981,-56.152,-33.691,-25.391,-37.109,-124.512
1689608815.985,-44.434,-32.715,-28.809,-24.414,-47.852
1689608815.989,-25.391,-26.855,-30.762,-24.414,8.301
1689608815.993,-23.438,-21.973,-29.297,-37.109,-101.074
1689608815.997,-36.133,-25.879,-27.344,-37.598,-121.582
1689608816.001,-47.852,-27.344,-29.297,-31.250,222.656
1689608816.004,-43.457,-26.855,-39.062,-32.715,335.449
1689608816.008,-36.621,-28.809,-32.715,-25.879,-67.871
1689608816.012,-41.504,-29.297,-29.785,-33.691,-159.180
1689608816.016,-50.293,-32.715,-34.180,-51.270,-31.250
1689608816.020,-54.199,-34.668,-29.785,-43.945,-114.746
1689608816.022,-30.762,-31.738,-29.785,-31.738,-144.043
1689608816.026,-29.785,-28.320,-35.156,-28.809,-80.566
1689608816.030,-44.434,-25.879,-33.203,-27.832,-23.926
1689608816.034,-40.527,-25.879,-30.273,-30.273,-29.785
1689608816.038,-43.945,-29.785,-30.762,-38.574,-197.754
1689608816.042,-33.691,-29.785,-30.273,-31.738,31.738
1689608816.046,-29.297,-28.809,-34.668,-32.227,470.703
1689608816.049,-37.109,-26.367,-39.062,-44.434,114.258
1689608816.053,-42.969,-22.949,-38.574,-55.664,-275.879
1689608816.057,-47.363,-19.043,-35.156,-45.410,-201.660
1689608816.061,-37.109,-19.043,-30.762,-26.855,-171.875
1689608816.065,-27.832,-19.531,-34.180,-29.297,-181.152
1689608816.081,-30.762,-20.508,-35.645,-33.691,-155.273
1689608816.085,-32.715,-27.344,-30.273,-35.156,-99.609
1689608816.089,-32.715,-26.855,-27.832,-27.832,-92.773
1689608816.093,-30.762,-25.391,-27.832,-16.113,-89.355
1689608816.097,-22.461,-24.414,-31.738,-13.184,-70.801
1689608816.101,-22.949,-20.508,-31.738,-22.461,28.809
1689608816.105,-27.832,-20.020,-26.855,-28.809,45.410
1689608816.108,-34.668,-20.996,-24.902,-27.344,-16.602
1689608816.112,-29.785,-22.461,-33.691,-23.926,12.695
1689608816.116,-28.320,-25.391,-35.156,-23.926,277.344
1689608816.120,-30.762,-25.879,-32.715,-34.668,356.934
1689608816.124,-33.203,-26.367,-30.762,-41.504,0.000
1689608816.127,-40.039,-28.809,-29.297,-39.062,-95.215
1689608816.131,-39.062,-32.227,-33.691,-31.250,-95.215
1689608816.135,-28.809,-30.273,-31.738,-28.320,-155.273
1689608816.139,-28.809,-27.344,-33.691,-33.203,-147.949
1689608816.143,-36.133,-27.832,-39.062,-34.180,-65.430
1689608816.147,-39.551,-32.227,-40.039,-34.180,22.461
1689608816.151,-41.992,-30.762,-32.227,-28.809,-101.074
1689608816.154,-27.832,-20.020,-25.391,-15.625,-137.695
1689608816.158,-17.578,-17.090,-27.344,-13.184,77.637
1689608816.162,-28.320,-19.043,-32.227,-26.367,316.406
1689608816.166,-30.762,-14.648,-31.738,-32.715,84.473
1689608816.170,-33.691,-16.113,-27.344,-25.391,-185.059
1689608816.171,-34.668,-20.996,-25.879,-16.113,-112.793
1689608816.175,-31.250,-20.020,-32.227,-21.484,-86.426
1689608816.179,-41.992,-20.996,-35.645,-29.297,-167.969
1689608816.183,-54.199,-20.996,-34.180,-35.156,-169.922
1689608816.187,-56.641,-20.020,-32.227,-34.668,-93.262
1689608816.191,-47.363,-25.879,-34.668,-29.297,-69.336
1689608816.195,-36.621,-27.344,-40.527,-34.180,27.832
1689608816.198,-34.180,-25.879,-39.551,-38.574,96.680
1689608816.202,-46.387,-26.855,-34.180,-30.762,257.324
1689608816.206,-55.176,-23.926,-35.645,-25.879,280.273
1689608816.210,-52.246,-29.297,-38.574,-27.832,-52.734
1689608816.214,-56.641,-31.250,-39.551,-24.902,-45.898
1689608816.216,-69.336,-31.250,-41.992,-33.691,53.223
1689608816.220,-80.078,-35.156,-34.668,-40.039,-145.996
1689608816.224,-84.961,-29.297,-31.738,-30.273,-234.375
1689608816.228,-89.355,-26.855,-36.133,-18.066,-120.605
1689608816.232,-88.867,-28.320,-38.574,-15.137,-52.246
1689608816.236,-84.473,-29.785,-35.645,-15.625,11.719
1689608816.240,-86.426,-31.738,-34.668,-26.855,-52.734
1689608816.243,-96.191,-33.203,-37.109,-31.738,-1.465
1689608816.247,-89.844,-36.621,-39.062,-21.484,199.707
1689608816.251,-70.801,-32.227,-38.574,-21.973,-51.758
1689608816.255,-63.477,-28.809,-32.715,-26.367,-210.449
1689608816.259,-67.871,-31.250,-33.203,-32.227,-88.379
1689608816.262,-66.406,-28.320,-30.273,-29.785,-28.320
1689608816.266,-53.223,-26.855,-27.344,-20.996,-85.938
1689608816.270,-50.781,-27.344,-32.715,-19.531,-108.398
1689608816.274,-49.316,-30.273,-37.598,-20.996,21.484
1689608816.278,-52.734,-32.715,-40.039,-31.250,-4.883
1689608816.282,-68.848,-33.203,-38.574,-39.551,-133.301
1689608816.286,-64.453,-30.762,-35.645,-33.691,-41.992
1689608816.289,-44.922,-30.273,-33.203,-21.484,257.812
1689608816.293,-41.992,-33.203,-31.738,-21.973,141.113
1689608816.297,-49.316,-36.621,-31.250,-32.227,-164.062
1689608816.301,-32.715,-36.621,-30.762,-16.113,-161.133
1689608816.305,-44.922,-34.668,-27.832,-13.184,70.801
1689608816.322,-76.660,-41.504,-28.809,-45.410,5.859
1689608816.326,-76.172,-45.898,-29.297,-63.965,-220.215
1689608816.330,-86.914,-47.363,-27.832,-86.914,-111.328
1689608816.334,-102.051,-50.781,-23.926,-95.703,-92.285
1689608816.338,-113.770,-50.293,-22.949,-107.422,-147.949
1689608816.342,-105.469,-50.293,-25.879,-111.816,-55.176
1689608816.346,-93.262,-53.223,-26.367,-105.469,153.320
1689608816.349,-108.887,-51.270,-30.762,-115.723,379.883
1689608816.353,-104.492,-45.898,-34.180,-106.934,48.340
1689608816.357,-87.402,-47.852,-32.715,-87.891,-220.215
1689608816.361,-74.707,-47.363,-41.016,-74.219,-104.004
1689608816.365,-62.500,-38.086,-39.062,-67.871,-55.664
1689608816.351,-56.641,-36.133,-28.809,-65.918,-119.629
1689608816.355,-58.594,-41.992,-30.762,-69.824,-152.344
1689608816.359,-62.012,-42.480,-32.227,-67.383,-99.609
1689608816.363,-44.434,-39.551,-32.715,-52.734,-35.645
1689608816.367,-26.367,-39.551,-33.203,-51.270,-41.504
1689608816.371,-29.297,-36.621,-32.227,-57.617,-19.043
1689608816.375,-32.715,-33.203,-30.762,-57.617,57.617
1689608816.378,-33.691,-32.715,-32.227,-53.711,-0.977
1689608816.382,-24.902,-32.227,-35.645,-39.062,-35.645
1689608816.386,-13.184,-27.832,-33.691,-31.738,6.348
1689608816.390,-13.672,-23.926,-33.691,-39.551,95.703
1689608816.394,-22.461,-29.785,-32.715,-33.691,-47.363
1689608816.396,-25.391,-29.785,-31.738,-26.855,-242.188
1689608816.400,-40.039,-21.484,-43.457,-47.852,-127.441
1689608816.404,-44.922,-21.484,-42.480,-51.758,281.738
1689608816.408,-21.484,-21.484,-36.621,-42.969,194.824
1689608816.412,-22.461,-19.043,-44.434,-51.270,-224.121
1689608816.416,-34.180,-20.508,-46.875,-49.316,36.133
1689608816.420,-34.668,-21.973,-42.969,-41.016,230.469
1689608816.423,-28.320,-22.461,-46.387,-38.574,-93.750
1689608816.427,-20.996,-21.973,-44.922,-40.039,-183.594
1689608816.431,-22.949,-21.484,-43.457,-44.922,40.527
1689608816.435,-30.762,-24.902,-41.016,-38.574,108.887
1689608816.439,-23.926,-24.414,-40.039,-33.691,-176.758
1689608816.456,-12.207,-23.438,-43.945,-26.367,-204.590
1689608816.460,-18.066,-28.809,-45.898,-29.785,-110.352
1689608816.464,-27.832,-29.785,-43.457,-45.898,-145.996
1689608816.468,-29.785,-30.273,-44.922,-47.852,-154.785
1689608816.472,-25.391,-28.809,-40.039,-41.504,-95.215
1689608816.476,-15.625,-28.809,-37.109,-38.086,50.293
1689608816.480,-13.184,-31.250,-39.551,-38.086,41.504
1689608816.483,-20.996,-29.785,-37.109,-37.109,-39.062
1689608816.487,-20.508,-29.785,-38.574,-41.016,-103.027
1689608816.491,-20.020,-31.250,-37.598,-37.598,174.316
1689608816.495,-16.602,-30.273,-37.109,-27.832,317.383
1689608816.499,-20.508,-28.320,-35.645,-29.297,-73.242
1689608816.501,-29.297,-29.785,-37.109,-33.691,-119.141
1689608816.505,-28.320,-31.250,-41.016,-35.156,-44.922
1689608816.509,-24.414,-30.273,-44.434,-31.738,-152.832
1689608816.513,-12.207,-33.691,-40.527,-22.949,-152.832
1689608816.517,-10.742,-35.156,-41.504,-20.996,-35.645
1689608816.521,-20.996,-34.668,-43.945,-28.809,58.594
1689608816.525,-32.227,-32.715,-39.551,-34.668,-14.648
1689608816.528,-29.297,-30.273,-36.621,-33.203,-155.762
1689608816.532,-20.996,-32.227,-32.227,-18.555,55.176
1689608816.536,-13.672,-30.762,-32.715,-19.531,309.082
1689608816.540,-17.090,-23.438,-31.738,-33.203,-11.230
1689608816.544,-28.320,-22.461,-36.133,-32.227,-145.996
1689608816.547,-33.691,-26.367,-39.062,-37.598,-73.242
1689608816.551,-28.809,-20.996,-27.344,-28.320,-55.664
1689608816.555,-22.949,-24.902,-25.879,-20.996,-91.797
1689608816.559,-33.691,-32.715,-34.668,-44.434,-119.141
1689608816.563,-38.086,-26.855,-30.273,-46.875,-22.461
1689608816.567,-31.738,-27.344,-28.809,-39.062,-24.414
1689608816.571,-32.227,-31.738,-41.504,-39.062,-38.086
1689608816.574,-25.391,-35.645,-39.551,-33.691,17.090
1689608816.578,-25.879,-37.598,-31.250,-36.621,246.582
1689608816.582,-36.621,-33.203,-33.691,-45.410,276.855
1689608816.586,-44.434,-29.785,-30.762,-47.363,-122.070
1689608816.590,-43.945,-30.762,-30.273,-43.457,-188.965
1689608816.591,-35.645,-34.180,-35.156,-38.574,-110.840
1689608816.595,-34.668,-37.598,-36.621,-39.062,-88.867
1689608816.599,-34.180,-35.156,-34.668,-42.480,-155.762
1689608816.603,-45.898,-30.273,-35.156,-45.898,-23.926
1689608816.607,-49.316,-32.715,-39.551,-39.062,101.074
1689608816.611,-36.133,-32.715,-33.691,-33.203,-7.812
1689608816.615,-32.227,-31.738,-29.785,-35.156,8.301
1689608816.618,-35.645,-29.297,-35.645,-42.969,98.145
1689608816.622,-49.316,-28.320,-36.621,-49.316,249.512
1689608816.626,-43.945,-32.227,-35.156,-45.410,28.809
1689608816.630,-26.855,-28.320,-37.598,-44.922,-182.617
1689608816.634,-35.156,-28.809,-36.133,-53.711,-125.000
1689608816.636,-49.805,-37.598,-29.785,-57.617,-123.535
1689608816.640,-52.734,-37.109,-28.320,-45.898,-172.363
1689608816.644,-42.969,-32.227,-29.297,-27.344,-110.840
1689608816.648,-10.254,-32.227,-22.461,2.930,-22.949
1689608816.652,-10.742,-20.996,-27.344,-11.719,-61.035
1689608816.656,-39.551,-14.160,-44.922,-58.594,-125.977
1689608816.660,-40.527,-19.043,-49.805,-55.664,-150.391
1689608816.663,-42.969,-20.996,-48.340,-36.621,259.277
1689608816.667,-37.598,-25.391,-49.805,-31.738,451.660
1689608816.671,-23.926,-27.344,-52.246,-23.926,-26.855
1689608816.675,-20.508,-24.902,-47.363,-22.461,-135.742
1689608816.679,-28.320,-24.414,-41.992,-24.414,-34.668
1689608816.682,-29.785,-24.414,-41.992,-16.602,-158.203
1689608816.686,-25.879,-28.809,-38.086,-7.812,-179.199
1689608816.690,-21.484,-31.738,-38.574,-13.672,-71.289
1689608816.694,-27.344,-33.691,-39.551,-25.879,-70.312
1689608816.698,-41.992,-33.691,-38.086,-33.691,-93.750
1689608816.702,-48.340,-27.344,-37.598,-30.273,-129.395
1689608816.706,-41.992,-25.391,-36.621,-16.602,98.145
1689608816.709,-31.738,-26.855,-32.715,-14.648,272.949
1689608816.713,-33.691,-26.855,-35.645,-28.320,20.020
1689608816.717,-31.738,-30.762,-40.039,-35.645,-149.902
1689608816.721,-30.762,-32.227,-31.250,-31.250,13.184
1689608816.725,-34.668,-29.785,-31.738,-20.996,97.656
1689608816.726,-26.855,-29.297,-36.133,-20.996,-134.277
1689608816.730,-31.250,-31.250,-30.273,-34.668,-187.012
1689608816.734,-45.898,-29.785,-33.203,-39.551,-104.492
1689608816.738,-54.199,-26.855,-38.086,-37.109,-104.004
1689608816.742,-58.105,-33.203,-33.691,-28.809,-127.930
1689608816.746,-53.223,-37.109,-28.809,-18.066,13.184
1689608816.750,-52.246,-37.109,-27.832,-26.855,291.016
1689608816.753,-61.035,-33.691,-28.809,-40.039,159.180
1689608816.757,-59.570,-33.203,-27.344,-35.156,-121.582
1689608816.761,-51.270,-37.109,-30.762,-23.438,-136.230
1689608816.765,-44.922,-34.180,-31.738,-18.066,110.840
1689608816.769,-47.363,-32.227,-26.367,-31.738,104.004
1689608816.772,-51.758,-29.785,-25.879,-40.039,-211.426
1689608816.776,-54.199,-30.762,-30.273,-34.668,-125.000
1689608816.780,-57.617,-31.250,-30.762,-28.809,13.672
1689608816.784,-48.828,-32.227,-31.738,-25.391,-110.352
1689608816.788,-45.898,-33.691,-39.062,-30.273,-189.941
1689608816.792,-59.570,-35.156,-35.645,-33.691,63.477
1689608816.796,-70.801,-37.598,-29.297,-39.551,216.797
1689608816.799,-64.453,-36.621,-33.203,-39.551,-55.664
1689608816.803,-52.734,-34.668,-31.738,-28.809,-155.762
1689608816.807,-55.664,-32.715,-22.949,-25.879,14.160
1689608816.811,-62.500,-33.691,-30.273,-33.203,6.836
1689608816.815,-69.824,-34.180,-39.551,-41.992,-187.988
1689608816.831,-65.918,-31.250,-33.203,-30.762,-166.992
1689608816.835,-57.129,-32.715,-38.574,-23.926,-24.902
1689608816.839,-60.547,-36.621,-44.434,-29.785,22.461
1689608816.843,-68.359,-40.527,-37.598,-43.457,-83.984
1689608816.847,-73.730,-39.062,-33.203,-45.410,-168.457
1689608816.851,-69.336,-34.668,-34.180,-30.273,101.562
1689608816.855,-40.039,-30.273,-40.039,-18.555,164.062
1689608816.858,-16.602,-32.715,-35.156,-7.812,4.883
1689608816.862,-41.992,-43.457,-23.926,-24.414,-30.273
1689608816.866,-62.988,-44.922,-23.438,-41.504,168.457
1689608816.870,-61.035,-45.898,-25.879,-34.180,141.602
1689608816.874,-48.828,-48.340,-26.367,-28.320,-190.430
1689608816.876,-41.016,-49.316,-24.414,-26.855,-120.117
1689608816.880,-49.805,-51.758,-24.414,-32.715,-100.586
1689608816.884,-53.711,-51.270,-26.367,-36.621,-208.008
1689608816.888,-57.129,-48.828,-29.785,-32.715,-177.734
1689608816.892,-50.781,-46.387,-26.855,-24.902,96.680
1689608816.896,-38.086,-43.457,-25.879,-31.250,176.270
1689608816.900,-42.969,-43.945,-32.227,-41.992,22.949
1689608816.903,-55.176,-46.875,-31.738,-37.598,-119.141
1689608816.907,-56.641,-45.410,-27.344,-32.227,-26.367
1689608816.911,-47.852,-41.016,-29.297,-20.996,210.449
1689608816.915,-32.227,-36.621,-32.715,-17.090,27.344
1689608816.919,-31.250,-32.715,-29.785,-26.855,-112.305
1689608816.922,-45.898,-37.109,-25.879,-32.227,-127.930
1689608816.926,-52.734,-41.016,-36.133,-40.527,-124.512
1689608816.930,-44.434,-41.016,-41.016,-38.086,-144.043
1689608816.934,-34.668,-39.062,-27.344,-24.414,-137.695
1689608816.938,-34.668,-37.598,-28.320,-35.156,-63.477
1689608816.942,-47.363,-38.086,-34.180,-48.340,51.270
1689608816.946,-56.641,-41.504,-32.715,-43.457,8.789
1689608816.949,-47.852,-45.898,-34.668,-34.668,-35.156
1689608816.953,-44.922,-43.457,-35.645,-26.855,304.199
1689608816.957,-43.945,-41.504,-33.691,-30.273,439.941
1689608816.961,-46.387,-39.062,-33.691,-37.598,-56.152
1689608816.965,-48.340,-37.598,-39.062,-36.133,-145.508
1689608816.966,-34.668,-37.109,-39.062,-29.785,-21.973
1689608816.970,-23.926,-36.621,-32.227,-20.996,-177.734
1689608816.974,-28.320,-32.715,-29.785,-24.414,-176.270
1689608816.978,-39.062,-32.715,-29.785,-39.551,-78.613
1689608816.982,-52.734,-37.598,-35.645,-46.875,-95.703
1689608816.986,-55.664,-36.621,-36.621,-39.551,-101.074
1689608816.990,-49.805,-32.227,-32.715,-30.273,-44.922
1689608816.993,-55.176,-35.645,-34.668,-34.180,49.316
1689608816.997,-62.500,-41.504,-34.668,-41.992,221.191
1689608817.001,-65.430,-36.133,-32.227,-48.828,-3.906
1689608817.005,-65.430,-33.203,-31.738,-43.457,-227.539
1689608817.009,-57.129,-35.645,-37.598,-27.832,-3.906
1689608817.012,-48.340,-34.180,-41.504,-29.785,53.223
1689608817.016,-48.828,-30.762,-33.203,-39.062,-175.293
1689608817.020,-54.688,-30.273,-33.691,-45.410,-197.754
1689608817.024,-55.176,-32.715,-40.039,-40.527,-123.047
1689608817.028,-45.898,-33.203,-38.086,-27.832,-56.641
1689608817.032,-39.551,-29.297,-35.156,-27.832,63.965
1689608817.036,-43.945,-32.715,-34.180,-46.875,81.543
1689608817.039,-56.641,-33.691,-30.273,-51.758,306.641
1689608817.043,-73.730,-34.668,-29.785,-47.852,366.699
1689608817.047,-70.312,-37.109,-34.668,-44.434,-52.734
1689608817.051,-53.223,-33.691,-38.086,-40.527,-128.906
1689608817.055,-53.711,-33.691,-32.227,-44.434,-36.621
1689608817.056,-59.570,-37.598,-27.344,-47.852,-140.625
1689608817.060,-58.105,-41.016,-32.715,-51.270,-259.277
1689608817.064,-56.152,-38.086,-36.133,-41.992,-49.316
1689608817.068,-44.434,-37.109,-32.715,-36.133,66.406
1689608817.072,-23.926,-34.668,-30.762,-42.969,-113.281
1689608817.076,-28.320,-34.180,-35.645,-50.781,-121.094
1689608817.080,-34.180,-35.156,-37.598,-44.434,105.957
1689608817.083,-33.203,-28.809,-34.180,-23.926,85.449
1689608817.087,-38.086,-27.344,-29.297,-14.160,-165.527
1689608817.091,-37.598,-27.832,-26.855,-22.949,-235.840
1689608817.095,-47.363,-35.645,-35.156,-39.062,-34.180
1689608817.099,-48.340,-41.016,-36.621,-42.969,96.191
