timestamps,TP9,AF7,AF8,TP10,Right AUX
1692045250.672,-18.555,-30.273,-32.715,-18.066,-153.320
1692045250.676,-15.625,-28.809,-30.762,-23.438,-19.043
1692045250.680,-19.043,-23.438,-31.738,-30.762,-72.266
1692045250.684,-21.484,-25.879,-36.621,-39.062,-157.227
1692045250.688,-22.461,-30.762,-35.645,-41.016,21.973
1692045250.692,-15.625,-30.762,-30.273,-22.461,308.105
1692045250.696,-8.301,-33.691,-30.762,-12.695,176.758
1692045250.699,-13.672,-36.133,-33.203,-26.367,-79.590
1692045250.703,-16.602,-33.691,-28.809,-27.832,-16.602
1692045250.707,-28.320,-36.133,-24.902,-18.555,206.543
1692045250.711,-33.691,-33.203,-24.902,-15.137,-26.367
1692045250.715,-16.602,-26.367,-22.949,-6.348,-223.633
1692045250.718,-8.789,-26.367,-18.555,0.000,-86.426
1692045250.722,-17.090,-32.227,-20.508,-12.207,-83.496
1692045250.726,-24.414,-34.180,-21.973,-27.344,-163.574
1692045250.730,-38.086,-35.156,-28.809,-32.227,-162.109
1692045250.734,-35.156,-34.180,-27.344,-20.508,-72.754
1692045250.738,-25.391,-29.785,-24.902,-20.508,67.871
1692045250.742,-32.715,-26.367,-27.344,-32.715,13.184
1692045250.745,-29.785,-20.020,-24.902,-36.621,-113.281
1692045250.749,-15.625,-16.602,-20.996,-26.855,229.492
1692045250.753,-17.578,-21.484,-25.879,-25.879,425.293
1692045250.757,-15.625,-29.297,-32.227,-27.832,-38.574
1692045250.761,-3.418,-33.203,-27.344,-15.625,-193.848
1692045250.761,-26.855,-30.762,-30.273,-24.902,-108.398
1692045250.765,-41.016,-22.949,-37.598,-36.621,-139.160
1692045250.769,-26.855,-21.484,-35.645,-23.926,-154.785
1692045250.773,-24.902,-25.391,-32.715,-18.555,-75.195
1692045250.777,-13.184,-21.973,-28.320,-24.414,26.855
1692045250.781,-0.488,-20.020,-33.691,-36.133,-41.992
1692045250.785,-17.578,-19.531,-38.574,-43.457,-92.285
1692045250.788,-23.926,-21.973,-35.156,-30.273,-28.320
1692045250.792,-23.438,-24.414,-38.574,-20.020,303.711
1692045250.796,-31.738,-22.461,-38.086,-29.785,153.320
1692045250.800,-29.297,-25.879,-33.203,-34.668,-212.891
1692045250.804,-26.855,-24.902,-30.762,-27.832,-104.492
1692045250.808,-20.996,-13.672,-33.203,-23.438,-34.668
1692045250.812,-13.672,-14.648,-33.203,-23.926,-178.223
1692045250.816,-22.461,-20.996,-35.156,-33.203,-181.152
1692045250.820,-27.344,-23.926,-37.598,-44.922,-34.668
1692045250.824,-30.762,-23.438,-37.598,-52.246,-60.547
1692045250.828,-36.621,-25.391,-42.480,-46.875,-23.926
1692045250.832,-44.922,-30.273,-43.457,-43.457,29.785
1692045250.835,-49.805,-32.227,-41.016,-51.270,145.508
1692045250.839,-50.781,-32.227,-41.992,-61.035,150.391
1692045250.843,-58.105,-35.156,-44.434,-72.266,-174.805
1692045250.847,-60.059,-36.133,-44.434,-70.801,-178.711
1692045250.851,-41.016,-34.180,-37.598,-59.082,-82.520
1692045250.853,-25.391,-34.668,-36.133,-47.363,-113.770
1692045250.857,-30.762,-38.086,-36.621,-45.898,-69.336
1692045250.861,-30.273,-36.133,-31.738,-41.992,-33.691
1692045250.865,-24.414,-28.320,-25.391,-35.156,45.898
1692045250.869,-24.902,-29.785,-27.832,-35.156,43.457
1692045250.873,-29.785,-39.551,-32.715,-39.551,24.902
1692045250.877,-26.855,-38.574,-31.738,-48.828,5.371
1692045250.880,-25.879,-38.086,-35.645,-41.992,289.062
1692045250.884,-7.324,-30.762,-41.992,-17.090,191.406
1692045250.888,-6.836,-24.902,-30.273,-14.648,-209.473
1692045250.892,-51.270,-33.203,-20.020,-49.316,-194.824
1692045250.896,-73.730,-32.715,-23.926,-83.008,-136.719
1692045250.898,-71.777,-29.785,-26.855,-84.473,-186.523
1692045250.902,-88.379,-30.762,-31.250,-87.891,-190.430
1692045250.906,-99.609,-29.297,-33.203,-104.004,-49.316
1692045250.910,-92.773,-29.785,-28.320,-107.422,-12.207
1692045250.914,-106.934,-31.250,-25.391,-116.699,-80.078
1692045250.918,-126.465,-34.668,-27.344,-143.555,-80.566
1692045250.922,-118.652,-30.762,-32.715,-150.391,145.508
1692045250.925,-115.723,-23.926,-30.273,-128.418,347.168
1692045250.929,-126.465,-26.367,-26.855,-125.488,-6.348
1692045250.933,-131.348,-36.133,-30.762,-136.230,-148.926
1692045250.937,-133.789,-35.156,-30.273,-131.348,-68.848
1692045250.941,-129.395,-27.344,-28.320,-137.695,-163.086
1692045250.956,-117.188,-26.855,-33.203,-135.742,-190.918
1692045250.960,-100.586,-27.344,-40.527,-111.816,-118.164
1692045250.964,-91.309,-23.926,-33.691,-93.750,-43.945
1692045250.968,-91.797,-19.043,-30.762,-88.867,-110.840
1692045250.972,-66.895,-1.953,-18.066,-66.406,-96.191
1692045250.976,-53.223,-38.574,-21.973,-60.059,-56.641
1692045250.980,-58.105,-66.406,-28.320,-49.805,328.613
1692045250.983,-30.762,-18.555,-9.277,-24.414,401.367
1692045250.987,-14.160,30.273,4.395,-23.438,-69.824
1692045250.991,-22.461,-2.441,-7.324,-26.855,-188.477
1692045250.995,-47.852,-69.824,-37.109,-42.969,-75.684
1692045250.999,-31.250,-37.598,-15.137,-20.996,-150.879
1692045250.988,-23.438,-27.832,-12.207,-21.973,-183.594
1692045250.992,-48.340,-48.340,-40.527,-47.852,-112.305
1692045250.996,4.395,-33.203,1.953,0.977,-112.305
1692045251.000,5.859,-49.316,-6.836,14.648,-162.598
1692045251.004,-52.734,-44.434,-60.059,-31.738,-138.672
1692045251.008,-60.547,-3.418,-62.500,-53.711,173.340
1692045251.012,-41.016,51.758,-48.828,-53.223,153.320
1692045251.015,-34.668,115.723,-37.109,-42.480,-132.324
1692045251.019,-41.992,133.301,-30.273,-24.902,-129.395
1692045251.023,-41.504,165.039,-32.715,-18.555,174.805
1692045251.027,-35.156,219.238,-31.738,-26.855,313.965
1692045251.031,-31.250,261.230,-26.855,-33.691,-83.496
1692045251.047,-30.273,307.617,-24.902,-33.691,-191.406
1692045251.051,-27.344,367.188,-26.367,-27.832,-123.535
1692045251.055,-26.367,421.875,-23.438,-24.414,-148.438
1692045251.059,-25.391,468.262,-21.484,-17.578,-144.531
1692045251.063,-30.762,508.301,-20.508,-20.020,-58.594
1692045251.067,-39.551,540.039,-20.996,-39.551,317.871
1692045251.071,-35.156,553.223,-25.879,-49.805,278.809
1692045251.074,-34.180,549.316,-29.785,-41.992,-35.156
1692045251.078,-41.992,538.086,-28.809,-37.598,-65.918
1692045251.082,-47.363,512.695,-27.344,-39.062,4.395
1692045251.086,-57.617,476.562,-30.762,-35.156,-131.348
1692045251.090,-61.523,433.594,-35.156,-49.316,-187.988
1692045251.092,-53.711,385.254,-30.762,-65.918,-106.934
1692045251.096,-56.641,337.891,-29.297,-66.406,-51.270
1692045251.100,-62.988,290.039,-32.227,-62.012,-126.953
1692045251.104,-64.453,235.352,-28.809,-67.871,-145.020
1692045251.108,-73.730,185.059,-22.461,-62.500,-70.312
1692045251.112,-73.242,138.184,-24.902,-44.434,-15.625
1692045251.116,-62.988,92.773,-30.273,-50.781,-23.438
1692045251.119,-54.688,50.293,-30.762,-61.523,-78.125
1692045251.123,-62.012,5.371,-36.621,-57.129,98.145
1692045251.127,-80.566,-39.062,-38.086,-58.105,123.535
1692045251.131,-71.289,-73.730,-33.203,-64.453,-177.734
1692045251.135,-57.617,-101.074,-31.738,-53.711,-171.875
1692045251.138,-57.617,-125.977,-30.762,-52.734,-17.090
1692045251.142,-51.758,-146.973,-29.785,-54.688,-21.484
1692045251.146,-59.570,-163.086,-34.180,-55.176,-160.156
1692045251.150,-63.477,-186.523,-37.109,-54.688,-110.352
1692045251.154,-53.711,-206.543,-36.621,-47.363,276.367
1692045251.158,-60.059,-215.820,-38.086,-57.129,201.660
1692045251.162,-71.777,-220.703,-32.715,-67.871,-65.918
1692045251.165,-76.660,-222.656,-33.203,-80.566,-76.172
1692045251.169,-69.824,-222.168,-38.574,-82.520,223.633
1692045251.173,-55.176,-215.332,-40.039,-74.219,85.938
1692045251.177,-55.664,-215.820,-40.039,-67.383,-215.332
1692045251.181,-57.129,-218.262,-41.016,-71.289,-182.129
1692045251.183,-57.129,-214.355,-41.016,-84.473,-174.805
1692045251.187,-60.059,-211.914,-36.133,-77.148,-152.344
1692045251.191,-64.453,-217.773,-32.715,-62.012,-135.742
1692045251.195,-59.082,-210.938,-36.621,-62.988,-53.223
1692045251.199,-57.129,-203.125,-31.250,-63.965,11.230
1692045251.203,-72.754,-208.008,-27.344,-67.871,-45.410
1692045251.207,-69.824,-203.613,-35.645,-68.359,-17.090
1692045251.210,-54.688,-189.453,-40.527,-55.176,187.988
1692045251.214,-51.270,-185.059,-40.527,-42.480,323.242
1692045251.218,-51.758,-185.059,-35.645,-54.688,-42.480
1692045251.222,-56.152,-176.270,-27.832,-63.965,-155.273
1692045251.226,-55.664,-170.410,-31.250,-49.805,-54.199
1692045251.227,-40.039,-169.922,-36.133,-35.156,-118.164
1692045251.231,-28.809,-162.598,-34.180,-36.133,-113.770
1692045251.235,-31.738,-150.879,-30.273,-46.387,-101.562
1692045251.239,-37.109,-144.531,-27.832,-43.945,-66.406
1692045251.243,-35.645,-145.508,-32.715,-37.598,-23.438
1692045251.247,-31.250,-142.090,-38.574,-34.180,-67.383
1692045251.251,-29.785,-140.625,-39.551,-30.273,-18.066
1692045251.254,-34.180,-137.207,-37.598,-25.391,432.617
1692045251.258,-34.668,-130.371,-34.668,-33.203,450.684
1692045251.262,-25.879,-125.488,-33.691,-37.109,-89.355
1692045251.266,-11.230,-117.188,-34.180,-21.484,-190.918
1692045251.270,-6.836,-112.305,-33.691,-14.648,-128.906
1692045251.273,-0.488,-101.562,-35.645,-12.695,-203.613
1692045251.277,15.625,-91.797,-31.250,0.977,-240.234
1692045251.281,18.555,-92.285,-22.949,10.254,-111.328
1692045251.285,17.090,-89.844,-18.066,19.043,-69.824
1692045251.289,44.434,-81.055,-24.902,28.320,-102.051
1692045251.293,81.543,-72.754,-27.832,46.875,10.742
1692045251.297,63.477,-86.914,-12.695,51.270,176.270
1692045251.300,14.160,-94.727,-15.625,22.949,155.273
1692045251.304,5.371,-92.285,-26.855,12.207,-146.484
1692045251.308,14.160,-93.262,-19.531,28.809,-123.047
1692045251.312,11.230,-87.402,-11.230,34.180,71.777
1692045251.316,14.648,-81.055,-17.578,35.156,-77.637
1692045251.317,21.973,-74.219,-23.438,33.203,-211.914
1692045251.321,20.508,-71.289,-14.648,32.227,-177.734
1692045251.325,17.578,-68.359,-8.301,36.621,-46.875
1692045251.329,21.973,-56.152,-15.625,34.668,0.977
1692045251.333,21.484,-47.852,-21.973,27.832,-5.859
1692045251.337,12.695,-51.758,-19.531,20.996,-7.324
1692045251.341,4.883,-61.035,-21.484,20.996,356.934
1692045251.344,4.395,-60.547,-25.879,18.066,362.793
1692045251.348,8.789,-53.711,-18.555,15.137,-91.797
1692045251.352,4.395,-52.734,-20.996,8.789,-157.227
1692045251.356,-8.301,-51.270,-26.367,-4.883,-169.922
1692045251.360,-13.672,-46.387,-21.484,-6.348,-162.598
1692045251.365,-4.883,-48.828,-21.484,-4.395,-98.633
1692045251.369,-0.977,-50.293,-17.090,-0.977,-52.734
1692045251.373,-10.254,-48.340,-17.090,-7.324,-39.062
1692045251.377,-13.672,-44.922,-21.973,-20.508,-159.668
1692045251.381,-9.277,-43.945,-23.438,-20.020,-171.387
1692045251.385,-13.672,-45.898,-28.809,-12.207,15.625
1692045251.389,-14.160,-42.969,-28.809,-1.953,120.117
1692045251.392,-12.207,-43.945,-26.855,-5.859,-38.574
1692045251.396,-21.973,-48.340,-27.344,-22.949,-209.961
1692045251.400,-34.180,-49.805,-29.785,-19.531,0.000
1692045251.404,-22.949,-52.734,-30.762,-8.301,54.199
1692045251.408,-13.184,-54.688,-28.320,-11.230,-165.527
1692045251.422,-23.926,-59.082,-29.785,-20.020,-141.113
1692045251.426,-20.996,-55.664,-28.320,-23.926,-57.129
1692045251.430,-11.230,-46.387,-27.832,-21.973,-96.680
1692045251.434,-16.113,-47.363,-32.227,-15.625,-143.066
1692045251.438,-20.508,-51.270,-26.855,-13.184,-82.520
1692045251.442,-18.066,-53.223,-19.531,-14.160,358.887
1692045251.446,-25.879,-56.152,-19.531,-14.160,357.910
1692045251.449,-33.691,-46.387,-18.555,-14.648,-104.492
1692045251.453,-31.250,-43.457,-22.461,-11.230,-136.719
1692045251.457,-28.320,-47.363,-29.297,-19.043,26.367
1692045251.461,-31.738,-45.410,-30.762,-27.344,-68.359
1692045251.465,-35.645,-44.922,-30.762,-38.574,-235.840
1692045251.468,-46.387,-48.340,-28.320,-43.457,-206.055
1692045251.472,-45.410,-46.875,-27.344,-39.062,-119.141
1692045251.476,-38.574,-48.340,-33.203,-36.621,-134.766
1692045251.480,-47.852,-60.059,-33.203,-39.551,-186.035
1692045251.484,-55.176,-61.523,-32.227,-48.340,-39.551
1692045251.488,-52.246,-52.734,-33.691,-49.316,65.430
1692045251.492,-52.246,-51.270,-31.738,-41.504,-33.203
1692045251.495,-48.340,-52.246,-28.320,-31.250,-132.324
1692045251.499,-42.480,-52.246,-33.203,-38.086,103.516
1692045251.503,-50.781,-43.945,-36.621,-52.246,217.285
1692045251.507,-41.016,-46.875,-26.855,-35.156,-138.184
1692045251.511,-13.672,-53.711,-22.949,-5.859,-171.387
1692045251.511,-11.719,-38.086,-38.574,-23.438,-54.688
1692045251.515,-30.273,-35.156,-48.340,-51.758,-78.613
1692045251.519,-31.250,-49.316,-47.363,-52.246,-131.348
1692045251.523,-22.461,-49.805,-42.480,-42.969,-75.684
1692045251.527,-17.090,-43.457,-38.574,-29.785,89.355
1692045251.531,-13.184,-37.598,-41.992,-31.250,11.719
1692045251.535,-11.230,-36.133,-43.945,-25.879,-51.758
1692045251.538,-15.137,-39.551,-39.551,-15.625,29.785
1692045251.542,-23.926,-41.992,-33.691,-16.602,345.703
1692045251.546,-19.531,-42.969,-32.227,-11.230,309.570
1692045251.550,-4.883,-40.527,-35.156,-3.906,-127.930
1692045251.554,-4.883,-38.086,-32.715,-8.789,-123.047
1692045251.558,-18.066,-38.574,-32.227,-16.602,-29.785
1692045251.562,-18.555,-42.969,-28.320,-20.996,-151.855
1692045251.566,-26.367,-44.922,-23.438,-15.625,-156.738
1692045251.570,-18.066,-37.109,-22.461,-3.906,-79.102
1692045251.574,-1.465,-41.016,-25.391,-3.418,-91.797
1692045251.578,-11.230,-44.922,-25.879,-14.160,-97.656
1692045251.582,-24.902,-38.086,-29.297,-20.508,-84.473
1692045251.585,-23.926,-32.715,-33.203,-11.719,96.191
1692045251.589,-17.090,-32.715,-31.250,-4.395,204.102
1692045251.593,-10.254,-37.598,-28.809,-8.789,38.086
1692045251.597,-11.719,-39.551,-25.391,-17.578,-66.406
1692045251.601,-17.578,-35.645,-26.855,-16.113,1.465
1692045251.603,-25.879,-35.156,-29.785,-8.301,-101.562
1692045251.607,-24.414,-34.180,-28.809,-19.043,-223.633
1692045251.611,-14.648,-33.203,-23.438,-15.625,-145.996
1692045251.615,-19.531,-38.086,-21.484,-12.207,-69.824
1692045251.619,-26.367,-41.504,-25.879,-23.926,-35.156
1692045251.623,-32.715,-37.109,-27.832,-25.879,50.781
1692045251.627,-40.039,-37.109,-22.949,-13.672,114.258
1692045251.630,-35.645,-42.480,-24.902,-10.742,370.605
1692045251.634,-41.016,-42.480,-33.203,-26.855,284.180
1692045251.638,-45.898,-41.016,-34.668,-43.457,-174.805
1692045251.642,-42.480,-43.945,-30.762,-37.598,-207.031
1692045251.646,-35.156,-41.992,-22.461,-33.691,-95.703
1692045251.662,-33.691,-41.016,-18.066,-30.762,-56.152
1692045251.666,-41.504,-42.969,-24.902,-37.109,-129.883
1692045251.670,-48.340,-41.992,-29.297,-51.270,-101.562
1692045251.674,-54.688,-42.480,-26.367,-52.734,-111.816
1692045251.678,-57.617,-43.457,-29.785,-46.875,-159.668
1692045251.682,-48.340,-46.875,-32.715,-45.410,-85.938
1692045251.686,-54.688,-51.758,-36.133,-48.340,171.387
1692045251.689,-66.406,-57.129,-39.062,-52.246,389.160
1692045251.693,-71.777,-57.129,-36.621,-65.918,-21.484
1692045251.697,-75.195,-52.246,-31.738,-62.500,-240.723
1692045251.701,-62.500,-51.758,-27.832,-59.082,-110.840
1692045251.705,-57.617,-53.223,-28.809,-64.453,-88.867
1692045251.706,-64.941,-51.270,-31.250,-62.500,-167.480
1692045251.710,-66.406,-45.898,-33.203,-61.035,-162.109
1692045251.714,-64.453,-41.016,-32.227,-65.430,-21.973
1692045251.718,-53.711,-38.574,-30.762,-62.500,15.137
1692045251.722,-49.805,-45.410,-34.668,-56.152,-13.184
1692045251.726,-53.711,-49.316,-38.086,-59.082,23.438
1692045251.730,-56.641,-45.410,-36.133,-61.035,299.805
1692045251.733,-55.664,-47.852,-36.621,-60.059,65.430
1692045251.737,-54.688,-46.387,-40.039,-57.617,-258.301
1692045251.741,-50.293,-44.922,-41.016,-58.105,-107.910
1692045251.745,-50.293,-46.387,-38.086,-53.711,270.508
1692045251.749,-51.270,-43.457,-32.227,-62.988,49.805
1692045251.738,-51.758,-43.457,-31.738,-69.336,-221.680
1692045251.742,-57.129,-42.969,-33.691,-61.523,-71.777
1692045251.746,-55.176,-44.434,-34.180,-66.406,7.812
1692045251.750,-57.617,-43.457,-34.180,-69.824,-109.863
1692045251.754,-53.223,-39.062,-35.645,-73.730,-209.473
1692045251.758,-48.828,-40.527,-36.621,-72.754,40.039
1692045251.762,-55.176,-43.945,-38.086,-68.848,111.816
1692045251.765,-56.152,-43.457,-39.062,-66.406,-16.113
1692045251.769,-45.898,-40.527,-41.992,-67.383,-128.418
1692045251.773,-52.734,-37.598,-40.527,-69.336,43.945
1692045251.777,-61.523,-40.527,-41.016,-74.707,100.098
1692045251.781,-52.734,-41.016,-43.945,-76.172,-149.902
1692045251.797,-48.828,-41.016,-42.969,-66.895,-180.176
1692045251.801,-49.316,-38.574,-44.922,-69.824,-109.375
1692045251.805,-55.664,-35.645,-38.574,-68.359,-131.348
1692045251.809,-67.383,-38.574,-37.109,-70.801,-162.109
1692045251.813,-51.270,-38.086,-34.668,-73.242,-18.555
1692045251.817,-41.016,-34.180,-28.809,-58.594,288.574
1692045251.821,-51.758,-32.227,-29.297,-60.547,178.711
1692045251.824,-46.387,-29.785,-25.391,-78.125,-138.184
1692045251.828,-44.922,-29.785,-23.438,-80.566,-140.137
1692045251.832,-56.641,-31.250,-27.832,-65.918,143.066
1692045251.836,-52.734,-33.691,-30.762,-62.012,-0.977
1692045251.840,-48.828,-41.504,-30.273,-62.988,-204.102
1692045251.843,-56.641,-45.410,-28.809,-52.246,-168.945
1692045251.847,-61.035,-40.039,-31.250,-57.129,-151.367
1692045251.851,-50.781,-35.645,-33.691,-59.570,-138.672
1692045251.855,-46.387,-38.086,-28.809,-43.457,-121.094
1692045251.859,-49.805,-38.574,-28.809,-48.340,-68.359
1692045251.863,-53.711,-39.062,-34.180,-70.312,1.465
1692045251.867,-61.523,-44.434,-34.180,-69.824,-28.809
1692045251.870,-52.734,-39.062,-30.762,-51.270,-143.066
1692045251.874,-37.109,-32.227,-29.785,-37.598,76.660
1692045251.878,-37.598,-32.715,-23.926,-30.273,210.938
1692045251.882,-38.086,-29.785,-21.484,-39.062,-92.285
1692045251.886,-33.691,-28.809,-20.508,-47.363,-187.988
1692045251.902,-28.809,-27.832,-20.508,-37.109,-14.160
1692045251.906,-28.320,-29.297,-25.879,-33.203,-74.707
1692045251.910,-22.461,-33.691,-29.785,-31.738,-194.824
1692045251.914,-28.809,-35.645,-29.297,-35.645,-93.262
1692045251.918,-39.551,-39.062,-31.250,-44.434,28.320
1692045251.922,-29.297,-36.621,-38.086,-46.387,23.438
1692045251.926,-16.602,-32.715,-35.156,-43.945,18.555
1692045251.929,-21.973,-29.785,-31.738,-40.527,26.367
1692045251.933,-23.926,-29.785,-30.273,-41.504,304.199
1692045251.937,-20.508,-28.809,-31.738,-46.875,150.391
1692045251.941,-21.973,-30.762,-34.180,-42.480,-173.340
1692045251.945,-12.207,-35.156,-33.203,-31.738,-75.195
1692045251.934,-11.230,-31.250,-34.668,-30.762,63.965
1692045251.938,-20.996,-32.227,-37.598,-29.297,-45.410
1692045251.942,-36.133,-34.668,-36.133,-27.832,-161.621
1692045251.946,-44.922,-33.691,-32.227,-27.344,-66.406
1692045251.950,-35.156,-36.621,-32.227,-22.461,-41.504
1692045251.954,-28.320,-34.668,-35.645,-21.973,-20.996
1692045251.958,-25.391,-29.297,-34.668,-23.438,-12.207
1692045251.961,-30.273,-25.879,-32.715,-27.832,-3.906
1692045251.965,-41.992,-27.832,-32.715,-35.645,-47.852
1692045251.969,-43.945,-36.621,-34.180,-32.227,-131.836
1692045251.973,-42.969,-35.645,-36.133,-22.461,-132.812
1692045251.977,-33.203,-31.250,-34.668,-20.996,125.000
1692045251.977,-31.738,-32.715,-34.180,-25.391,101.562
1692045251.981,-40.039,-30.762,-33.203,-29.785,-221.191
1692045251.985,-37.109,-37.109,-33.203,-21.484,-127.441
1692045251.989,-24.902,-38.574,-31.250,-13.184,115.234
1692045251.993,-11.719,-29.785,-26.855,-13.672,52.246
1692045251.997,-11.230,-28.320,-23.926,-19.043,-22.949
1692045252.001,-12.207,-28.320,-21.484,-25.391,-44.922
1692045252.004,-15.137,-28.320,-21.484,-21.973,231.934
1692045252.008,-20.508,-24.414,-23.926,-21.484,335.938
1692045252.012,-17.090,-20.508,-21.973,-14.160,-69.824
1692045252.016,-16.113,-23.438,-20.020,-13.184,-168.457
1692045252.020,-25.391,-26.367,-25.391,-25.391,-132.812
1692045252.023,-18.066,-25.879,-28.809,-20.996,-153.809
1692045252.027,-6.348,-26.367,-29.785,-15.137,-126.953
1692045252.031,-7.324,-26.855,-30.762,-15.625,-74.707
1692045252.035,-4.883,-26.367,-28.809,-13.672,-90.332
1692045252.039,-4.883,-23.926,-31.250,-11.230,-146.484
1692045252.043,-10.742,-22.461,-36.133,-12.207,-156.738
1692045252.047,-23.926,-23.438,-39.062,-13.184,110.352
1692045252.050,-25.391,-24.414,-34.668,-12.695,321.777
1692045252.054,-16.602,-26.855,-25.391,-17.090,-2.930
1692045252.058,-33.203,-28.320,-26.855,-30.273,-146.973
1692045252.062,-41.016,-28.320,-30.273,-31.738,85.938
1692045252.066,-23.438,-25.879,-31.250,-23.438,12.207
1692045252.067,-13.184,-21.484,-31.738,-23.926,-144.043
1692045252.071,-21.484,-20.508,-25.391,-29.785,-93.262
1692045252.075,-31.250,-17.090,-22.461,-40.039,-94.238
1692045252.079,-41.016,-22.461,-26.855,-42.480,-116.699
1692045252.083,-43.457,-35.156,-26.367,-32.715,-16.113
1692045252.087,-37.598,-34.668,-24.902,-25.879,44.434
1692045252.091,-39.062,-32.715,-26.855,-31.738,436.523
1692045252.094,-46.387,-33.691,-29.785,-35.645,404.785
1692045252.098,-41.992,-27.344,-29.297,-33.203,-106.934
1692045252.102,-32.715,-22.949,-32.715,-35.645,-180.176
1692045252.106,-28.809,-31.738,-39.551,-35.645,-58.594
1692045252.110,-28.320,-36.621,-34.668,-36.133,-148.438
1692045252.113,-34.180,-33.203,-29.785,-46.875,-222.168
1692045252.117,-46.387,-33.203,-30.273,-40.527,-153.320
1692045252.121,-28.809,-25.879,-28.320,-36.621,-114.746
1692045252.125,-13.184,-24.902,-27.344,-41.504,-99.121
1692045252.129,-29.297,-29.785,-32.227,-34.180,-55.176
1692045252.133,-32.715,-30.762,-33.691,-39.062,14.160
1692045252.137,-29.297,-35.156,-36.621,-37.598,43.945
1692045252.140,-28.320,-36.133,-38.086,-30.273,-39.551
1692045252.144,-21.484,-30.762,-28.809,-17.578,-87.891
1692045252.148,-12.695,-33.203,-24.902,-9.277,165.039
1692045252.152,-12.207,-37.109,-28.809,-21.973,179.688
1692045252.156,-13.672,-30.273,-29.785,-18.555,-162.598
1692045252.172,-10.254,-26.855,-29.785,-7.812,-166.016
1692045252.176,-1.953,-23.926,-28.320,4.395,73.242
1692045252.180,-0.488,-17.090,-21.973,9.277,16.602
1692045252.184,-0.488,-18.066,-18.555,5.371,-170.898
1692045252.188,-1.953,-24.414,-17.578,10.254,-80.566
1692045252.192,-5.859,-22.461,-15.625,18.555,294.434
1692045252.196,11.230,-17.578,-32.715,31.738,144.043
1692045252.199,25.391,-20.996,-34.180,36.133,-155.762
1692045252.203,8.789,-31.738,-16.602,13.672,-105.469
1692045252.207,-28.320,-38.086,-18.066,-12.207,17.090
1692045252.211,-35.156,-37.109,-16.113,-3.906,-161.621
1692045252.215,-17.090,-34.668,-11.230,13.672,-223.633
1692045252.219,-7.324,-32.227,-13.184,3.906,-19.531
1692045252.223,-19.043,-32.227,-14.648,-10.742,-24.902
1692045252.227,-15.625,-26.367,-12.695,-14.160,-185.547
1692045252.231,-6.836,-27.344,-10.742,-0.977,-185.547
1692045252.235,-14.648,-39.551,-11.230,0.977,-59.082
1692045252.239,-16.602,-42.480,-19.043,0.488,16.113
1692045252.243,-13.184,-39.062,-17.090,6.836,0.488
1692045252.246,-16.113,-40.039,-9.766,-5.371,-110.352
1692045252.250,-20.996,-40.527,-14.160,-9.766,92.773
1692045252.254,-28.320,-38.086,-17.578,-3.906,166.016
1692045252.258,-33.691,-38.574,-20.020,-4.395,-136.230
1692045252.262,-33.691,-33.691,-18.555,-7.324,-137.207
1692045252.262,-31.738,-29.785,-18.066,-13.672,-75.684
1692045252.266,-30.273,-31.250,-27.344,-10.254,-165.527
1692045252.270,-27.344,-30.273,-29.785,-6.836,-189.941
1692045252.274,-26.855,-29.785,-27.832,-7.324,-31.250
1692045252.278,-38.574,-32.715,-26.855,-11.230,180.664
1692045252.282,-47.363,-33.691,-29.785,-23.926,60.547
1692045252.286,-45.898,-35.645,-28.809,-28.320,-60.547
1692045252.289,-42.969,-37.598,-22.949,-20.996,-11.719
1692045252.293,-41.016,-36.621,-23.438,-17.578,313.965
1692045252.297,-36.621,-36.621,-28.809,-23.926,337.402
1692045252.301,-39.551,-33.691,-27.344,-36.621,-139.648
1692045252.305,-39.062,-30.762,-22.949,-39.551,-226.074
1692045252.323,-35.645,-31.250,-25.391,-30.273,-149.414
1692045252.327,-27.832,-27.832,-22.949,-17.578,-205.566
1692045252.331,-22.461,-27.344,-25.391,-24.414,-186.523
1692045252.335,-16.602,-26.367,-31.250,-43.457,-114.258
1692045252.339,-11.719,-22.461,-29.785,-37.109,-125.488
1692045252.343,-12.207,-23.926,-26.367,-20.508,-96.191
1692045252.347,-18.066,-29.297,-29.297,-8.789,-53.711
1692045252.350,-18.555,-29.297,-36.621,-12.207,273.438
1692045252.354,-15.137,-20.996,-32.227,-13.184,418.945
1692045252.358,-14.648,-18.555,-22.949,-17.090,-49.316
1692045252.362,-17.090,-21.973,-18.555,-11.719,-176.758
1692045252.366,-18.066,-25.391,-18.555,-1.953,-34.180
1692045252.351,-15.137,-26.367,-19.531,-9.277,-100.586
1692045252.355,-23.438,-26.855,-22.461,-18.555,-187.500
1692045252.359,-29.297,-26.855,-21.484,-22.461,-153.809
1692045252.363,-35.156,-24.414,-19.531,-21.484,-65.918
1692045252.367,-38.086,-23.438,-25.391,-22.461,-51.758
1692045252.371,-35.645,-27.344,-30.273,-31.250,-52.246
1692045252.375,-37.109,-29.297,-35.156,-42.969,0.488
1692045252.378,-43.945,-29.785,-35.645,-45.410,-33.691
1692045252.382,-44.922,-28.809,-32.227,-39.062,-93.750
1692045252.386,-41.504,-26.855,-34.180,-33.691,-82.031
1692045252.390,-34.180,-28.320,-37.598,-37.109,-56.152
1692045252.394,-29.297,-28.320,-31.250,-33.691,342.285
1692045252.401,-40.527,-30.762,-25.391,-34.668,331.543
1692045252.405,-43.457,-30.273,-31.250,-32.715,-136.230
1692045252.409,-24.414,-28.320,-36.133,-17.578,-159.668
1692045252.413,-14.648,-28.320,-36.133,-11.230,-132.812
1692045252.417,-18.555,-23.926,-35.156,-9.277,-171.875
1692045252.421,-19.043,-22.461,-33.691,-15.625,-144.043
1692045252.425,-15.137,-23.926,-32.227,-17.090,87.891
1692045252.428,-12.207,-21.484,-34.180,-5.859,208.496
1692045252.432,-7.812,-19.531,-35.156,-2.930,-119.141
1692045252.436,-12.695,-21.484,-30.273,-5.371,-205.078
1692045252.440,-20.996,-20.508,-28.809,-18.066,-52.246
1692045252.444,-28.809,-25.879,-31.738,-29.297,-47.852
1692045252.443,-34.668,-32.715,-32.715,-30.273,-170.410
1692045252.447,-28.320,-24.902,-34.180,-33.691,-82.520
1692045252.451,-22.461,-24.414,-35.645,-34.180,102.539
1692045252.455,-26.855,-26.855,-31.738,-36.621,-79.102
1692045252.459,-30.762,-22.461,-29.297,-39.551,-146.484
1692045252.463,-34.180,-25.391,-29.785,-33.203,16.113
1692045252.467,-29.297,-22.461,-32.715,-18.066,385.742
1692045252.470,-23.926,-22.949,-36.133,-21.484,314.453
1692045252.474,-25.391,-29.785,-38.086,-43.457,-162.109
1692045252.478,-24.414,-29.297,-36.133,-41.504,-210.449
1692045252.482,-21.973,-27.344,-31.250,-24.414,-165.527
1692045252.486,-16.602,-26.367,-28.809,-17.090,-198.242
1692045252.490,-12.207,-25.879,-24.414,-10.254,-183.105
1692045252.494,-26.855,-25.391,-21.484,-17.090,-53.223
1692045252.498,-24.902,-23.926,-26.855,-26.367,-61.035
1692045252.502,-27.344,-26.855,-24.902,-16.602,-162.109
1692045252.506,-41.016,-36.621,-18.066,-18.066,-200.684
1692045252.510,-33.203,-35.645,-25.391,-19.043,135.742
1692045252.514,-41.016,-33.203,-28.320,-24.902,292.480
1692045252.517,-49.805,-33.203,-25.391,-39.551,-113.770
1692045252.521,-35.156,-23.438,-26.855,-37.598,-200.684
1692045252.525,-28.320,-26.855,-29.785,-28.809,70.312
1692045252.529,-32.715,-33.203,-30.273,-29.785,62.012
1692045252.533,-26.367,-22.949,-26.855,-32.715,-98.633
1692045252.546,-26.855,-19.531,-27.344,-30.762,-113.281
1692045252.550,-42.480,-27.344,-26.855,-27.344,-69.824
1692045252.554,-33.203,-29.785,-26.855,-21.973,-132.324
1692045252.558,-18.555,-22.949,-27.344,-12.695,-128.906
1692045252.562,-26.367,-26.367,-25.879,-10.742,13.672
1692045252.566,-34.180,-30.273,-29.297,-18.066,342.773
1692045252.570,-34.180,-27.344,-30.273,-13.184,294.434
1692045252.573,-27.832,-26.855,-25.879,-10.742,-123.535
1692045252.577,-12.695,-23.926,-32.715,-19.531,-129.395
1692045252.581,-9.766,-20.996,-39.062,-24.902,131.836
1692045252.585,-20.996,-20.508,-33.691,-29.785,-87.402
1692045252.589,-32.715,-29.297,-33.203,-32.715,-272.461
1692045252.593,-27.832,-29.785,-37.598,-40.039,-165.527
1692045252.597,-8.789,-20.508,-38.086,-42.480,-107.422
1692045252.601,-11.719,-20.020,-33.691,-38.086,-86.914
1692045252.605,-21.484,-24.902,-34.180,-42.480,-126.953
1692045252.609,-30.762,-25.879,-32.227,-38.574,-104.980
1692045252.613,-47.363,-32.227,-33.203,-34.180,1.953
1692045252.617,-59.082,-40.527,-32.715,-31.738,-1.465
1692045252.620,-47.852,-40.039,-28.320,-31.250,-91.797
1692045252.624,-39.062,-35.645,-30.762,-32.227,84.473
1692045252.628,-39.551,-34.668,-33.691,-27.832,303.223
1692045252.632,-38.574,-33.691,-34.668,-22.461,-15.625
1692045252.636,-29.297,-36.133,-36.621,-20.996,-148.438
1692045252.636,-20.996,-35.156,-35.156,-24.902,-55.176
1692045252.640,-29.785,-27.832,-30.762,-29.785,-93.262
1692045252.644,-30.273,-22.461,-29.785,-32.715,-144.531
1692045252.648,-23.438,-20.996,-30.762,-29.785,-28.809
1692045252.652,-26.367,-23.438,-35.645,-31.250,196.777
1692045252.656,-32.227,-28.320,-39.062,-29.785,149.414
1692045252.660,-31.250,-31.250,-36.621,-28.809,-79.590
1692045252.663,-24.414,-27.344,-31.738,-31.738,-130.371
1692045252.667,-36.133,-25.879,-29.785,-24.414,298.828
1692045252.671,-37.598,-28.809,-30.762,-16.602,173.340
1692045252.675,-22.949,-32.715,-27.832,-20.508,-188.477
1692045252.679,-22.949,-29.297,-25.391,-28.320,-68.359
1692045252.683,-35.645,-28.809,-26.367,-32.227,170.410
1692045252.687,-37.598,-27.344,-29.785,-36.621,-96.680
1692045252.691,-26.855,-23.438,-30.762,-31.250,-285.156
1692045252.695,-34.180,-27.344,-30.762,-31.738,-145.508
1692045252.699,-52.246,-29.785,-32.227,-44.434,-178.711
1692045252.703,-56.152,-29.297,-33.691,-53.711,-210.449
1692045252.707,-53.223,-26.367,-36.133,-57.129,-180.176
1692045252.710,-46.875,-26.367,-30.273,-50.293,27.344
1692045252.714,-50.293,-27.832,-24.902,-41.992,156.738
1692045252.718,-55.176,-27.344,-24.902,-52.734,-183.105
1692045252.722,-56.152,-29.297,-30.762,-62.988,-240.723
1692045252.726,-58.105,-31.738,-30.762,-58.594,-33.691
1692045252.727,-53.711,-32.227,-30.762,-45.898,-107.910
1692045252.731,-37.109,-26.367,-30.762,-30.273,-185.547
1692045252.735,-21.973,-23.926,-29.785,-30.273,-174.316
1692045252.739,-28.809,-27.344,-33.203,-28.809,-105.469
1692045252.743,-30.762,-29.297,-36.621,-21.484,-50.293
1692045252.747,-29.297,-30.762,-39.062,-19.043,-58.105
1692045252.751,-25.879,-29.297,-34.180,-16.602,65.430
1692045252.754,-19.043,-25.879,-27.344,-14.648,367.188
1692045252.758,-28.320,-25.391,-28.809,-25.391,208.984
1692045252.762,-31.250,-24.902,-30.762,-27.344,-233.398
1692045252.766,-29.785,-26.367,-29.785,-20.508,-195.801
1692045252.770,-23.438,-23.438,-27.832,-16.113,-88.867
1692045252.775,-7.812,-23.926,-27.832,-11.719,-146.973
1692045252.779,-10.254,-25.879,-27.344,-20.508,-142.578
1692045252.783,-20.020,-23.926,-24.902,-31.738,-72.266
1692045252.787,-17.090,-22.949,-22.949,-21.484,-31.738
1692045252.791,-12.695,-23.438,-23.926,-14.160,-52.734
1692045252.795,-19.043,-24.902,-21.484,-14.160,20.508
1692045252.799,-21.973,-23.438,-22.949,-13.672,152.832
1692045252.802,-21.484,-27.344,-28.320,-16.113,207.031
1692045252.806,-15.625,-28.809,-31.738,-18.555,-96.680
1692045252.810,-1.465,-22.949,-27.344,-6.348,-159.668
1692045252.814,-0.488,-25.391,-25.391,-1.465,-26.367
1692045252.818,-10.254,-29.785,-26.367,-9.766,-124.023
1692045252.817,-15.625,-29.297,-25.391,-8.789,-213.379
1692045252.821,-19.043,-30.273,-26.367,-6.348,-163.574
1692045252.825,-11.719,-25.879,-26.367,0.977,-61.523
1692045252.829,-4.395,-23.438,-28.809,-3.906,-79.102
1692045252.833,-5.859,-18.555,-32.227,-17.090,-114.746
1692045252.837,-12.695,-18.555,-32.715,-17.578,-70.801
1692045252.841,-18.555,-27.344,-35.645,-6.836,316.406
1692045252.844,-14.648,-26.367,-36.621,-7.812,426.758
1692045252.848,-6.836,-22.949,-37.598,-15.137,-87.891
1692045252.852,-1.465,-22.461,-36.133,-21.484,-159.180
1692045252.856,-3.418,-20.996,-36.621,-21.973,-38.574
1692045252.860,-14.648,-22.461,-36.621,-19.531,-131.348
1692045252.863,-26.367,-28.320,-38.086,-29.785,-120.117
1692045252.867,-23.926,-30.273,-39.551,-35.156,-76.172
1692045252.871,-24.902,-30.273,-40.527,-41.504,-91.309
1692045252.875,-36.133,-33.691,-41.992,-50.781,-178.711
1692045252.879,-39.062,-35.156,-36.133,-39.551,-173.828
1692045252.883,-41.504,-34.668,-33.691,-21.973,107.422
1692045252.887,-38.574,-38.086,-31.738,-18.066,223.145
1692045252.890,-32.715,-34.668,-29.785,-28.320,134.277
1692045252.894,-37.598,-31.250,-32.715,-36.621,33.203
1692045252.898,-42.480,-33.203,-28.320,-29.785,60.059
1692045252.902,-42.480,-32.715,-28.320,-23.438,-25.879
1692045252.906,-41.504,-30.762,-30.762,-28.809,-128.906
1692045252.922,-33.203,-24.414,-27.344,-29.785,-71.289
1692045252.926,-32.227,-25.879,-28.809,-35.645,230.957
1692045252.930,-36.621,-25.391,-35.156,-43.457,224.609
1692045252.934,-25.391,-21.484,-35.645,-34.668,-112.305
1692045252.938,-17.578,-25.879,-33.203,-22.949,6.348
1692045252.942,-29.297,-23.926,-31.738,-18.555,356.445
1692045252.946,-32.715,-19.043,-31.250,-34.668,213.867
1692045252.949,-27.832,-23.926,-31.250,-42.480,-129.395
1692045252.953,-23.438,-24.414,-39.551,-26.855,-60.547
1692045252.957,-8.789,-20.996,-42.969,-0.488,316.406
1692045252.961,-8.789,-36.133,-29.785,-0.488,-19.043
1692045252.965,-35.156,-44.922,-24.902,-31.738,-362.305
1692045252.968,-50.293,-39.062,-25.391,-37.598,-243.164
1692045252.972,-40.039,-38.086,-20.996,-26.855,-205.078
1692045252.976,-33.691,-43.457,-19.043,-16.113,-229.980
1692045252.980,-23.438,-40.039,-15.625,-10.254,-239.258
1692045252.984,-27.344,-39.551,-16.113,-21.484,-150.391
1692045252.988,-39.551,-44.922,-21.484,-31.250,-107.422
1692045252.992,-36.621,-46.387,-19.043,-20.020,-130.371
1692045252.995,-39.062,-49.805,-19.043,-13.672,-147.461
1692045252.999,-36.133,-50.781,-17.578,-9.766,101.562
1692045253.003,-38.086,-52.246,-13.672,-8.789,228.027
1692045253.007,-37.109,-49.316,-13.672,-17.578,-107.910
1692045253.011,-20.996,-45.410,-12.695,-8.301,-98.145
1692045253.011,-17.090,-47.363,-14.160,0.000,85.449
1692045253.015,-22.949,-52.734,-17.090,-5.859,-48.340
1692045253.019,-22.949,-51.758,-20.020,-18.066,-135.742
1692045253.023,-24.414,-49.805,-20.996,-21.973,-47.363
1692045253.027,-28.320,-52.734,-17.578,-8.789,101.074
1692045253.031,-20.996,-46.875,-22.949,-1.465,107.422
1692045253.035,-11.719,-39.551,-24.414,-0.977,17.090
1692045253.038,-16.113,-40.039,-19.531,-0.488,-16.602
1692045253.042,-20.996,-41.504,-19.531,2.441,218.750
1692045253.046,-18.555,-37.598,-19.531,3.418,82.520
1692045253.050,-2.930,-32.715,-16.113,4.395,-221.680
1692045253.054,0.977,-33.691,-11.719,10.254,-171.387
1692045253.060,-13.184,-36.133,-7.324,12.695,-136.719
1692045253.064,-10.254,-38.086,-5.859,0.000,-156.250
1692045253.068,-2.930,-37.109,-9.766,-5.371,-145.996
1692045253.072,5.371,-25.879,-10.254,9.277,-95.215
1692045253.076,8.789,-21.484,-13.672,7.812,-62.988
1692045253.080,-3.418,-26.367,-22.949,2.441,-55.176
1692045253.084,-11.230,-25.879,-22.949,-4.883,-71.777
1692045253.087,-16.113,-25.879,-23.926,-2.441,36.621
1692045253.091,-12.207,-27.832,-26.367,5.859,82.031
1692045253.095,-0.488,-27.832,-27.832,-2.441,-148.438
1692045253.099,-4.883,-25.879,-25.879,-17.578,-143.555
1692045253.103,-19.043,-30.762,-26.367,-31.250,-71.289
1692045253.102,-32.715,-34.668,-29.297,-31.738,-128.418
1692045253.106,-26.367,-34.668,-30.273,-24.902,-116.699
1692045253.110,-21.973,-28.809,-33.203,-23.926,-49.316
1692045253.114,-27.344,-25.391,-31.738,-21.973,10.254
1692045253.118,-28.320,-21.973,-30.762,-25.391,16.602
1692045253.122,-35.645,-21.973,-34.668,-29.297,-96.680
1692045253.126,-27.832,-24.414,-38.086,-25.879,-35.645
1692045253.129,-14.160,-23.926,-36.621,-19.043,422.363
1692045253.133,-20.508,-24.414,-39.062,-22.949,493.164
1692045253.137,-26.367,-28.320,-36.133,-23.926,-12.207
1692045253.141,-17.090,-25.391,-26.367,-16.113,-181.641
1692045253.145,-14.160,-22.461,-26.367,-9.277,-115.723
1692045253.148,-19.531,-27.832,-31.738,1.953,-112.305
1692045253.152,-19.043,-29.297,-35.156,0.000,-59.570
1692045253.156,-17.090,-23.926,-31.738,-16.113,-8.301
1692045253.160,-20.020,-25.391,-30.762,-25.391,-15.625
1692045253.164,-18.066,-31.250,-27.832,-18.066,-40.527
1692045253.168,-13.184,-28.809,-26.367,-14.648,20.508
1692045253.172,-17.090,-25.391,-26.367,-21.484,224.609
1692045253.175,-21.484,-27.832,-25.879,-25.879,290.527
1692045253.179,-27.344,-29.785,-28.809,-33.203,-88.867
1692045253.183,-29.297,-30.762,-28.809,-23.926,-186.035
1692045253.187,-23.438,-27.344,-27.832,-7.324,78.613
1692045253.191,-21.484,-21.973,-28.320,-15.137,12.207
1692045253.192,-23.926,-20.020,-27.344,-27.344,-164.062
1692045253.196,-22.461,-16.602,-25.879,-29.297,-161.133
1692045253.200,-28.320,-17.578,-24.414,-25.879,-157.227
1692045253.204,-29.785,-20.508,-24.902,-18.555,-91.309
1692045253.208,-35.645,-27.832,-24.902,-20.996,16.602
1692045253.212,-50.293,-35.156,-28.809,-32.715,53.711
1692045253.216,-49.316,-35.645,-32.715,-39.551,418.457
1692045253.219,-41.504,-31.738,-32.715,-37.109,360.352
1692045253.223,-27.344,-23.926,-34.180,-38.574,-111.816
1692045253.227,-21.973,-24.414,-35.645,-46.387,-62.012
1692045253.231,-32.227,-32.715,-37.109,-46.875,16.602
1692045253.235,-28.809,-28.809,-33.691,-34.668,-146.484
1692045253.238,-23.926,-21.484,-32.715,-25.391,-229.980
1692045253.242,-28.809,-27.832,-30.273,-20.020,-136.230
1692045253.246,-25.879,-30.273,-28.320,-15.137,-44.434
1692045253.250,-23.438,-23.926,-30.273,-22.461,-160.645
1692045253.254,-26.855,-24.414,-29.785,-33.691,-223.145
1692045253.258,-30.762,-32.227,-30.762,-33.691,62.012
1692045253.262,-38.574,-38.086,-34.668,-27.344,137.207
1692045253.265,-39.062,-35.156,-37.109,-25.879,-40.527
1692045253.269,-38.086,-26.855,-36.621,-29.785,-113.770
1692045253.273,-41.016,-27.832,-32.227,-41.992,81.055
1692045253.277,-30.762,-29.297,-32.715,-46.875,77.637
1692045253.281,-19.043,-25.879,-29.785,-36.133,-128.906
1692045253.296,-22.949,-26.367,-26.367,-30.762,18.555
1692045253.300,-35.156,-27.832,-30.273,-36.621,141.113
1692045253.304,-48.828,-32.715,-30.762,-43.457,-47.363
1692045253.308,-54.688,-41.016,-28.809,-51.758,-222.656
1692045253.312,-44.434,-37.109,-29.785,-55.664,-142.090
1692045253.316,-29.785,-31.250,-27.832,-48.340,294.922
1692045253.320,-27.344,-33.203,-27.344,-42.480,215.332
1692045253.323,-30.762,-32.227,-27.832,-47.363,-212.891
1692045253.327,-28.320,-27.344,-25.391,-41.016,-166.016
1692045253.331,-32.227,-25.391,-24.414,-27.344,19.531
1692045253.335,-39.062,-29.297,-32.715,-35.156,-104.980
1692045253.339,-43.457,-34.180,-34.180,-30.762,-209.473
1692045253.344,-35.645,-36.133,-28.809,-26.855,-168.457
1692045253.348,-29.785,-27.832,-31.738,-34.180,-136.719
1692045253.352,-36.133,-26.367,-34.668,-27.832,-74.219
1692045253.356,-38.086,-34.180,-37.109,-21.973,-80.078
1692045253.360,-32.715,-32.227,-32.227,-23.438,-22.461
1692045253.364,-29.785,-32.227,-28.809,-24.414,98.633
1692045253.368,-32.227,-32.227,-32.227,-36.133,-22.949
1692045253.371,-25.879,-32.227,-34.180,-36.621,-155.762
1692045253.375,-25.879,-34.180,-25.391,-19.531,108.398
1692045253.379,-35.156,-31.738,-17.090,-24.902,238.281
1692045253.383,-31.738,-29.297,-19.043,-38.086,-141.113
1692045253.387,-27.344,-29.297,-20.508,-40.039,-208.984
1692045253.386,-33.203,-28.809,-16.113,-32.227,-132.324
1692045253.390,-35.645,-28.320,-20.508,-24.902,-178.711
1692045253.394,-36.133,-29.297,-26.855,-23.438,-188.477
1692045253.398,-34.668,-29.297,-24.414,-19.531,-92.285
1692045253.402,-33.691,-29.297,-28.320,-31.250,20.996
1692045253.406,-43.457,-30.273,-33.203,-39.551,-39.062
1692045253.410,-38.086,-29.785,-31.738,-31.738,-45.898
1692045253.413,-37.109,-31.250,-32.715,-28.320,-10.742
1692045253.417,-41.992,-33.691,-30.273,-23.438,325.195
1692045253.421,-32.227,-31.250,-33.203,-32.227,393.555
1692045253.425,-40.039,-32.715,-40.527,-37.109,-75.195
1692045253.429,-49.316,-35.645,-43.945,-33.203,-159.668
1692045253.433,-39.062,-37.109,-42.480,-38.086,-64.453
1692045253.437,-39.551,-39.551,-38.086,-43.457,-102.051
1692045253.441,-36.133,-34.668,-36.133,-47.852,-116.699
1692045253.445,-36.621,-36.133,-34.180,-47.852,-112.305
1692045253.449,-42.969,-36.133,-33.691,-37.598,-123.535
1692045253.453,-35.645,-30.762,-31.738,-24.902,-77.148
1692045253.457,-27.832,-29.785,-30.273,-27.832,34.668
1692045253.460,-27.832,-23.926,-31.738,-22.949,250.000
1692045253.464,-30.273,-17.090,-34.668,-14.160,384.766
1692045253.468,-23.438,-16.113,-36.133,-25.879,26.367
1692045253.472,-21.973,-18.555,-32.227,-18.066,-124.023
1692045253.476,-20.508,-19.531,-30.273,-20.508,-68.359
1692045253.476,-16.602,-19.531,-25.391,-27.832,-180.664
1692045253.480,-24.902,-26.855,-23.438,-13.184,-239.746
1692045253.484,-22.949,-25.879,-25.879,-17.578,-180.176
1692045253.488,-19.043,-22.461,-27.344,-30.273,-79.102
1692045253.492,-25.879,-25.391,-27.344,-24.414,40.039
1692045253.496,-35.156,-30.762,-29.785,-34.180,0.000
1692045253.500,-26.855,-30.762,-26.367,-37.109,-70.312
1692045253.503,-21.973,-28.320,-27.344,-28.809,245.605
1692045253.507,-27.832,-31.738,-31.250,-28.809,263.672
1692045253.511,-30.273,-33.203,-26.367,-31.250,-109.375
1692045253.515,-30.273,-29.297,-23.438,-35.156,-157.227
1692045253.519,-38.574,-27.832,-26.367,-36.133,-86.914
1692045253.523,-39.062,-25.879,-32.227,-26.367,-219.238
1692045253.527,-31.250,-24.902,-31.738,-23.926,-236.328
1692045253.531,-24.902,-26.367,-31.738,-23.438,-63.477
1692045253.535,-19.043,-25.391,-29.297,-17.578,-74.219
1692045253.539,-28.320,-25.391,-29.297,-21.973,-183.594
1692045253.543,-34.668,-29.297,-33.203,-31.738,-145.508
1692045253.547,-30.762,-29.297,-34.668,-27.832,172.363
1692045253.550,-26.855,-28.320,-38.574,-20.996,256.348
1692045253.554,-31.250,-32.227,-41.504,-25.879,-90.332
1692045253.558,-34.180,-30.762,-40.039,-40.039,-192.383
1692045253.562,-31.738,-30.273,-38.086,-47.852,-97.168
1692045253.566,-36.621,-31.738,-39.551,-36.621,-67.871
1692045253.568,-29.297,-30.273,-37.109,-26.367,-70.312
1692045253.572,-26.855,-30.762,-34.180,-26.367,-38.086
1692045253.576,-30.762,-33.691,-33.203,-27.832,55.664
1692045253.580,-8.789,-30.762,-38.574,-29.297,-48.340
1692045253.584,-1.953,-29.297,-39.551,-15.137,-80.078
1692045253.588,-28.320,-35.156,-32.715,-22.949,51.270
1692045253.592,-43.945,-31.250,-35.645,-40.527,485.840
1692045253.595,-69.336,-20.508,-36.133,-57.129,349.609
1692045253.599,-94.238,-24.414,-34.180,-72.266,-222.656
1692045253.603,-78.125,-26.855,-34.180,-61.523,-229.004
1692045253.607,-68.359,-22.461,-32.227,-59.570,-172.852
1692045253.611,-83.984,-19.531,-34.180,-75.684,-230.957
1692045253.613,-100.098,-20.020,-36.621,-89.355,-216.309
1692045253.617,-86.426,-20.996,-38.086,-76.172,-122.070
1692045253.621,-64.941,-20.020,-37.109,-64.941,-19.043
1692045253.625,-58.105,-20.996,-36.133,-65.430,24.902
1692045253.629,-62.500,-27.344,-35.645,-67.383,-48.340
1692045253.633,-64.941,-32.715,-28.809,-64.941,103.516
1692045253.637,-62.988,-31.738,-24.902,-62.500,205.566
1692045253.640,-48.828,-25.879,-28.809,-60.059,-59.570
1692045253.644,-41.992,-25.879,-31.250,-54.688,-162.109
1692045253.648,-39.062,-28.320,-30.762,-45.898,14.648
1692045253.652,-34.180,-23.926,-34.180,-46.875,-27.344
1692045253.656,-38.086,-25.879,-38.086,-50.293,-178.223
1692045253.672,-35.156,-25.879,-37.109,-42.480,-168.945
1692045253.676,-27.344,-22.949,-32.715,-32.715,-123.047
1692045253.680,-24.902,-22.461,-28.809,-33.203,-129.395
1692045253.684,-31.250,-23.438,-27.832,-40.527,-153.320
1692045253.688,-35.156,-23.438,-31.250,-41.992,-32.227
1692045253.692,-32.715,-25.879,-31.250,-39.551,309.570
1692045253.696,-34.180,-31.738,-30.762,-31.738,243.164
1692045253.699,-28.320,-30.273,-38.574,-32.227,-75.195
1692045253.703,-18.555,-25.879,-40.039,-41.504,-92.285
1692045253.707,-25.391,-26.367,-32.715,-51.758,166.016
1692045253.711,-42.480,-27.344,-29.297,-46.387,-7.812
1692045253.715,-46.875,-30.762,-26.855,-34.668,-228.516
1692045253.718,-42.969,-32.715,-27.344,-41.504,-107.910
1692045253.722,-30.273,-25.391,-28.320,-37.598,-124.512
1692045253.726,-32.715,-22.949,-25.391,-29.785,-183.594
1692045253.730,-39.062,-26.367,-27.832,-31.250,-184.570
1692045253.734,-38.574,-30.762,-35.645,-20.996,-61.035
1692045253.738,-40.527,-34.668,-37.109,-8.789,89.355
1692045253.742,-36.133,-33.203,-35.645,-13.672,8.789
1692045253.745,-32.227,-27.832,-37.109,-22.949,-31.250
1692045253.749,-29.297,-28.320,-31.250,-20.508,58.105
1692045253.753,-29.785,-27.832,-28.320,-14.648,-61.523
1692045253.757,-13.672,-24.414,-31.250,-16.602,-159.668
1692045253.761,-12.207,-23.926,-28.809,-24.902,-128.906
1692045253.761,-22.461,-20.020,-23.926,-16.113,137.207
1692045253.765,-27.832,-18.066,-24.414,-23.438,158.691
1692045253.769,-28.320,-14.648,-24.902,-33.691,-146.973
1692045253.773,-18.066,-16.602,-26.855,-22.461,-57.129
1692045253.777,-15.137,-20.020,-32.715,-28.809,66.895
1692045253.781,-19.531,-20.508,-30.273,-34.180,-5.371
1692045253.785,-19.531,-19.531,-32.227,-31.738,-69.824
1692045253.788,-17.578,-17.578,-36.133,-29.297,-58.594
1692045253.792,-16.113,-18.066,-28.809,-14.160,291.992
1692045253.796,-15.137,-20.996,-21.973,-13.184,206.055
1692045253.800,-16.602,-19.043,-16.113,-26.367,-149.902
1692045253.804,-24.902,-23.926,-14.648,-31.738,-152.344
1692045253.809,-34.668,-31.250,-13.672,-25.391,-126.465
1692045253.813,-28.320,-24.414,-17.578,-19.043,-140.625
1692045253.817,-16.602,-18.555,-25.391,-24.902,-160.156
1692045253.821,-20.020,-16.602,-28.809,-31.250,-110.352
1692045253.825,-29.785,-16.602,-31.738,-34.180,-78.613
1692045253.829,-27.344,-23.926,-32.715,-36.621,-52.246
1692045253.833,-37.598,-36.621,-40.527,-40.039,4.883
1692045253.836,-45.898,-41.016,-43.945,-39.062,162.598
1692045253.840,-50.293,-36.621,-34.180,-42.969,187.012
1692045253.844,-50.293,-35.156,-29.785,-53.711,-187.500
1692045253.848,-45.410,-35.156,-33.203,-43.945,-179.199
1692045253.852,-40.527,-35.156,-30.762,-26.367,18.066
1692045253.853,-35.156,-33.691,-24.414,-25.391,-43.457
1692045253.857,-23.926,-32.715,-29.785,-29.785,-82.031
1692045253.861,-17.090,-34.180,-31.250,-38.086,-74.707
1692045253.865,-19.531,-32.715,-27.832,-39.551,1.465
1692045253.869,-21.973,-31.250,-32.227,-38.086,-40.527
1692045253.873,-25.391,-30.762,-32.715,-39.062,-35.156
1692045253.877,-27.832,-24.414,-29.297,-38.086,58.594
1692045253.880,-27.832,-25.879,-28.320,-32.227,316.895
1692045253.884,-29.785,-32.715,-26.855,-25.391,336.914
1692045253.888,-30.762,-32.227,-25.391,-21.973,-90.820
1692045253.892,-20.508,-28.809,-26.367,-25.879,-165.039
1692045253.896,-14.160,-21.484,-29.297,-37.109,-117.676
1692045253.913,-20.020,-16.113,-32.715,-40.527,-210.938
1692045253.917,-28.320,-16.602,-32.715,-35.645,-188.965
1692045253.921,-25.391,-20.996,-29.297,-23.438,-84.961
1692045253.925,-21.484,-24.414,-29.297,-20.020,-12.207
1692045253.929,-26.855,-23.926,-30.762,-25.391,-83.984
1692045253.933,-29.785,-24.414,-33.691,-40.527,-149.902
1692045253.937,-37.598,-26.855,-32.715,-44.434,133.789
1692045253.940,-39.551,-28.809,-28.809,-26.855,392.090
1692045253.944,-33.691,-31.738,-32.227,-20.020,36.133
1692045253.948,-35.645,-32.715,-39.062,-33.203,-138.184
1692045253.952,-40.039,-35.645,-39.062,-39.062,-48.340
1692045253.956,-33.203,-39.551,-30.273,-15.625,-96.680
1692045253.941,-28.809,-36.133,-25.879,-8.789,-176.758
1692045253.945,-36.621,-24.902,-32.715,-25.391,-156.738
1692045253.949,-41.016,-15.625,-32.715,-37.598,-100.586
1692045253.953,-37.598,-12.695,-35.645,-49.316,-95.215
1692045253.957,-39.062,-19.043,-35.156,-55.176,-83.984
1692045253.961,-40.039,-25.879,-31.250,-53.711,-52.246
1692045253.965,-37.109,-29.297,-33.691,-50.293,82.031
1692045253.968,-39.062,-32.227,-38.086,-51.758,81.543
1692045253.972,-48.340,-37.598,-37.598,-52.734,-77.637
1692045253.976,-46.387,-37.109,-32.715,-42.480,-132.812
1692045253.980,-33.203,-31.250,-28.809,-30.762,288.086
1692045253.984,-27.344,-27.832,-30.273,-29.785,417.969
1692045253.988,-20.996,-27.832,-29.297,-34.180,-60.059
1692045253.992,-21.973,-27.344,-32.227,-36.133,-211.914
1692045253.996,-33.203,-29.297,-32.715,-40.527,-155.273
1692045254.000,-37.109,-32.227,-27.344,-40.039,-196.777
1692045254.004,-38.086,-36.621,-25.391,-25.391,-188.965
1692045254.008,-31.738,-35.645,-20.508,-8.301,31.250
1692045254.012,-31.250,-30.273,-25.879,-24.414,63.965
1692045254.015,-37.109,-21.484,-33.203,-41.992,-156.250
1692045254.019,-35.645,-18.555,-27.344,-35.156,-134.277
1692045254.023,-36.133,-23.438,-24.902,-17.090,120.605
1692045254.027,-34.668,-26.855,-35.645,-22.949,137.695
1692045254.031,-34.180,-28.320,-38.086,-49.316,-137.207
1692045254.047,-36.133,-27.344,-31.250,-43.945,-164.551
1692045254.051,-34.668,-31.738,-29.785,-35.645,-71.777
1692045254.055,-40.039,-36.133,-35.156,-33.691,-106.445
1692045254.059,-38.574,-38.086,-37.598,-25.879,-155.762
1692045254.063,-33.203,-36.621,-37.109,-22.461,-42.969
1692045254.067,-31.250,-35.645,-35.645,-20.508,323.242
1692045254.071,-30.273,-32.227,-31.738,-17.578,146.484
1692045254.074,-25.391,-24.902,-26.855,-9.277,-179.199
1692045254.078,-22.949,-25.879,-27.832,-12.207,-91.797
1692045254.082,-32.227,-27.344,-30.273,-19.531,-72.266
1692045254.086,-35.645,-24.902,-25.391,-28.809,-116.211
1692045254.090,-38.086,-23.926,-20.508,-31.738,-138.672
1692045254.092,-34.668,-21.484,-21.484,-18.066,-86.426
1692045254.096,-22.461,-23.438,-21.484,-6.836,208.496
1692045254.100,-17.090,-25.391,-22.949,-17.578,-6.348
1692045254.104,-30.273,-31.738,-34.180,-33.203,-215.820
1692045254.108,-40.039,-33.203,-36.133,-30.273,-109.375
1692045254.112,-31.250,-31.738,-26.855,-18.555,-17.090
1692045254.116,-27.344,-31.738,-23.438,-18.066,-2.441
1692045254.119,-29.297,-26.855,-24.902,-23.438,-114.258
1692045254.123,-28.809,-20.996,-25.879,-20.508,54.688
1692045254.127,-29.785,-20.020,-29.785,-19.531,185.059
1692045254.131,-24.414,-23.926,-30.762,-28.320,-105.957
1692045254.135,-15.137,-26.367,-27.832,-27.344,-181.152
1692045254.137,-21.484,-20.996,-29.785,-30.762,-63.965
1692045254.141,-31.250,-22.461,-31.250,-35.156,-41.504
1692045254.145,-30.762,-26.855,-26.855,-30.273,-169.434
1692045254.149,-22.461,-26.367,-21.973,-20.020,-116.211
1692045254.153,-17.090,-27.344,-20.020,-4.883,323.242
1692045254.157,-18.066,-23.926,-22.461,-2.930,227.539
1692045254.161,-20.020,-22.949,-24.902,-15.137,-51.270
1692045254.164,-20.508,-24.414,-26.367,-16.602,-50.781
1692045254.168,-20.996,-27.832,-27.344,-11.230,187.500
1692045254.172,-16.602,-28.320,-26.367,-14.160,118.652
1692045254.176,-13.184,-27.344,-30.762,-20.020,-172.363
1692045254.180,-21.973,-27.832,-30.762,-31.250,-121.094
1692045254.183,-35.156,-30.273,-27.832,-40.039,-84.961
1692045254.187,-36.621,-28.320,-30.273,-29.297,-149.902
1692045254.191,-32.715,-25.391,-30.273,-18.555,-172.852
1692045254.195,-27.344,-30.273,-26.367,-13.184,-48.340
1692045254.199,-30.762,-36.621,-29.297,-28.320,-57.129
1692045254.203,-38.574,-33.203,-32.715,-47.852,-44.922
1692045254.207,-43.457,-30.762,-34.180,-41.992,-7.324
1692045254.210,-38.086,-32.715,-36.621,-35.156,91.797
1692045254.214,-25.879,-31.738,-35.645,-33.203,281.738
1692045254.218,-26.367,-33.203,-33.203,-39.551,-99.609
1692045254.222,-30.273,-28.809,-28.809,-43.457,-262.207
1692045254.226,-25.879,-20.020,-22.461,-32.227,-120.605
1692045254.227,-25.391,-25.391,-22.461,-20.996,-160.645
1692045254.231,-23.438,-28.320,-24.414,-19.043,-169.922
1692045254.235,-19.531,-25.391,-25.879,-28.809,-122.070
1692045254.239,-21.973,-22.949,-27.832,-40.527,-58.105
1692045254.243,-30.273,-28.320,-25.391,-43.457,-1.953
1692045254.247,-35.156,-33.691,-22.461,-35.645,-53.711
1692045254.251,-27.832,-27.832,-23.438,-31.250,24.414
1692045254.254,-24.414,-28.809,-26.855,-30.762,381.836
1692045254.258,-33.203,-29.297,-27.832,-26.855,419.922
1692045254.262,-38.574,-29.297,-30.762,-30.273,-68.848
1692045254.266,-32.227,-29.297,-29.297,-28.320,-252.930
1692045254.270,-27.344,-26.855,-27.832,-24.902,-175.781
1692045254.273,-31.250,-25.391,-28.320,-32.715,-210.449
1692045254.277,-44.922,-26.855,-29.785,-39.062,-232.910
1692045254.281,-44.922,-27.832,-29.785,-36.133,-166.504
1692045254.285,-38.574,-29.785,-30.273,-35.645,-81.055
1692045254.289,-38.574,-32.227,-36.133,-26.855,-88.867
1692045254.293,-36.133,-33.203,-32.227,-28.809,4.395
1692045254.297,-38.574,-35.645,-28.809,-43.457,221.680
1692045254.300,-47.363,-38.086,-26.855,-45.898,215.820
1692045254.304,-52.734,-36.133,-22.461,-37.598,-70.312
1692045254.308,-48.340,-34.180,-24.414,-26.367,-98.633
1692045254.312,-41.992,-34.180,-27.832,-28.320,61.035
1692045254.316,-44.434,-33.691,-28.809,-43.945,-14.648
1692045254.316,-53.711,-33.203,-31.250,-48.828,-155.762
1692045254.320,-51.758,-29.785,-28.809,-35.645,-93.750
1692045254.324,-42.969,-30.762,-27.344,-30.273,-14.648
1692045254.328,-41.992,-34.180,-30.273,-30.273,-3.906
1692045254.332,-40.527,-30.762,-29.785,-36.133,-12.207
1692045254.336,-41.016,-29.297,-29.297,-39.062,-65.918
1692045254.340,-40.039,-28.320,-29.297,-24.902,361.816
1692045254.343,-33.691,-29.297,-25.879,-19.531,386.719
1692045254.347,-29.785,-27.344,-26.855,-24.902,-115.234
1692045254.351,-33.691,-27.344,-34.668,-32.715,-173.340
1692045254.355,-37.598,-34.668,-36.133,-40.039,-166.992
1692045254.359,-34.668,-35.645,-34.180,-27.832,-150.879
1692045254.365,-27.344,-29.297,-31.250,-24.902,-172.852
1692045254.369,-21.973,-24.902,-30.273,-29.785,-115.234
1692045254.373,-26.367,-24.414,-25.879,-26.367,1.465
1692045254.377,-30.273,-27.344,-24.902,-30.273,-133.301
1692045254.381,-29.785,-26.855,-25.391,-33.691,-191.406
1692045254.385,-35.645,-28.320,-27.344,-28.809,67.871
1692045254.389,-47.363,-35.156,-33.691,-28.809,211.426
1692045254.392,-43.945,-38.574,-35.645,-29.785,-61.035
1692045254.396,-29.785,-38.086,-29.297,-23.926,-220.703
1692045254.400,-33.691,-30.762,-30.273,-26.855,-15.137
1692045254.404,-42.480,-30.273,-37.598,-40.527,-5.859
1692045254.408,-36.133,-31.738,-36.621,-39.551,-167.480
1692045254.421,-30.762,-24.902,-32.227,-40.527,-122.559
1692045254.425,-35.645,-29.297,-31.250,-45.410,-25.879
1692045254.429,-40.527,-29.297,-29.785,-37.598,-73.242
1692045254.433,-29.785,-22.949,-29.297,-34.180,-148.438
1692045254.437,-23.438,-26.855,-33.203,-37.109,24.414
1692045254.441,-34.180,-29.785,-35.156,-37.598,529.297
1692045254.445,-38.574,-32.715,-34.180,-41.992,554.199
1692045254.448,-34.668,-29.297,-34.668,-47.852,-81.055
1692045254.452,-35.156,-25.391,-32.227,-37.109,-164.551
1692045254.456,-30.762,-25.391,-24.902,-19.531,105.469
1692045254.460,-27.344,-23.926,-23.926,-21.484,-114.746
1692045254.464,-37.109,-24.902,-27.344,-30.762,-258.301
1692045254.468,-43.945,-28.809,-30.762,-23.438,-171.875
1692045254.472,-41.016,-31.250,-32.715,-18.555,-138.184
1692045254.476,-31.250,-27.344,-31.738,-20.996,-130.371
1692045254.480,-27.344,-26.367,-31.250,-23.926,-128.906
1692045254.484,-29.297,-26.855,-27.344,-29.785,32.715
1692045254.488,-35.156,-30.273,-29.785,-40.039,98.145
1692045254.492,-34.668,-29.785,-28.809,-39.551,-61.523
1692045254.495,-31.738,-27.832,-26.367,-32.715,-174.805
1692045254.499,-32.715,-33.691,-29.785,-33.691,67.383
1692045254.503,-29.785,-32.227,-29.297,-33.203,166.016
1692045254.507,-30.762,-27.832,-28.320,-33.691,-177.734
1692045254.511,-37.109,-29.785,-23.438,-31.738,-228.516
1692045254.512,-34.180,-27.832,-26.855,-23.926,-97.656
1692045254.516,-31.250,-25.391,-29.297,-24.414,-74.707
1692045254.520,-36.133,-31.738,-29.785,-40.039,-131.836
1692045254.524,-40.039,-32.715,-28.320,-47.363,-108.887
1692045254.528,-47.363,-29.785,-26.367,-39.062,31.250
1692045254.532,-46.387,-27.832,-29.297,-31.250,38.574
1692045254.536,-35.645,-24.902,-26.855,-23.926,-48.340
1692045254.539,-39.062,-24.414,-28.320,-26.855,-11.719
1692045254.543,-44.434,-26.367,-34.180,-33.203,298.340
1692045254.547,-36.621,-29.785,-37.109,-30.273,304.199
1692045254.551,-30.273,-26.855,-34.668,-28.809,-119.629
1692045254.555,-24.902,-21.973,-32.715,-26.855,-163.574
1692045254.558,-20.508,-18.555,-29.297,-31.250,-86.426
1692045254.562,-24.414,-22.461,-32.715,-42.480,-139.160
1692045254.566,-25.391,-25.879,-37.109,-41.504,-122.559
1692045254.570,-18.066,-26.855,-35.156,-31.250,-52.734
1692045254.574,-14.160,-29.785,-35.645,-26.367,-80.078
1692045254.578,-17.578,-28.809,-34.668,-26.367,-24.902
1692045254.582,-21.484,-30.762,-34.668,-38.086,-31.250
1692045254.585,-24.902,-31.250,-33.691,-39.551,31.250
1692045254.589,-32.227,-37.598,-24.902,-23.926,153.809
1692045254.593,-3.418,-41.992,-13.672,3.906,-120.605
1692045254.597,19.531,-26.855,-20.020,11.230,-211.914
1692045254.601,-10.742,-11.719,-36.133,-28.809,-43.945
1692045254.603,-43.457,-11.719,-44.434,-63.477,-110.840
1692045254.607,-49.805,-12.207,-45.410,-57.617,-209.961
1692045254.611,-54.199,-13.672,-45.410,-58.105,-160.645
1692045254.615,-59.570,-7.812,-43.945,-76.172,-73.242
1692045254.619,-54.688,-1.953,-44.922,-76.172,-37.598
1692045254.623,-61.035,-3.418,-40.527,-73.730,-72.266
1692045254.627,-63.965,-4.883,-38.574,-75.684,-48.340
1692045254.630,-43.457,0.000,-39.551,-58.105,337.402
1692045254.634,-38.086,1.953,-38.574,-50.781,333.496
1692045254.638,-42.480,-2.930,-41.992,-64.453,-89.355
1692045254.642,-38.574,-7.324,-44.434,-67.383,-178.223
1692045254.646,-54.199,-8.301,-51.270,-63.965,-123.047
1692045254.649,-53.223,-11.230,-54.199,-56.152,-123.535
1692045254.653,-41.016,-22.461,-50.781,-44.922,-152.832
1692045254.657,-48.828,-23.438,-46.875,-45.898,-52.246
1692045254.661,-49.316,-19.043,-46.387,-44.434,-10.254
1692045254.665,-51.270,-17.090,-43.945,-37.109,-103.516
1692045254.669,-44.922,-16.113,-40.527,-37.109,14.160
1692045254.673,-33.203,-16.113,-41.504,-29.785,196.289
1692045254.676,-28.320,-14.160,-40.527,-28.320,45.898
1692045254.680,-23.926,-17.090,-38.086,-35.645,-194.336
1692045254.684,-20.020,-21.973,-38.574,-34.180,-198.242
1692045254.688,-18.066,-24.902,-36.133,-29.785,45.410
1692045254.692,-25.391,-28.809,-37.109,-30.273,105.469
1692045254.693,-28.809,-27.344,-40.527,-36.133,-103.516
1692045254.697,-21.484,-23.926,-39.062,-40.527,-143.066
1692045254.701,-18.555,-28.320,-40.527,-35.645,21.973
1692045254.705,-7.324,-30.762,-42.969,-37.109,34.668
1692045254.709,1.953,-26.367,-46.875,-38.086,-26.855
1692045254.713,-8.789,-28.809,-42.969,-38.086,-6.836
1692045254.717,-20.508,-31.738,-35.645,-36.133,366.699
1692045254.720,-29.785,-30.762,-34.180,-24.414,438.477
1692045254.724,-35.156,-29.785,-36.621,-21.973,-17.090
1692045254.728,-20.020,-26.855,-35.645,-26.855,-115.723
1692045254.732,-6.836,-20.020,-32.715,-27.832,-65.430
1692045254.736,-16.602,-17.578,-34.180,-31.250,-185.059
1692045254.753,-22.949,-20.508,-34.668,-31.250,-228.516
1692045254.757,-16.113,-20.508,-30.762,-20.996,-169.434
1692045254.761,-14.648,-24.414,-32.715,-20.996,-114.258
1692045254.765,-23.438,-29.297,-35.156,-26.367,-94.238
1692045254.769,-33.203,-23.926,-28.809,-31.738,-92.773
1692045254.773,-37.598,-24.902,-24.902,-28.809,103.516
1692045254.777,-28.320,-22.949,-28.320,-20.020,336.914
1692045254.780,-20.508,-18.066,-30.762,-14.648,53.223
1692045254.784,-22.461,-25.391,-29.297,-12.207,-159.180
1692045254.788,-29.297,-34.668,-28.809,-25.879,-34.180
1692045254.792,-41.504,-33.203,-35.645,-36.621,-92.773
1692045254.796,-28.320,-29.785,-31.738,-27.344,-225.098
1692045254.796,-14.160,-29.785,-26.367,-19.531,-154.785
1692045254.800,-19.531,-27.832,-31.250,-21.973,-8.301
1692045254.804,-17.090,-25.391,-31.250,-26.855,-122.559
1692045254.808,-19.043,-33.691,-25.879,-22.949,-250.977
1692045254.812,-27.344,-32.715,-21.973,-13.184,-44.922
1692045254.816,-18.555,-28.320,-26.855,-9.766,192.383
1692045254.820,-14.648,-39.062,-34.180,-19.043,103.027
1692045254.823,-26.367,-37.598,-32.715,-23.926,-56.152
1692045254.827,-27.832,-28.320,-30.273,-22.461,-106.934
1692045254.831,-19.531,-29.297,-22.461,-13.672,233.398
1692045254.835,-11.230,-26.367,-24.414,-3.906,378.906
1692045254.839,-1.465,-18.066,-33.203,-7.324,2.930
1692045254.857,-11.719,-25.879,-32.227,-22.949,-155.273
1692045254.861,-32.715,-36.621,-33.203,-22.949,-156.250
1692045254.865,-25.391,-35.156,-32.715,-14.648,-173.340
1692045254.869,-7.812,-29.297,-26.855,-7.324,-160.645
1692045254.873,-13.672,-29.785,-31.250,-11.230,-92.285
1692045254.877,-21.484,-30.273,-34.668,-23.438,42.480
1692045254.881,-14.648,-21.973,-30.273,-31.738,17.578
1692045254.884,-16.113,-24.414,-32.715,-32.715,-154.297
1692045254.888,-21.484,-27.832,-37.109,-20.508,79.590
1692045254.892,-21.484,-27.832,-35.645,-18.555,288.574
1692045254.896,-14.648,-39.551,-29.785,-15.625,-69.824
1692045254.900,2.930,-30.762,-29.297,-3.418,-220.215
1692045254.886,1.953,-4.395,-36.133,-19.531,-63.477
1692045254.890,-3.906,-7.812,-40.039,-26.855,-69.824
1692045254.894,2.441,-17.578,-41.016,-12.207,-177.734
1692045254.898,-1.465,-22.461,-39.062,-11.230,-108.398
1692045254.902,-3.418,-23.926,-36.133,-13.184,243.652
1692045254.906,-0.488,-18.066,-35.156,-11.719,148.926
1692045254.910,-5.371,-19.043,-34.668,-12.695,-62.500
1692045254.913,-12.695,-21.973,-32.715,-17.090,-63.965
1692045254.917,-8.789,-24.414,-29.297,-23.438,-65.918
1692045254.921,-7.324,-29.785,-28.809,-23.926,-150.879
1692045254.925,-4.395,-21.973,-25.391,-12.207,-291.504
1692045254.929,9.277,-13.672,-25.879,-1.953,-176.270
1692045254.933,7.812,-24.414,-30.273,-1.953,390.137
1692045254.937,-7.812,-34.180,-31.738,-12.695,267.578
1692045254.941,-14.160,-34.180,-36.133,-20.020,-175.781
1692045254.945,-15.137,-38.086,-38.574,-27.832,-181.641
1692045254.949,-13.184,-38.574,-35.156,-23.926,-152.344
1692045254.953,-4.395,-34.180,-37.109,-6.836,-47.363
1692045254.957,-4.395,-34.180,-39.551,-15.137,-18.066
1692045254.960,-12.695,-38.574,-34.668,-22.949,72.754
1692045254.964,-20.508,-34.668,-33.691,-19.043,163.086
1692045254.968,-24.414,-33.203,-34.668,-18.555,-154.785
1692045254.972,-21.973,-38.086,-33.691,-16.113,-217.773
1692045254.976,-19.531,-37.109,-32.715,-17.578,-67.871
1692045254.978,-20.996,-36.621,-30.273,-26.367,-131.836
1692045254.982,-23.438,-38.574,-28.809,-34.668,-250.000
1692045254.986,-36.621,-39.551,-30.273,-30.762,-117.188
1692045254.990,-42.969,-40.039,-32.715,-20.996,138.672
1692045254.994,-35.156,-36.133,-30.762,-20.508,84.473
1692045254.998,-33.691,-31.250,-26.855,-30.273,-39.551
1692045255.002,-42.480,-35.645,-31.738,-42.969,-64.941
1692045255.005,-43.457,-38.574,-32.715,-32.227,208.496
1692045255.009,-39.062,-36.621,-32.227,-22.949,269.043
1692045255.013,-37.109,-31.738,-36.621,-32.227,-101.074
1692045255.017,-35.645,-23.438,-34.668,-38.086,-189.941
1692045255.021,-37.598,-20.996,-35.156,-41.016,-107.422
1692045255.023,-47.363,-28.809,-39.062,-33.203,-148.926
1692045255.027,-58.594,-30.762,-34.180,-22.949,-197.266
1692045255.031,-46.387,-26.367,-30.273,-34.180,-74.219
1692045255.035,-33.691,-19.531,-29.297,-46.387,-51.270
1692045255.039,-45.410,-24.902,-27.344,-43.945,-103.027
1692045255.043,-56.152,-32.715,-27.344,-39.551,-73.730
1692045255.047,-50.293,-30.273,-29.785,-32.715,169.922
1692045255.050,-53.223,-32.715,-33.691,-18.555,493.164
1692045255.054,-51.758,-35.156,-33.203,-24.902,86.426
1692045255.058,-48.340,-27.344,-30.762,-41.504,-188.477
1692045255.062,-48.828,-20.508,-33.691,-48.828,-75.684
1692045255.066,-40.527,-21.973,-34.668,-40.039,-104.980
1692045255.066,-34.668,-23.926,-32.227,-26.367,-159.668
1692045255.070,-33.203,-23.926,-29.297,-31.738,-145.508
1692045255.074,-34.668,-27.832,-26.367,-33.203,-101.562
1692045255.078,-34.668,-30.762,-23.438,-25.391,-91.309
1692045255.082,-35.156,-35.156,-26.855,-25.879,-64.941
1692045255.086,-32.715,-37.109,-26.367,-21.973,10.742
1692045255.090,-33.691,-36.621,-25.879,-14.648,476.562
1692045255.093,-32.227,-36.621,-30.762,-21.484,524.902
1692045255.097,-27.832,-33.203,-25.879,-30.762,-48.828
1692045255.101,-28.809,-30.273,-26.367,-27.344,-209.961
1692045255.105,-20.996,-26.367,-32.227,-20.508,-127.441
1692045255.109,-21.484,-24.414,-30.273,-25.879,-134.277
1692045255.113,-32.715,-24.414,-27.344,-31.738,-162.598
1692045255.117,-31.250,-26.367,-24.414,-26.367,-150.879
1692045255.121,-23.926,-28.809,-26.367,-13.184,-142.090
1692045255.125,-20.996,-29.785,-27.344,-8.789,-168.457
1692045255.129,-15.625,-30.762,-24.414,-11.719,-113.770
1692045255.133,-16.602,-26.367,-26.367,-18.066,57.617
1692045255.137,-31.738,-28.809,-26.367,-20.996,53.711
1692045255.140,-38.574,-31.250,-31.250,-24.414,-58.105
1692045255.144,-26.367,-27.832,-35.156,-18.555,-130.371
1692045255.148,-18.555,-28.809,-28.809,-17.578,147.949
1692045255.152,-24.414,-29.297,-29.785,-27.344,349.121
1692045255.156,-30.762,-24.414,-36.133,-21.484,-62.988
1692045255.171,-19.043,-21.973,-37.109,-3.418,-184.082
1692045255.175,-11.719,-34.180,-21.973,4.883,-35.645
1692045255.179,-35.645,-35.645,-10.254,-24.414,-45.898
1692045255.183,-54.688,-36.133,-16.602,-55.664,-101.074
1692045255.187,-53.223,-41.992,-22.949,-51.758,-83.008
1692045255.191,-50.293,-41.016,-22.949,-33.691,245.605
1692045255.195,-50.293,-36.133,-21.484,-21.484,303.711
1692045255.198,-40.039,-36.621,-22.949,-28.320,-74.219
1692045255.202,-27.832,-35.645,-28.809,-40.039,-121.582
1692045255.206,-25.879,-29.297,-35.645,-38.086,-21.484
1692045255.210,-31.250,-31.738,-37.598,-29.785,-145.508
1692045255.214,-32.715,-35.156,-30.762,-26.855,-193.848
1692045255.216,-22.949,-28.809,-23.438,-27.832,-46.387
1692045255.220,-20.996,-28.320,-16.113,-31.738,37.109
1692045255.224,-37.109,-29.297,-15.625,-37.109,-102.539
1692045255.228,-43.945,-24.414,-20.996,-23.438,-195.312
1692045255.232,-30.273,-20.020,-24.414,-10.742,-52.734
1692045255.236,-24.902,-19.043,-26.855,-8.789,133.301
1692045255.240,-28.809,-22.949,-28.320,-18.555,61.035
1692045255.243,-32.715,-29.297,-24.902,-28.809,-157.227
1692045255.247,-34.180,-31.250,-22.461,-22.461,-36.133
1692045255.251,-38.086,-33.203,-27.344,-22.461,116.211
1692045255.255,-32.715,-35.645,-28.809,-21.484,-132.324
1692045255.259,-26.855,-31.250,-30.273,-28.320,-168.945
1692045255.261,-23.926,-29.785,-33.203,-41.992,-116.699
1692045255.265,-26.367,-34.668,-32.227,-37.598,-182.129
1692045255.269,-30.273,-30.273,-28.809,-17.090,-172.852
1692045255.273,-19.043,-23.926,-27.832,-9.277,-24.902
1692045255.277,-14.648,-25.391,-29.297,-21.973,331.543
1692045255.281,-28.320,-27.344,-33.203,-33.203,251.953
1692045255.285,-31.250,-29.297,-32.715,-34.180,-114.258
1692045255.288,-28.320,-32.715,-24.902,-26.367,-152.344
1692045255.292,-35.156,-35.156,-25.391,-16.113,183.594
1692045255.296,-37.109,-31.738,-31.250,-22.949,87.891
1692045255.300,-37.598,-28.320,-31.738,-33.691,-188.477
1692045255.304,-39.062,-27.344,-33.691,-39.062,-172.363
1692045255.308,-32.227,-30.273,-32.715,-35.156,-133.301
1692045255.312,-32.715,-31.738,-31.250,-23.926,-126.465
1692045255.316,-32.227,-22.949,-30.762,-27.832,-161.621
1692045255.320,-31.738,-26.367,-32.715,-35.156,-144.531
1692045255.324,-34.668,-30.762,-29.297,-35.156,-112.793
1692045255.328,-28.809,-26.855,-28.809,-33.691,-51.270
1692045255.332,-28.320,-27.832,-35.645,-34.180,-35.156
1692045255.335,-35.645,-28.320,-37.109,-30.762,189.941
1692045255.339,-36.133,-26.367,-31.250,-25.879,426.758
1692045255.343,-31.250,-23.926,-31.250,-37.598,-46.387
1692045255.347,-25.391,-19.531,-29.297,-34.668,-248.535
1692045255.351,-23.926,-17.090,-33.691,-20.508,-99.609
1692045255.351,-23.926,-19.531,-35.645,-21.484,-128.418
1692045255.355,-19.531,-19.043,-33.691,-25.391,-150.879
1692045255.359,-24.414,-19.043,-32.227,-32.227,-160.645
1692045255.363,-32.715,-24.902,-33.203,-36.621,-37.109
1692045255.367,-36.133,-30.273,-34.180,-41.016,39.062
1692045255.371,-36.621,-32.227,-34.180,-36.621,7.324
1692045255.375,-43.945,-37.109,-36.621,-36.133,47.363
1692045255.378,-40.527,-33.691,-38.086,-37.598,345.703
1692045255.382,-30.273,-23.926,-35.645,-34.668,418.457
1692045255.386,-19.531,-21.973,-32.227,-30.273,-58.105
1692045255.390,-17.090,-24.414,-37.109,-28.809,-114.258
1692045255.394,-25.391,-26.367,-36.621,-28.809,86.426
1692045255.398,-34.180,-34.668,-38.086,-38.574,-141.602
1692045255.402,-45.898,-41.016,-38.086,-51.758,-276.855
1692045255.406,-52.246,-39.551,-32.715,-49.316,-166.504
1692045255.410,-39.551,-48.340,-21.973,-26.367,-135.254
1692045255.414,-15.625,-30.762,-18.555,-9.766,-178.711
1692045255.418,-28.320,-13.184,-29.785,-38.086,-167.969
1692045255.422,-40.039,-20.996,-34.668,-48.340,107.910
1692045255.425,-17.090,-22.949,-32.715,-26.855,293.945
1692045255.429,-15.625,-22.949,-32.715,-24.414,-59.570
1692045255.433,-23.438,-18.555,-34.668,-30.762,-208.984
1692045255.437,-24.902,-18.555,-39.062,-43.457,-47.852
1692045255.441,-28.320,-28.320,-44.922,-43.945,-128.418
1692045255.441,-30.273,-27.832,-41.504,-38.086,-219.238
1692045255.445,-33.203,-25.879,-37.598,-34.180,-90.820
1692045255.449,-30.273,-29.297,-37.109,-34.180,-15.137
1692045255.453,-25.879,-27.344,-35.156,-36.133,-93.750
1692045255.457,-33.691,-28.809,-36.621,-41.016,-33.691
1692045255.461,-32.227,-28.809,-39.062,-26.367,-10.742
1692045255.465,-16.602,-26.855,-34.668,-8.301,305.664
1692045255.468,-14.648,-24.414,-34.668,-21.973,354.492
1692045255.472,-25.391,-25.879,-36.133,-41.992,-139.160
1692045255.476,-32.227,-28.320,-36.133,-43.945,-241.211
1692045255.480,-34.180,-29.297,-34.180,-32.715,-168.457
1692045255.484,-17.090,-29.785,-27.832,-20.508,-190.430
1692045255.490,-14.160,-24.902,-20.508,-12.207,-158.691
1692045255.494,-29.297,-24.902,-21.973,-15.625,-26.367
1692045255.498,-23.926,-25.879,-26.855,-26.855,-11.230
1692045255.502,-22.461,-24.902,-24.902,-20.508,-67.383
1692045255.506,-21.973,-27.344,-25.391,-0.977,-86.914
1692045255.510,-14.160,-26.367,-32.227,-1.953,57.617
1692045255.514,-20.508,-28.809,-31.250,-17.090,144.043
1692045255.517,-32.227,-33.691,-28.320,-25.391,-93.262
1692045255.521,-30.273,-26.855,-31.250,-21.973,-191.406
1692045255.525,-26.367,-26.855,-33.203,-15.137,45.410
1692045255.529,-24.902,-32.227,-32.227,-14.648,128.906
1692045255.533,-19.531,-34.180,-29.297,-19.043,-96.680
1692045255.546,-29.785,-34.180,-27.832,-25.879,-137.207
1692045255.550,-31.250,-31.738,-27.344,-19.531,-22.949
1692045255.554,-15.625,-31.738,-33.691,-10.254,7.812
1692045255.558,-6.348,-28.320,-34.668,-6.836,36.621
1692045255.562,-12.695,-31.250,-26.367,-12.695,88.379
1692045255.566,-32.715,-40.527,-21.484,-21.973,376.465
1692045255.570,-40.527,-36.133,-21.973,-18.555,385.254
1692045255.573,-34.180,-31.738,-28.320,-17.090,-120.117
1692045255.577,-28.809,-37.598,-29.297,-21.973,-174.805
1692045255.581,-29.785,-40.527,-31.738,-35.156,13.672
1692045255.585,-32.227,-36.621,-35.645,-51.758,-138.184
1692045255.589,-33.203,-38.086,-35.645,-44.434,-221.191
1692045255.593,-37.109,-35.645,-27.832,-27.344,-125.000
1692045255.597,-38.086,-36.133,-26.855,-22.949,-81.543
1692045255.601,-33.691,-38.574,-29.297,-20.020,-128.906
1692045255.605,-37.598,-34.668,-28.320,-29.785,-189.941
1692045255.609,-37.598,-30.762,-30.273,-40.527,-123.047
1692045255.613,-35.156,-31.250,-33.203,-47.852,-20.508
1692045255.617,-36.621,-32.715,-35.645,-41.504,-39.062
1692045255.620,-41.016,-30.762,-30.762,-38.086,19.531
1692045255.624,-49.316,-32.227,-32.227,-57.129,55.176
1692045255.628,-61.035,-36.133,-37.109,-73.242,-72.266
1692045255.632,-69.824,-37.598,-38.574,-73.242,-186.035
1692045255.636,-65.918,-31.738,-39.062,-64.941,-166.992
1692045255.637,-65.430,-30.762,-40.039,-59.082,154.785
1692045255.641,-69.824,-30.762,-38.086,-63.965,155.273
1692045255.645,-67.871,-30.273,-38.086,-76.172,-234.375
1692045255.649,-69.336,-37.109,-40.039,-74.707,-200.195
1692045255.653,-74.707,-36.133,-31.250,-63.477,46.387
1692045255.657,-71.289,-33.691,-23.438,-63.477,73.242
1692045255.661,-79.102,-41.016,-23.926,-75.195,14.160
1692045255.664,-85.938,-41.016,-27.344,-78.613,-36.621
1692045255.668,-77.637,-35.156,-29.785,-73.242,263.184
1692045255.672,-73.730,-30.762,-32.227,-71.777,396.484
1692045255.676,-73.730,-27.832,-32.715,-76.660,-13.184
1692045255.680,-76.172,-23.438,-33.691,-78.613,-166.016
1692045255.696,-80.078,-22.461,-31.738,-81.543,-175.781
1692045255.700,-73.730,-25.879,-32.227,-78.125,-242.676
1692045255.704,-67.871,-27.832,-34.668,-62.500,-196.289
1692045255.708,-68.359,-27.832,-38.086,-53.711,-102.539
1692045255.712,-62.988,-27.832,-40.039,-60.547,-93.750
1692045255.716,-55.176,-25.879,-37.109,-67.871,-62.012
1692045255.720,-57.617,-24.414,-32.227,-54.199,-93.750
1692045255.723,-57.129,-22.461,-26.367,-32.715,66.406
1692045255.727,-48.828,-23.438,-28.809,-28.320,255.859
1692045255.731,-41.504,-24.902,-32.715,-38.574,-60.059
1692045255.735,-49.316,-26.855,-25.391,-43.945,-119.629
1692045255.739,-52.734,-27.832,-27.832,-43.457,79.102
1692045255.742,-39.551,-31.738,-31.738,-42.480,27.832
1692045255.746,-42.969,-29.297,-34.180,-35.156,8.301
1692045255.750,-7.812,-22.461,-43.457,-10.742,77.148
1692045255.753,0.000,-24.902,-34.180,-4.883,238.770
1692045255.757,-49.805,-36.133,-22.949,-54.199,24.902
1692045255.761,-61.035,-35.156,-26.367,-70.312,-224.609
1692045255.765,-41.504,-31.738,-31.250,-46.387,-147.949
1692045255.769,-48.828,-34.180,-27.832,-45.410,155.762
1692045255.788,-64.453,-37.598,-23.438,-63.477,55.664
1692045255.792,-64.941,-38.086,-29.785,-73.730,-121.094
1692045255.796,-59.082,-36.133,-36.621,-64.941,-107.910
1692045255.800,-53.711,-35.156,-32.715,-50.781,-115.723
1692045255.804,-57.617,-37.598,-22.949,-38.086,-97.168
1692045255.808,-47.363,-30.273,-20.020,-38.574,-71.289
1692045255.812,-27.832,-22.461,-26.855,-56.641,49.805
1692045255.815,-27.832,-22.461,-25.879,-57.617,178.223
1692045255.819,-28.809,-26.367,-29.785,-35.645,-134.277
1692045255.823,-29.785,-28.809,-34.180,-27.832,-216.797
1692045255.827,-39.551,-28.320,-30.273,-36.621,-76.172
1692045255.831,-38.574,-26.855,-32.227,-47.852,-122.070
1692045255.816,-34.180,-25.391,-33.691,-54.199,-215.820
1692045255.820,-36.621,-28.320,-29.785,-47.363,-162.598
1692045255.824,-31.250,-25.391,-30.762,-34.180,-78.125
1692045255.828,-28.320,-20.020,-28.320,-34.668,-10.742
1692045255.832,-34.668,-22.461,-21.484,-37.598,52.734
1692045255.836,-41.992,-30.762,-23.438,-43.945,41.992
1692045255.840,-36.621,-29.785,-32.227,-40.039,259.277
1692045255.843,-24.414,-27.832,-32.227,-27.832,135.742
1692045255.847,-22.949,-29.785,-27.344,-31.250,-134.277
1692045255.851,-24.902,-28.809,-28.809,-28.809,-107.422
1692045255.855,-26.855,-30.273,-26.367,-18.066,228.516
1692045255.859,-34.668,-33.691,-25.391,-22.461,127.441
1692045255.863,-39.062,-37.109,-27.344,-19.531,-183.594
1692045255.867,-31.250,-33.203,-30.273,-15.625,-123.047
1692045255.871,-27.832,-29.785,-32.715,-22.461,-125.488
1692045255.875,-33.203,-32.715,-29.297,-24.902,-210.938
1692045255.879,-33.203,-26.367,-31.250,-21.484,-248.535
1692045255.883,-34.180,-23.438,-34.180,-23.926,-18.555
1692045255.887,-29.297,-27.832,-32.227,-24.902,163.574
1692045255.890,-28.809,-30.273,-32.715,-29.297,-5.371
1692045255.894,-37.598,-31.250,-35.156,-40.039,-160.645
1692045255.898,-30.762,-30.762,-29.785,-38.574,14.648
1692045255.902,-20.996,-29.297,-30.273,-24.902,130.371
1692045255.906,-17.578,-26.855,-34.180,-16.113,-103.516
1692045255.921,-19.043,-27.832,-26.367,-14.648,-101.562
1692045255.925,-18.555,-28.320,-23.926,-17.090,-25.879
1692045255.929,-13.184,-20.508,-28.320,-23.438,-108.887
1692045255.933,0.488,-13.184,-28.809,-20.996,-107.910
1692045255.937,8.789,-20.996,-28.809,-14.160,28.809
1692045255.941,3.418,-26.367,-30.762,-12.207,374.512
1692045255.945,-4.883,-27.344,-31.738,-16.113,278.809
1692045255.948,-8.789,-30.762,-32.227,-16.113,-183.105
1692045255.952,-7.812,-28.809,-34.180,-11.230,-119.629
1692045255.956,-5.859,-27.832,-32.227,-3.906,95.215
1692045255.960,0.488,-28.320,-25.391,4.395,-74.219
1692045255.964,11.719,-22.461,-17.578,13.672,-234.375
1692045255.968,9.766,-19.043,-14.648,13.672,-164.551
1692045255.972,7.812,-20.996,-18.066,21.484,-52.246
1692045255.976,12.695,-23.438,-22.949,27.344,-72.754
1692045255.980,6.348,-25.391,-20.996,20.020,-92.285
1692045255.984,2.930,-27.344,-20.508,9.766,-77.148
1692045255.988,12.695,-24.414,-20.996,0.488,-79.590
1692045255.992,15.137,-20.508,-21.973,7.324,-85.938
1692045255.995,13.672,-20.020,-22.461,16.602,-161.133
1692045255.999,6.348,-25.879,-23.926,10.742,15.137
1692045256.003,-7.324,-33.203,-27.344,0.488,227.051
1692045256.007,-9.766,-31.250,-28.320,-3.906,-88.867
1692045256.011,-5.859,-29.785,-25.879,-6.348,-161.621
1692045256.011,-3.418,-29.297,-23.438,-5.371,89.844
1692045256.015,-2.441,-25.391,-27.344,-6.348,-2.441
1692045256.019,-11.230,-27.344,-35.156,-21.973,-154.297
1692045256.023,-18.555,-30.273,-30.762,-34.668,-104.004
1692045256.027,-16.602,-28.320,-25.879,-30.762,43.457
1692045256.031,-15.625,-28.809,-26.367,-21.973,90.820
1692045256.035,-13.184,-32.227,-29.297,-22.461,25.391
1692045256.038,-16.602,-35.156,-30.762,-31.250,-33.203
1692045256.042,-28.320,-36.133,-35.156,-30.273,213.867
1692045256.046,-30.762,-32.715,-33.691,-24.902,169.434
1692045256.050,-26.855,-32.227,-25.391,-22.949,-124.023
1692045256.054,-21.484,-33.203,-20.508,-18.555,-99.609
1692045256.060,-15.137,-31.250,-20.020,-20.020,-67.383
1692045256.064,-19.043,-30.273,-25.391,-33.691,-108.398
1692045256.068,-21.973,-35.645,-32.227,-37.109,-156.250
1692045256.072,-13.184,-32.715,-31.250,-24.414,-135.254
1692045256.076,-8.301,-26.367,-24.414,-10.742,-44.434
1692045256.080,-10.742,-24.414,-24.414,-15.137,-62.500
1692045256.084,-21.973,-21.484,-28.320,-23.438,-142.090
1692045256.087,-30.762,-26.367,-27.832,-25.391,9.277
1692045256.091,-36.133,-29.785,-29.297,-19.043,140.137
1692045256.095,-36.133,-24.414,-29.297,-19.531,-132.812
1692045256.099,-22.461,-22.461,-24.902,-20.020,-195.801
1692045256.103,-20.020,-22.949,-28.320,-27.832,-117.188
1692045256.101,-32.227,-23.926,-27.344,-32.715,-182.617
1692045256.105,-31.738,-25.391,-23.438,-17.090,-194.336
1692045256.109,-23.926,-24.902,-26.367,-6.836,-113.770
1692045256.113,-33.691,-26.367,-27.832,-19.043,25.879
1692045256.117,-35.645,-27.344,-33.691,-30.273,82.520
1692045256.121,-28.320,-27.344,-37.598,-33.203,-29.297
1692045256.125,-35.156,-28.809,-35.645,-39.062,7.324
1692045256.128,-38.574,-28.809,-32.715,-31.738,380.371
1692045256.132,-35.645,-24.902,-31.250,-24.414,402.344
1692045256.136,-34.668,-26.855,-32.227,-40.527,-78.125
1692045256.140,-41.016,-31.250,-34.668,-47.852,-261.230
1692045256.144,-44.434,-31.250,-31.250,-37.109,-205.078
1692045256.148,-40.527,-26.855,-30.273,-23.438,-195.801
1692045256.152,-40.039,-30.273,-31.738,-21.973,-180.176
1692045256.156,-41.504,-30.762,-28.320,-27.832,-136.230
1692045256.160,-48.828,-25.879,-25.391,-29.297,-91.797
1692045256.164,-41.016,-26.367,-28.809,-31.738,-117.188
1692045256.168,-20.020,-25.391,-43.945,-21.973,-74.707
1692045256.172,1.465,-19.531,-45.898,3.418,194.824
1692045256.175,-5.859,-23.926,-26.855,6.836,333.984
1692045256.179,-40.527,-36.621,-17.090,-26.855,-7.324
1692045256.183,-45.410,-37.598,-16.602,-36.133,-170.410
1692045256.187,-36.133,-37.109,-23.926,-23.438,32.715
1692045256.191,-32.227,-39.062,-23.926,-18.066,1.953
1692045256.192,-30.273,-39.551,-17.090,-21.484,-216.797
1692045256.196,-33.203,-40.039,-18.555,-24.414,-199.707
1692045256.200,-34.180,-38.086,-19.043,-20.996,-108.887
1692045256.204,-23.926,-33.203,-21.484,-11.719,-49.805
1692045256.208,-16.602,-30.762,-24.902,-7.812,1.465
1692045256.212,-20.996,-28.809,-25.879,-14.160,29.785
1692045256.216,-20.508,-25.879,-24.902,-12.207,309.082
1692045256.219,-16.113,-27.832,-22.949,-11.230,300.781
1692045256.223,-12.695,-26.855,-24.414,-9.766,-55.664
1692045256.227,-8.301,-24.902,-24.414,-6.348,-12.695
1692045256.231,-14.648,-29.297,-22.949,-14.648,47.852
1692045256.235,-27.832,-33.203,-21.973,-25.391,-154.297
1692045256.238,-32.227,-33.203,-23.438,-29.785,-230.469
1692045256.242,-28.320,-29.785,-25.391,-24.902,-126.953
1692045256.246,-25.391,-30.273,-34.180,-28.809,-78.613
1692045256.250,-30.762,-35.645,-38.086,-36.133,-134.766
1692045256.254,-42.969,-37.109,-41.016,-41.016,-201.660
1692045256.258,-44.434,-37.598,-40.527,-48.828,-53.711
1692045256.262,-33.203,-33.691,-39.062,-45.898,68.359
1692045256.265,-26.855,-29.785,-36.133,-37.109,-48.340
1692045256.269,-27.832,-27.344,-28.809,-41.504,-91.309
1692045256.273,-34.668,-25.391,-31.250,-42.480,48.828
1692045256.277,-43.945,-28.809,-31.738,-45.898,128.418
1692045256.281,-43.457,-30.273,-30.762,-55.176,-0.488
1692045256.296,-42.480,-32.715,-32.715,-51.270,-26.855
1692045256.300,-44.434,-32.715,-31.250,-45.898,140.625
1692045256.304,-51.270,-32.715,-30.273,-55.176,14.648
1692045256.308,-58.594,-40.039,-29.297,-55.664,-200.684
1692045256.312,-60.547,-41.504,-30.273,-49.805,-54.688
1692045256.316,-57.129,-37.598,-31.738,-46.875,369.141
1692045256.320,-61.035,-37.109,-33.203,-54.688,343.262
1692045256.323,-59.570,-28.809,-32.715,-60.547,-112.305
1692045256.327,-51.758,-24.902,-32.715,-56.152,-180.176
1692045256.331,-51.758,-34.180,-35.645,-44.434,7.324
1692045256.335,-53.223,-34.180,-38.574,-39.551,-113.281
1692045256.339,-51.270,-33.203,-36.133,-41.016,-218.750
1692045256.344,-49.316,-34.180,-30.273,-35.156,-149.902
1692045256.348,-51.270,-34.180,-29.785,-41.992,-154.785
1692045256.352,-54.688,-35.156,-30.762,-43.457,-167.480
1692045256.356,-50.781,-35.645,-30.762,-39.062,-126.465
1692045256.360,-33.203,-27.344,-31.738,-31.738,-3.906
1692045256.364,-34.180,-21.973,-37.109,-38.574,92.285
1692045256.368,-44.434,-31.738,-37.109,-53.223,-10.742
1692045256.371,-45.410,-27.832,-32.715,-47.852,-144.531
1692045256.375,-42.480,-21.973,-32.227,-32.715,30.762
1692045256.379,-41.504,-27.344,-32.227,-27.832,248.535
1692045256.383,-44.434,-23.926,-33.691,-34.668,-59.082
1692045256.387,-52.734,-26.367,-30.762,-47.363,-203.125
1692045256.386,-51.758,-26.367,-30.762,-52.246,-98.633
1692045256.390,-27.344,-16.113,-33.203,-33.691,-90.332
1692045256.394,-20.508,-18.066,-32.715,-23.926,-94.238
1692045256.398,-26.367,-20.508,-31.250,-24.414,-36.621
1692045256.402,-27.344,-16.113,-27.344,-29.297,42.969
1692045256.406,-29.297,-20.020,-29.297,-41.016,-9.766
1692045256.410,-34.180,-27.832,-36.133,-42.480,5.371
1692045256.413,-41.016,-30.273,-40.039,-45.410,36.133
1692045256.417,-46.387,-27.832,-33.691,-45.898,337.891
1692045256.421,-47.363,-29.785,-29.297,-43.457,404.297
1692045256.425,-43.945,-30.273,-28.320,-50.293,-66.406
1692045256.429,-43.457,-21.973,-29.297,-44.434,-162.109
1692045256.433,-39.062,-22.949,-35.645,-34.180,-76.660
1692045256.437,-29.297,-28.320,-30.762,-35.156,-133.789
1692045256.441,-32.227,-25.391,-23.438,-36.621,-161.133
1692045256.445,-42.480,-22.461,-23.438,-41.992,-132.812
1692045256.449,-41.992,-27.832,-23.438,-49.805,-126.465
1692045256.453,-36.133,-30.273,-24.902,-48.340,-42.969
1692045256.457,-35.645,-29.785,-26.367,-51.270,19.043
1692045256.460,-38.574,-35.156,-30.762,-52.734,139.160
1692045256.464,-37.598,-38.574,-31.738,-43.457,323.730
1692045256.468,-40.039,-39.551,-31.738,-42.969,-38.086
1692045256.472,-36.621,-30.762,-29.785,-38.574,-239.258
1692045256.476,-36.133,-26.855,-31.738,-37.109,-84.473
1692045256.476,-37.109,-23.926,-34.180,-39.062,-113.770
1692045256.480,-40.039,-22.461,-33.691,-39.551,-203.613
1692045256.484,-36.621,-26.367,-31.738,-38.086,-181.152
1692045256.488,-34.668,-29.785,-30.762,-37.598,-25.879
1692045256.492,-38.574,-32.715,-33.203,-32.227,56.152
1692045256.496,-34.180,-29.785,-34.180,-37.598,-38.086
1692045256.500,-37.109,-28.809,-39.062,-48.828,0.000
1692045256.503,-31.250,-30.762,-35.645,-36.621,305.176
1692045256.507,-20.508,-26.367,-29.297,-28.809,273.438
1692045256.511,-20.996,-25.391,-31.250,-32.715,-72.266
1692045256.515,-21.484,-30.762,-33.203,-35.156,-116.699
1692045256.519,-21.973,-30.762,-32.715,-39.062,-34.180
1692045256.525,-19.043,-25.879,-31.738,-36.621,-143.555
1692045256.529,-19.043,-28.809,-34.668,-27.832,-205.078
1692045256.533,-16.602,-30.762,-39.062,-25.879,-125.488
1692045256.537,-3.418,-28.320,-44.922,-21.973,-109.375
1692045256.541,-1.465,-30.273,-40.039,-16.602,-175.781
1692045256.545,-32.227,-39.551,-26.855,-30.273,-118.164
1692045256.549,-49.805,-45.410,-25.391,-35.156,187.012
1692045256.552,-42.480,-41.992,-23.926,-25.879,341.309
1692045256.556,-34.180,-33.203,-19.531,-26.367,18.066
1692045256.560,-36.133,-34.180,-22.949,-36.621,-170.898
1692045256.564,-45.410,-37.109,-27.832,-41.016,-145.508
1692045256.568,-38.574,-33.691,-25.391,-35.156,-135.254
1692045256.568,-22.949,-29.785,-16.602,-25.391,-109.863
1692045256.572,-18.066,-23.926,-13.184,-24.414,-118.164
1692045256.576,-19.043,-23.438,-15.625,-24.902,-13.672
1692045256.580,-23.926,-26.367,-19.531,-27.832,-67.383
1692045256.584,-26.367,-27.344,-24.414,-29.297,-145.020
1692045256.588,-20.508,-26.855,-23.438,-18.066,-31.738
1692045256.592,-22.461,-29.297,-20.020,-7.812,378.906
1692045256.595,-20.508,-30.273,-20.996,-11.719,491.211
1692045256.599,-13.672,-28.320,-23.926,-20.020,27.832
1692045256.603,-12.207,-29.785,-24.414,-9.277,-196.289
1692045256.607,-16.602,-30.762,-22.461,-9.766,-151.367
1692045256.611,-21.973,-30.762,-21.973,-27.344,-157.227
1692045256.630,-23.926,-25.879,-23.438,-29.785,-215.332
1692045256.634,-28.320,-23.926,-20.020,-26.855,-185.059
1692045256.638,-40.527,-27.832,-24.414,-32.715,-80.566
1692045256.642,-36.621,-27.832,-34.668,-32.715,-43.945
1692045256.646,-27.344,-28.809,-32.715,-28.320,-169.434
1692045256.650,-41.016,-32.227,-35.156,-33.203,63.965
1692045256.654,-43.945,-28.809,-35.156,-36.133,416.016
1692045256.657,-34.668,-20.508,-26.367,-27.832,20.508
1692045256.661,-31.250,-22.949,-22.949,-19.043,-171.875
1692045256.665,-36.133,-33.203,-24.414,-23.926,-77.637
1692045256.669,-38.086,-35.156,-26.367,-32.715,-145.996
1692045256.673,-34.180,-32.227,-24.902,-38.574,-245.605
1692045256.671,-37.109,-29.297,-28.320,-37.598,-187.012
1692045256.675,-39.062,-27.344,-26.855,-33.203,-78.613
1692045256.679,-30.762,-24.414,-20.020,-28.809,-86.914
1692045256.683,-30.273,-23.926,-17.090,-36.133,-118.164
1692045256.687,-38.086,-28.809,-19.043,-36.133,-4.395
1692045256.691,-35.645,-32.227,-20.996,-32.227,124.512
1692045256.695,-30.762,-29.785,-23.926,-26.855,87.891
1692045256.698,-28.320,-29.297,-23.926,-25.391,23.926
1692045256.702,-32.227,-32.715,-22.949,-33.691,-15.625
1692045256.706,-41.016,-32.715,-25.391,-34.668,274.414
1692045256.710,-49.805,-33.691,-27.832,-39.551,430.176
1692045256.714,-42.480,-32.227,-32.715,-41.992,15.625
1692045256.718,-37.109,-31.738,-28.320,-39.062,-123.535
1692045256.722,-47.363,-33.203,-28.320,-46.875,-135.742
1692045256.726,-43.945,-31.250,-27.344,-50.781,-254.395
1692045256.730,-46.387,-32.715,-27.832,-48.828,-289.062
1692045256.734,-39.551,-27.832,-34.180,-46.387,-230.469
1692045256.738,-31.250,-29.297,-35.156,-46.387,-121.582
1692045256.742,-40.527,-30.273,-34.180,-54.199,-131.348
1692045256.745,-46.387,-28.809,-34.180,-60.059,-267.090
1692045256.749,-50.781,-27.344,-31.738,-55.176,-101.562
1692045256.753,-51.270,-35.156,-28.809,-35.156,281.250
1692045256.757,-27.832,-45.410,-23.438,-6.836,-14.648
1692045256.761,-19.043,-29.785,-30.762,-12.207,-191.895
1692045256.761,-43.945,-15.137,-41.504,-51.270,-81.543
1692045256.765,-39.062,-20.508,-40.527,-55.176,-164.062
1692045256.769,-25.391,-25.391,-43.457,-39.062,-234.863
1692045256.773,-19.531,-20.508,-43.945,-38.574,-93.262
1692045256.777,-14.160,-18.066,-37.598,-36.133,167.480
1692045256.781,-22.949,-15.137,-35.645,-37.109,47.363
1692045256.785,-36.621,-17.578,-40.039,-47.363,-89.355
1692045256.788,-40.039,-19.531,-39.062,-51.758,-73.242
1692045256.792,-25.879,-15.137,-31.250,-34.668,208.496
1692045256.796,-20.508,-18.066,-30.762,-26.855,342.285
1692045256.800,-23.926,-22.461,-35.156,-36.621,-24.902
1692045256.804,-28.809,-19.531,-31.250,-40.039,-203.125
1692045256.808,-27.344,-20.508,-31.738,-29.297,-127.930
1692045256.812,-26.367,-27.344,-38.086,-24.902,-164.551
1692045256.816,-22.949,-23.438,-35.645,-23.438,-108.887
1692045256.820,-26.367,-26.855,-31.250,-23.438,-59.570
1692045256.824,-42.969,-28.320,-27.832,-41.992,-108.398
1692045256.828,-52.246,-25.391,-27.832,-46.387,-113.770
1692045256.832,-51.270,-30.273,-31.250,-37.109,-113.770
1692045256.835,-33.691,-34.180,-30.762,-33.203,7.324
1692045256.839,-35.156,-39.551,-36.621,-42.480,138.672
1692045256.843,-39.062,-38.574,-39.551,-52.734,-149.414
1692045256.847,-29.785,-32.227,-34.180,-45.410,-223.633
1692045256.851,-27.832,-29.785,-31.738,-37.598,-118.652
1692045256.852,-26.855,-29.297,-31.250,-28.320,-35.645
1692045256.856,-26.855,-31.738,-33.203,-32.227,-97.168
1692045256.860,-28.809,-28.809,-34.180,-47.363,-158.691
1692045256.864,-36.133,-25.391,-29.785,-39.551,65.918
1692045256.868,-29.785,-28.809,-28.809,-23.438,68.359
1692045256.872,-30.762,-31.250,-32.715,-25.879,13.672
1692045256.876,-36.621,-28.809,-36.133,-37.109,109.863
1692045256.879,-29.297,-24.414,-30.762,-29.297,360.352
1692045256.883,-31.738,-22.949,-28.320,-20.508,288.086
1692045256.887,-34.180,-20.508,-28.320,-22.949,-120.605
1692045256.891,-29.785,-19.043,-29.297,-20.020,-196.289
1692045256.895,-31.738,-18.066,-31.738,-20.996,-162.598
1692045256.898,-47.852,-22.461,-30.273,-25.879,-195.801
1692045256.902,-47.363,-29.297,-26.367,-27.832,-241.211
1692045256.906,-35.156,-30.762,-25.391,-21.484,-100.098
1692045256.910,-31.738,-32.715,-28.809,-17.578,-17.090
1692045256.914,-23.926,-30.762,-27.832,-18.066,-94.238
1692045256.918,-34.668,-31.250,-26.367,-27.832,-31.738
1692045256.922,-43.945,-32.227,-27.832,-33.691,159.668
1692045256.925,-36.621,-32.715,-25.391,-28.809,330.078
1692045256.929,-43.457,-33.203,-31.250,-33.203,-17.578
1692045256.933,-43.457,-32.715,-36.621,-37.109,-187.988
1692045256.937,-29.297,-31.250,-32.715,-40.527,-68.848
1692045256.941,-24.414,-29.785,-31.738,-34.180,-111.328
1692045256.941,-19.531,-26.367,-38.086,-20.996,-193.848
1692045256.945,-16.113,-26.855,-38.086,-16.602,-160.156
1692045256.949,-19.531,-29.297,-36.621,-16.602,-50.293
1692045256.953,-25.391,-31.250,-33.203,-24.902,-8.301
1692045256.957,-31.250,-29.785,-31.738,-31.250,-57.129
1692045256.961,-19.043,-25.879,-30.762,-20.508,-105.957
1692045256.965,-11.719,-32.715,-32.715,-18.066,329.590
1692045256.968,-19.531,-36.621,-31.738,-28.809,518.066
1692045256.972,-26.367,-37.598,-33.691,-41.016,-16.113
1692045256.976,-17.578,-40.527,-33.203,-39.062,-248.535
1692045256.980,-16.602,-36.133,-32.715,-32.715,-131.348
1692045256.984,-23.926,-33.691,-34.668,-31.738,-173.340
1692045256.988,-22.949,-32.227,-39.062,-30.762,-212.402
1692045256.992,-35.645,-33.203,-40.039,-42.969,-134.277
1692045256.996,-38.574,-41.992,-27.344,-37.109,-75.195
1692045257.000,-4.883,-42.480,-14.648,-2.930,-170.410
1692045257.004,9.766,-25.391,-29.785,-6.836,-216.309
1692045257.008,-31.738,-19.043,-45.410,-42.480,77.148
1692045257.012,-59.570,-23.926,-43.457,-62.500,167.480
1692045257.015,-49.805,-27.832,-37.598,-62.012,-25.879
1692045257.019,-56.152,-22.461,-36.621,-52.734,-49.316
1692045257.023,-50.293,-18.555,-38.574,-41.992,72.266
1692045257.027,-43.457,-24.902,-41.504,-36.133,177.246
1692045257.031,-54.199,-28.809,-41.504,-41.504,-110.840
1692045257.046,-54.199,-25.391,-42.480,-50.293,-194.336
1692045257.050,-37.598,-21.973,-39.551,-41.504,-64.941
1692045257.054,-34.180,-21.973,-40.527,-26.855,-105.469
1692045257.058,-30.273,-25.391,-44.434,-29.785,-155.273
1692045257.062,-22.949,-32.715,-44.434,-37.109,-70.312
1692045257.066,-25.879,-36.133,-40.527,-37.598,311.035
1692045257.070,-29.297,-31.738,-41.504,-39.062,301.270
1692045257.073,-31.738,-30.273,-45.410,-35.645,-122.559
1692045257.077,-25.879,-31.738,-41.016,-27.832,-153.809
1692045257.081,-26.367,-33.691,-42.969,-25.391,114.258
1692045257.085,-24.902,-34.668,-46.875,-33.691,52.734
1692045257.089,-25.879,-29.297,-43.457,-41.992,-136.230
1692045257.091,-25.879,-26.367,-40.039,-28.809,-142.090
1692045257.095,-17.578,-33.691,-39.551,-26.367,-97.168
1692045257.099,-21.484,-37.109,-33.691,-40.039,-180.664
1692045257.103,-23.438,-34.668,-29.785,-33.691,-244.629
1692045257.107,-29.785,-34.180,-29.785,-27.344,-128.906
1692045257.111,-36.621,-39.062,-30.273,-30.273,66.895
1692045257.115,-26.367,-36.621,-27.832,-19.043,48.828
1692045257.118,-25.391,-29.785,-25.391,-15.625,-94.238
1692045257.122,-30.273,-38.086,-28.320,-29.297,-0.977
1692045257.126,-30.273,-40.527,-34.180,-38.086,139.160
1692045257.130,-21.973,-34.668,-35.156,-30.762,-105.957
1692045257.134,-15.625,-34.668,-29.785,-12.207,-195.312
1692045257.136,-16.113,-33.203,-29.297,-7.812,-27.344
1692045257.140,-18.066,-35.156,-32.227,-20.020,-27.344
1692045257.144,-32.715,-33.203,-36.621,-32.227,-150.879
1692045257.148,-33.691,-32.227,-38.574,-32.227,-121.582
1692045257.152,-16.113,-32.715,-32.227,-18.066,199.219
1692045257.156,-14.160,-31.250,-33.203,-17.578,231.445
1692045257.160,-21.484,-34.668,-35.156,-27.344,-19.531
1692045257.163,-23.438,-34.668,-32.715,-25.391,-89.355
1692045257.167,-24.902,-32.715,-33.203,-15.137,142.090
1692045257.171,-28.320,-34.180,-37.109,-17.090,52.734
1692045257.175,-25.879,-33.203,-39.551,-17.578,-187.012
1692045257.179,-27.344,-31.738,-36.133,-22.461,-121.094
1692045257.183,-30.762,-35.645,-32.715,-36.621,-56.152
1692045257.187,-31.738,-32.227,-29.297,-32.227,-139.160
1692045257.191,-25.879,-29.297,-29.785,-28.320,-130.859
1692045257.195,-18.555,-33.691,-35.156,-31.250,113.770
1692045257.199,-20.996,-31.738,-32.715,-28.809,151.855
1692045257.203,-29.297,-27.344,-25.879,-34.668,-36.133
1692045257.207,-32.227,-29.297,-26.855,-38.574,-71.777
1692045257.210,-33.691,-30.273,-28.809,-34.668,125.977
1692045257.214,-42.480,-32.227,-32.715,-40.039,319.336
1692045257.218,-37.598,-26.367,-33.691,-45.410,9.766
1692045257.222,-37.109,-22.949,-29.785,-45.410,-132.812
1692045257.226,-43.457,-25.391,-27.344,-50.293,-11.230
1692045257.241,-41.016,-23.926,-29.297,-50.781,-63.965
1692045257.245,-45.898,-21.973,-29.297,-47.363,-113.281
1692045257.249,-43.457,-21.973,-28.320,-44.922,-83.008
1692045257.253,-35.156,-25.879,-32.715,-50.293,-51.758
1692045257.257,-39.551,-25.391,-34.668,-55.664,-39.062
1692045257.261,-41.504,-23.438,-34.668,-48.828,-21.973
1692045257.265,-39.062,-26.367,-36.621,-41.504,-17.578
1692045257.268,-32.227,-25.391,-38.086,-38.086,318.848
1692045257.272,-29.785,-20.996,-41.016,-36.621,454.590
1692045257.276,-41.504,-24.902,-42.969,-44.434,-21.973
1692045257.280,-38.086,-31.738,-37.109,-43.945,-218.750
1692045257.284,-22.461,-27.344,-33.691,-32.227,-121.582
1692045257.273,-20.020,-26.367,-36.621,-33.691,-129.883
1692045257.277,-23.438,-24.902,-33.691,-38.086,-168.945
1692045257.281,-26.855,-19.531,-34.668,-36.133,-176.270
1692045257.285,-28.320,-25.391,-40.527,-41.016,-140.137
1692045257.289,-25.879,-29.785,-41.992,-40.527,-137.695
1692045257.293,-26.367,-28.320,-37.598,-37.598,-26.367
1692045257.297,-29.785,-25.879,-35.645,-41.016,117.676
1692045257.300,-36.621,-26.855,-33.691,-37.109,14.648
1692045257.304,-33.691,-27.344,-30.273,-30.762,-64.941
1692045257.308,-26.855,-25.391,-31.250,-27.344,-121.582
1692045257.312,-29.785,-24.414,-35.156,-27.832,80.078
1692045257.316,-33.203,-25.879,-33.691,-24.414,364.746
1692045257.316,-38.574,-28.809,-32.715,-35.156,-18.066
1692045257.320,-34.180,-23.438,-28.809,-34.180,-230.957
1692045257.324,-26.855,-21.973,-20.508,-22.461,-89.355
1692045257.328,-25.391,-22.461,-19.531,-16.113,-119.141
1692045257.332,-28.320,-24.902,-23.438,-18.066,-152.344
1692045257.336,-33.203,-27.344,-22.949,-26.855,-124.023
1692045257.340,-37.109,-25.879,-25.391,-22.461,305.176
1692045257.343,-28.809,-23.926,-25.879,-9.277,427.734
1692045257.347,-16.602,-25.391,-25.391,-13.672,-83.008
1692045257.351,-21.973,-23.438,-23.926,-25.879,-237.305
1692045257.355,-33.203,-21.484,-24.902,-33.691,-105.957
1692045257.359,-27.344,-26.855,-25.879,-31.738,-93.750
1692045257.364,-19.531,-28.320,-23.926,-23.438,-168.945
1692045257.368,-22.461,-27.344,-26.367,-16.602,-29.785
1692045257.372,-24.902,-29.297,-26.367,-21.484,45.898
1692045257.376,-28.320,-28.809,-26.855,-30.762,-184.082
1692045257.380,-34.668,-28.809,-31.250,-35.156,-257.812
1692045257.384,-30.762,-28.320,-34.180,-34.668,6.836
1692045257.388,-30.273,-24.902,-35.645,-32.227,74.707
1692045257.391,-25.391,-22.949,-36.621,-39.062,-145.996
1692045257.395,-20.508,-24.902,-40.039,-42.969,-265.625
1692045257.399,-34.668,-29.297,-40.527,-39.551,-85.449
1692045257.403,-38.574,-29.785,-36.621,-32.715,71.777
1692045257.407,-30.273,-26.367,-36.133,-18.555,-128.906
1692045257.421,-34.180,-21.973,-37.598,-15.137,-182.129
1692045257.425,-41.016,-25.391,-32.227,-25.879,-31.738
1692045257.429,-46.875,-26.855,-30.273,-28.320,-123.047
1692045257.433,-41.992,-20.508,-31.250,-20.996,-156.738
1692045257.437,-25.391,-22.461,-30.762,-17.090,27.832
1692045257.441,-17.578,-23.926,-36.133,-14.160,317.871
1692045257.445,-29.297,-22.949,-38.086,-27.344,287.598
1692045257.448,-33.203,-27.832,-33.691,-34.180,-128.418
1692045257.452,-28.320,-27.344,-31.250,-24.902,-145.020
1692045257.456,-23.438,-14.648,-35.156,-21.973,42.480
1692045257.460,-6.348,-6.348,-44.434,-14.160,-99.121
1692045257.464,-8.789,-21.973,-35.645,-14.648,-227.051
1692045257.468,-28.320,-34.180,-19.531,-26.367,-204.102
1692045257.472,-44.434,-32.715,-20.996,-35.645,-145.996
1692045257.476,-39.551,-30.762,-22.461,-25.391,-147.949
1692045257.480,-29.297,-32.227,-23.438,-16.602,-115.723
1692045257.484,-31.738,-37.109,-19.531,-18.066,-23.438
1692045257.488,-35.645,-37.598,-7.324,-11.719,41.504
1692045257.492,-38.574,-37.598,-11.230,-4.395,24.902
1692045257.495,-36.621,-40.527,-19.531,2.930,-74.707
1692045257.499,-31.250,-38.086,-18.066,2.441,27.832
1692045257.503,-24.414,-32.715,-22.461,-8.301,202.148
1692045257.507,-29.297,-37.109,-26.855,-23.926,-89.844
1692045257.511,-36.133,-42.969,-23.438,-21.973,-210.938
1692045257.511,-28.320,-41.504,-17.090,-8.301,-66.895
1692045257.515,-20.508,-40.039,-19.043,-8.789,-26.855
1692045257.519,-21.973,-39.062,-24.902,-9.766,-107.910
1692045257.523,-26.855,-35.156,-23.926,-8.301,-86.426
1692045257.527,-24.902,-37.598,-22.949,-9.277,152.832
1692045257.531,-20.996,-36.133,-24.902,-6.348,117.188
1692045257.535,-15.625,-33.203,-23.926,-8.301,-23.926
1692045257.538,-16.602,-33.203,-27.344,-17.578,18.066
1692045257.542,-16.602,-30.762,-28.320,-15.137,296.387
1692045257.546,-14.160,-26.367,-29.297,-8.789,352.051
1692045257.550,-14.160,-26.855,-26.367,-12.207,-49.805
1692045257.554,-9.766,-28.809,-21.484,-10.742,-137.695
1692045257.573,-11.230,-28.809,-21.484,-13.184,-38.086
1692045257.577,-12.207,-26.367,-28.320,-18.066,-115.234
1692045257.581,-4.883,-22.461,-32.227,-23.438,-177.734
1692045257.585,-6.348,-22.949,-30.273,-19.043,-91.797
1692045257.589,-7.812,-24.902,-34.180,-11.230,-10.254
1692045257.593,-12.207,-31.738,-40.039,-21.973,12.207
1692045257.597,-19.531,-28.809,-34.180,-30.273,-16.113
1692045257.600,-19.531,-26.367,-31.738,-23.926,66.895
1692045257.604,-14.160,-30.273,-34.668,-20.020,276.855
1692045257.608,-5.859,-27.344,-31.250,-19.531,42.480
1692045257.612,-9.277,-27.344,-28.809,-23.438,-121.094
1692045257.616,-15.137,-27.832,-30.273,-29.297,7.324
1692045257.601,-22.949,-27.832,-33.203,-24.902,-90.820
1692045257.605,-25.391,-27.344,-34.180,-17.578,-217.285
1692045257.609,-20.020,-24.902,-30.273,-12.695,-157.715
1692045257.613,-21.484,-28.809,-27.832,-16.602,-94.238
1692045257.617,-34.180,-35.645,-29.297,-26.855,-45.410
1692045257.621,-34.180,-34.668,-27.344,-25.391,-67.871
1692045257.625,-35.645,-34.180,-31.738,-21.973,47.852
1692045257.628,-32.227,-33.203,-32.227,-15.625,141.113
1692045257.632,-25.391,-28.809,-31.250,-18.555,-25.879
1692045257.636,-29.785,-31.250,-36.133,-34.180,-160.156
1692045257.640,-36.621,-34.180,-34.180,-37.109,-128.906
1692045257.644,-33.203,-32.227,-30.273,-24.414,369.141
1692045257.648,-20.508,-26.855,-29.785,-12.207,517.578
1692045257.652,-21.484,-28.320,-32.227,-24.414,11.719
1692045257.656,-30.273,-34.180,-34.668,-37.109,-145.508
1692045257.660,-32.715,-28.809,-32.227,-37.109,-148.926
1692045257.664,-30.762,-27.344,-30.762,-30.273,-215.332
1692045257.668,-24.414,-28.809,-30.273,-20.996,-190.430
1692045257.672,-22.461,-26.367,-25.879,-20.508,27.344
1692045257.675,-20.020,-27.344,-25.879,-25.879,255.859
1692045257.679,-22.461,-28.809,-31.738,-36.133,-58.594
1692045257.683,-30.273,-30.762,-32.227,-34.668,-210.938
1692045257.687,-26.855,-32.227,-29.297,-28.809,-66.406
1692045257.691,-28.320,-32.227,-31.738,-30.273,-73.242
1692045257.693,-42.480,-32.227,-30.273,-44.434,-148.438
1692045257.697,-50.781,-35.156,-30.273,-50.781,-103.516
1692045257.701,-54.199,-33.691,-34.668,-42.480,78.125
1692045257.705,-49.316,-31.250,-34.180,-39.551,36.133
1692045257.709,-39.551,-32.227,-27.832,-34.668,1.465
1692045257.713,-35.645,-32.715,-29.297,-40.527,-8.301
1692045257.717,-43.457,-39.062,-33.691,-44.922,259.766
1692045257.720,-50.293,-38.574,-35.645,-42.480,289.551
1692045257.724,-41.016,-32.227,-38.086,-38.574,-123.047
1692045257.728,-31.250,-31.738,-36.133,-27.344,-162.109
1692045257.732,-27.344,-33.203,-33.691,-31.738,-123.535
1692045257.736,-26.367,-36.133,-35.645,-38.574,-203.125
1692045257.738,-31.250,-32.715,-28.320,-35.645,-230.469
1692045257.742,-28.809,-28.320,-25.391,-28.320,-149.902
1692045257.746,-19.531,-25.879,-27.832,-20.020,-58.105
1692045257.750,-24.414,-25.391,-25.391,-23.926,-63.965
1692045257.754,-34.668,-27.344,-28.809,-31.250,-32.715
1692045257.758,-47.363,-28.320,-36.133,-39.551,142.090
1692045257.762,-48.828,-27.344,-36.133,-33.691,360.840
1692045257.765,-32.227,-22.949,-29.785,-27.344,53.711
1692045257.769,-29.297,-25.391,-28.809,-35.156,-187.500
1692045257.773,-36.133,-28.809,-28.320,-40.039,-65.430
1692045257.777,-34.668,-32.227,-26.367,-42.969,-103.027
1692045257.781,-36.621,-34.180,-28.320,-39.551,-162.598
1692045257.796,-31.250,-34.180,-32.227,-29.785,-84.473
1692045257.800,-29.785,-34.180,-30.762,-33.203,-22.461
1692045257.804,-40.527,-38.574,-33.203,-45.410,-62.012
1692045257.808,-40.039,-41.992,-36.133,-44.434,-126.953
1692045257.812,-36.621,-40.039,-33.203,-34.180,-38.086
1692045257.816,-35.645,-34.668,-30.762,-22.461,366.211
1692045257.820,-26.855,-29.785,-34.180,-17.578,377.441
1692045257.823,-22.461,-28.320,-33.691,-28.809,-31.738
1692045257.827,-28.320,-27.832,-35.156,-37.598,-110.352
1692045257.831,-29.785,-27.832,-33.203,-30.762,116.699
1692045257.835,-25.879,-28.809,-38.086,-20.020,-9.766
1692045257.839,-20.020,-33.691,-39.062,-21.484,-163.086
1692045257.842,-18.555,-36.133,-31.738,-20.508,-114.746
1692045257.846,-24.414,-32.715,-33.203,-26.855,-170.410
1692045257.850,-28.320,-28.320,-34.668,-32.227,-198.730
1692045257.854,-16.602,-29.297,-33.203,-22.949,-213.379
1692045257.858,-22.461,-28.320,-34.668,-29.785,-141.113
1692045257.862,-23.438,-26.855,-37.598,-30.762,10.254
1692045257.866,-21.484,-25.879,-35.645,-36.133,28.809
1692045257.869,-25.879,-26.855,-41.016,-43.945,-173.340
1692045257.873,-20.996,-28.320,-44.922,-35.645,25.879
1692045257.877,-21.973,-28.809,-38.574,-34.180,466.797
1692045257.881,-24.902,-26.367,-33.691,-44.922,52.734
1692045257.885,-23.438,-21.973,-34.180,-49.805,-231.445
1692045257.886,-24.902,-22.461,-35.156,-52.734,-69.336
1692045257.890,-25.391,-23.926,-38.086,-48.828,-58.594
1692045257.894,-20.996,-23.438,-38.086,-39.062,-117.676
1692045257.898,-20.996,-23.926,-35.645,-38.574,-68.359
1692045257.902,-26.367,-25.391,-36.133,-41.992,39.551
1692045257.906,-31.738,-23.438,-31.250,-43.945,-42.969
1692045257.910,-26.367,-22.461,-32.227,-36.133,-63.477
1692045257.913,-17.090,-24.902,-34.180,-21.973,-22.949
1692045257.917,-16.602,-25.391,-30.762,-16.113,280.273
1692045257.921,-29.297,-31.738,-30.762,-22.461,229.492
1692045257.925,-35.645,-30.273,-29.297,-30.762,-197.754
1692045257.929,-32.227,-29.297,-27.832,-28.809,-99.609
1692045257.933,-25.879,-29.785,-29.297,-23.438,51.758
1692045257.937,-26.855,-25.391,-30.762,-30.762,-86.914
1692045257.941,-34.180,-26.367,-29.297,-38.086,-145.996
1692045257.945,-42.969,-32.227,-28.809,-43.457,-116.699
1692045257.949,-33.203,-32.227,-29.785,-34.180,-124.512
1692045257.953,-21.484,-29.297,-30.762,-20.020,-20.996
1692045257.957,-25.391,-26.855,-32.227,-20.996,-24.902
1692045257.960,-27.344,-24.414,-32.715,-28.809,34.180
1692045257.964,-25.879,-25.391,-31.250,-27.832,200.684
1692045257.968,-27.344,-26.855,-27.344,-26.367,-91.797
1692045257.972,-33.203,-28.809,-26.367,-23.926,-215.820
1692045257.976,-37.109,-27.344,-32.715,-27.832,-54.199
1692045257.978,-35.645,-26.855,-33.203,-36.133,-111.816
1692045257.982,-40.039,-37.598,-33.691,-38.086,-173.340
1692045257.986,-43.457,-42.969,-34.668,-37.598,-64.941
1692045257.990,-38.086,-38.574,-35.156,-29.297,112.305
1692045257.994,-38.086,-34.668,-38.574,-32.715,102.539
1692045257.998,-36.621,-30.762,-40.039,-41.504,-15.625
1692045258.002,-26.367,-22.949,-34.180,-41.016,-82.520
1692045258.005,-20.996,-20.996,-33.203,-25.391,228.027
1692045258.009,-14.160,-26.367,-32.715,-0.977,318.359
1692045258.013,0.977,-20.996,-28.320,11.230,-107.910
1692045258.017,-5.859,-10.254,-35.645,-15.137,-223.145
1692045258.021,-17.578,-13.672,-43.457,-29.297,-232.422
1692045258.023,-31.250,-22.949,-40.527,-16.602,-263.672
1692045258.027,-33.691,-28.320,-36.621,-15.625,-231.934
1692045258.031,-3.418,-38.086,-30.762,-5.371,-150.391
1692045258.035,-3.418,-33.691,-34.180,-11.230,-88.867
1692045258.039,-23.926,-16.602,-38.574,-20.508,-38.574
1692045258.043,-23.438,-21.484,-37.598,-24.902,-17.578
1692045258.047,-22.461,-28.320,-36.621,-19.531,138.672
1692045258.050,-23.438,-23.438,-37.598,-5.371,446.777
1692045258.054,-24.902,-25.391,-36.621,-9.277,112.305
1692045258.058,-22.461,-27.344,-33.691,-16.113,-185.547
1692045258.062,-22.461,-25.879,-35.645,-10.254,-78.125
1692045258.066,-24.902,-29.785,-38.086,-12.695,-108.398
1692045258.066,-22.949,-26.367,-37.109,-13.672,-164.062
1692045258.070,-20.508,-21.973,-36.621,-17.090,-126.953
1692045258.074,-17.090,-26.367,-37.109,-22.949,-34.180
1692045258.078,-22.461,-23.926,-36.621,-26.367,-84.961
1692045258.082,-26.367,-17.578,-36.133,-21.484,-89.355
1692045258.086,-18.066,-18.555,-41.992,-21.484,-13.672
1692045258.090,-17.090,-24.414,-49.805,-33.691,386.719
1692045258.093,-30.273,-29.297,-41.016,-35.645,534.180
1692045258.097,-34.180,-29.297,-32.227,-36.133,-58.105
1692045258.101,-21.973,-26.855,-32.715,-24.902,-261.230
1692045258.105,-14.648,-25.879,-29.297,-12.207,-114.746
1692045258.109,-13.672,-30.762,-26.855,-18.066,-178.711
1692045258.113,-10.742,-28.320,-24.414,-25.391,-208.984
1692045258.117,-11.719,-26.855,-30.762,-24.902,-170.410
1692045258.121,-12.695,-30.762,-32.715,-18.066,-129.883
1692045258.125,-7.324,-27.344,-29.297,-8.789,-70.312
1692045258.129,-5.371,-25.391,-31.738,-11.230,-42.480
1692045258.133,-14.648,-32.715,-38.086,-19.043,84.473
1692045258.137,-17.090,-31.250,-39.062,-17.578,146.973
1692045258.140,-15.625,-23.438,-38.574,-20.508,-126.465
1692045258.144,-14.648,-24.414,-36.133,-18.555,-211.426
1692045258.148,-17.578,-24.902,-26.855,-17.578,57.129
1692045258.152,-11.230,-17.578,-26.367,-18.555,115.234
1692045258.156,-16.602,-17.578,-29.297,-22.949,-167.480
1692045258.171,-31.738,-21.973,-27.344,-16.602,-181.641
1692045258.175,-28.809,-23.926,-34.180,-7.324,-26.855
1692045258.179,-23.438,-24.414,-33.203,-9.277,-32.227
1692045258.183,-25.391,-22.461,-34.668,-22.461,-102.539
1692045258.187,-27.832,-25.391,-33.691,-28.320,-42.969
1692045258.191,-27.832,-20.508,-27.832,-12.695,289.551
1692045258.195,-32.227,-20.996,-32.227,-8.789,261.719
1692045258.198,-20.996,-29.297,-35.645,-12.695,-90.332
1692045258.202,-20.020,-30.273,-31.250,-19.531,-145.508
1692045258.206,-28.320,-28.809,-28.320,-26.367,4.883
1692045258.210,-22.461,-18.555,-28.809,-20.996,-83.496
1692045258.214,-20.508,-17.578,-31.250,-19.531,-159.180
1692045258.216,-22.461,-22.949,-33.203,-17.578,18.066
1692045258.220,-25.879,-23.926,-33.691,-19.043,63.965
1692045258.224,-28.809,-23.926,-34.668,-30.762,-72.266
1692045258.228,-26.855,-25.879,-33.691,-32.227,-169.922
1692045258.232,-26.855,-27.344,-33.691,-18.066,-101.562
1692045258.236,-29.297,-27.832,-35.156,-10.742,41.016
1692045258.240,-30.273,-25.879,-33.691,-19.531,10.254
1692045258.243,-29.297,-25.391,-33.203,-33.691,-156.250
1692045258.247,-35.156,-27.344,-33.203,-33.691,33.691
1692045258.251,-41.992,-28.809,-35.156,-36.133,238.281
1692045258.255,-35.156,-30.273,-32.227,-39.551,-92.285
1692045258.259,-17.090,-26.855,-28.809,-31.738,-173.340
1692045258.263,-22.461,-29.297,-31.250,-41.504,-103.027
1692045258.267,-28.809,-30.273,-28.320,-38.086,-76.172
1692045258.271,-21.484,-28.320,-29.785,-23.926,-42.969
1692045258.275,-13.672,-37.598,-28.320,-11.719,-82.031
1692045258.279,3.418,-36.621,-25.879,7.812,299.805
1692045258.283,8.301,-18.555,-39.062,-1.465,319.824
1692045258.287,-22.949,-15.625,-45.410,-41.016,-40.527
1692045258.290,-41.504,-20.996,-46.387,-59.570,-65.918
1692045258.294,-31.738,-28.320,-43.945,-38.574,184.570
1692045258.298,-33.203,-31.250,-43.457,-29.297,94.238
1692045258.302,-27.344,-23.926,-46.387,-44.922,-199.707
1692045258.306,-25.879,-21.484,-47.852,-48.340,-159.180
1692045258.308,-37.598,-24.902,-51.758,-48.340,-100.586
1692045258.312,-32.715,-20.020,-48.340,-44.434,-141.113
1692045258.316,-23.438,-20.020,-44.922,-37.598,-159.668
1692045258.320,-20.508,-25.879,-44.922,-34.180,-126.465
1692045258.324,-29.297,-28.320,-40.039,-33.691,-109.375
1692045258.328,-35.645,-29.297,-36.133,-28.809,-84.473
1692045258.332,-28.320,-25.391,-36.621,-24.414,-83.008
1692045258.335,-20.996,-20.508,-35.645,-25.391,98.145
1692045258.339,-25.391,-22.949,-32.715,-29.297,319.824
1692045258.343,-36.133,-28.320,-30.762,-39.062,-46.875
1692045258.347,-33.203,-27.344,-28.809,-30.762,-223.145
1692045258.351,-30.273,-28.320,-24.414,-24.414,40.039
1692045258.352,-28.320,-32.227,-19.531,-27.344,51.270
1692045258.356,-29.297,-29.785,-24.414,-31.738,-128.906
1692045258.360,-41.016,-31.738,-28.320,-40.039,-155.762
1692045258.364,-44.922,-35.156,-29.297,-47.852,-88.379
1692045258.368,-32.715,-33.203,-30.273,-43.457,28.320
1692045258.372,-31.250,-36.133,-30.762,-34.180,3.906
1692045258.376,-28.320,-34.180,-28.320,-29.785,-58.594
1692045258.379,-27.832,-31.250,-28.320,-26.367,274.414
1692045258.383,-40.039,-32.227,-30.762,-27.832,414.062
1692045258.387,-27.832,-24.414,-27.344,-19.531,3.906
1692045258.391,-14.648,-24.902,-28.320,-6.836,-166.016
1692045258.395,-14.160,-30.273,-28.320,-8.301,-112.793
1692045258.398,-20.020,-26.367,-29.297,-13.672,-207.031
1692045258.402,-27.832,-31.738,-25.391,-14.160,-249.023
1692045258.406,-22.461,-29.785,-22.461,-1.953,-153.809
1692045258.410,-16.602,-25.391,-25.391,1.953,-119.141
1692045258.414,-17.578,-24.414,-22.949,-7.812,-145.020
1692045258.418,-20.020,-24.902,-28.809,-25.879,-129.883
1692045258.422,-22.461,-23.438,-30.762,-34.180,73.242
1692045258.425,-28.320,-19.043,-27.344,-20.508,274.902
1692045258.429,-32.227,-18.555,-27.832,-13.672,-53.711
1692045258.433,-34.180,-24.414,-25.391,-17.578,-127.441
1692045258.437,-40.527,-35.645,-20.508,-20.020,72.754
1692045258.441,-36.621,-35.156,-19.531,-25.391,-55.176
1692045258.441,-27.832,-27.832,-30.273,-33.691,-212.891
1692045258.445,-23.438,-30.273,-37.109,-38.086,-180.176
1692045258.449,-30.762,-30.273,-40.039,-42.480,-70.312
1692045258.453,-32.715,-25.879,-40.527,-43.457,-77.148
1692045258.457,-27.344,-25.879,-33.203,-41.992,-144.043
1692045258.461,-26.855,-28.809,-31.250,-44.922,-105.957
1692045258.465,-23.438,-29.785,-31.738,-28.809,321.289
1692045258.468,-18.555,-28.320,-28.320,-18.555,426.758
1692045258.472,-20.020,-27.344,-30.273,-30.762,-88.867
1692045258.476,-26.367,-25.879,-35.156,-41.504,-251.465
1692045258.480,-18.066,-19.043,-32.715,-43.457,-176.758
1692045258.484,-17.090,-21.484,-32.227,-30.762,-108.887
1692045258.489,-24.414,-23.438,-34.668,-32.227,-100.098
1692045258.493,-23.438,-19.043,-35.645,-41.504,-86.914
1692045258.497,-29.785,-21.484,-36.621,-44.922,32.227
1692045258.501,-34.668,-23.438,-37.109,-36.133,-82.031
1692045258.505,-25.879,-26.855,-34.668,-32.715,-152.832
1692045258.509,-39.062,-29.297,-34.668,-32.227,79.102
1692045258.513,-43.945,-25.391,-36.133,-20.508,121.094
1692045258.516,-30.273,-26.367,-31.738,-15.137,-135.254
1692045258.520,-22.461,-26.855,-31.738,-22.949,-278.320
1692045258.524,-18.066,-27.344,-34.668,-30.762,-104.492
1692045258.528,-21.484,-26.367,-32.227,-32.715,20.996
1692045258.532,-24.414,-24.414,-30.762,-32.227,-156.250
1692045258.546,-26.367,-25.391,-28.320,-45.410,-176.270
1692045258.550,-49.805,-20.508,-12.207,-72.266,-83.008
1692045258.554,-39.551,-24.414,-28.809,-50.781,-107.910
1692045258.558,-29.297,-31.250,-30.762,-11.719,-45.410
1692045258.562,-53.711,-34.668,-17.578,-0.488,27.832
1692045258.566,-49.805,-33.203,-21.973,-29.297,291.016
1692045258.570,-40.039,-30.273,-24.902,-46.875,513.672
1692045258.573,-42.969,-27.832,-39.062,-52.246,79.102
1692045258.577,-55.664,-30.762,-42.480,-67.383,-167.480
1692045258.581,-42.480,-31.250,-48.828,-50.781,-55.664
1692045258.585,-19.531,-32.227,-45.898,-52.246,-167.969
1692045258.589,-28.809,-29.785,-36.133,-54.688,-224.121
1692045258.592,-44.922,-29.785,-30.273,-36.133,-165.039
1692045258.596,-59.082,-28.809,-24.902,-26.367,-115.234
1692045258.600,-33.203,-35.645,-29.297,-15.137,-129.395
1692045258.604,-15.625,-37.598,-28.809,-37.109,-129.883
1692045258.608,-0.488,-18.066,-34.668,-28.809,-76.172
1692045258.612,32.227,-14.160,-33.691,28.809,-20.996
1692045258.616,14.648,-31.738,-10.254,15.625,96.680
1692045258.619,-27.344,-35.156,-8.301,-21.973,92.285
1692045258.623,-21.973,-26.367,-18.555,-23.438,77.148
1692045258.627,-4.883,-25.391,-21.973,-12.207,285.645
1692045258.631,-16.113,-30.762,-16.602,-8.301,-7.812
1692045258.635,-21.973,-37.598,-6.836,-15.625,-191.895
1692045258.636,-10.742,-35.645,-28.809,-19.043,-68.359
1692045258.640,-21.484,-35.645,-35.156,-39.062,-130.859
1692045258.644,-39.062,-42.480,-27.344,-48.828,-256.348
1692045258.648,-41.504,-40.527,-25.391,-28.809,-179.688
1692045258.652,-32.715,-33.691,-25.879,-14.648,113.281
1692045258.656,-24.414,-30.762,-32.227,-24.414,78.613
1692045258.660,-37.109,-33.203,-31.738,-18.066,-11.230
1692045258.663,-27.832,-28.809,-24.902,-13.672,-61.523
1692045258.667,-6.836,-25.879,-20.020,-15.625,185.059
1692045258.671,-5.859,-31.738,-17.578,-10.742,274.414
1692045258.675,-1.465,-32.227,-23.926,-9.277,-126.953
1692045258.679,-1.465,-30.273,-31.250,-17.090,-200.684
1692045258.683,-7.812,-26.367,-25.879,-21.973,-142.090
1692045258.687,-4.883,-26.367,-20.020,-16.602,-194.336
1692045258.691,-7.324,-31.738,-23.926,-1.465,-182.129
1692045258.695,-16.113,-36.133,-27.344,10.254,-35.156
1692045258.699,-17.578,-36.133,-29.297,0.488,37.598
1692045258.703,-19.043,-33.691,-30.273,-10.742,-3.906
1692045258.707,-21.484,-31.738,-29.785,-13.672,-89.355
1692045258.710,-14.648,-32.715,-31.738,-16.113,21.484
1692045258.714,-12.207,-28.809,-27.832,-10.254,258.301
1692045258.718,-19.531,-29.785,-24.414,-17.578,-52.246
1692045258.722,-23.926,-38.574,-28.320,-30.273,-190.918
1692045258.726,-32.715,-37.109,-34.668,-29.297,2.441
1692045258.726,-41.504,-32.715,-30.273,-18.066,-27.832
1692045258.730,-34.180,-31.738,-22.461,-8.301,-142.090
1692045258.734,-27.344,-29.297,-37.109,-8.789,-112.305
1692045258.738,-30.273,-25.879,-32.715,-20.020,-33.203
1692045258.742,-32.227,-23.438,-25.391,-22.949,-37.109
1692045258.746,-32.227,-24.902,-30.273,-16.113,-23.926
1692045258.750,-26.367,-26.855,-26.855,-17.090,30.273
1692045258.753,-26.367,-32.715,-28.809,-14.160,256.348
1692045258.757,-32.227,-34.668,-31.250,-5.371,300.781
1692045258.761,-33.203,-26.367,-20.996,-11.230,-129.883
1692045258.765,-37.598,-18.555,-20.508,-13.184,-224.609
1692045258.769,-24.902,-29.785,-13.672,-14.160,-143.555
1692045258.774,-22.949,-11.230,6.348,-13.672,-115.723
1692045258.778,-17.090,26.367,29.785,-0.488,-92.773
1692045258.782,-22.461,3.418,-1.465,-13.672,-149.414
1692045258.786,-47.852,-40.527,-49.805,-36.133,-86.914
1692045258.790,-39.062,-44.434,-51.270,-17.090,-91.309
1692045258.794,-30.273,-41.992,-54.688,-7.812,-96.680
1692045258.798,-41.504,-50.781,-53.711,-25.391,143.555
1692045258.801,-41.504,-47.852,-41.992,-41.504,305.176
1692045258.805,-35.645,-42.969,-37.109,-44.922,-72.754
1692045258.809,-20.020,-33.203,-31.738,-21.484,-227.051
1692045258.813,-15.137,-23.926,-27.344,-15.625,-132.812
1692045258.817,-24.902,-24.902,-25.391,-27.832,-166.504
1692045258.817,-27.832,-32.227,-24.414,-45.898,-225.586
1692045258.821,-26.367,-27.344,-41.016,-46.387,-169.922
1692045258.825,-19.043,-20.508,-41.016,-29.785,11.719
1692045258.829,-20.508,-25.391,-31.250,-16.602,79.590
1692045258.833,-19.043,-20.020,-36.133,-24.414,8.301
1692045258.837,-11.230,-12.207,-37.598,-41.992,0.488
1692045258.841,-21.484,-17.090,-28.320,-36.133,334.473
1692045258.844,-24.414,-18.555,-31.250,-22.461,503.418
1692045258.848,-25.391,-14.648,-33.203,-32.715,33.691
1692045258.852,-28.320,-10.254,-28.809,-40.527,-161.133
1692045258.856,-28.320,-11.230,-30.273,-42.969,-91.797
1692045258.860,-33.203,-16.602,-25.879,-42.969,-234.375
1692045258.863,-30.273,-13.672,-31.738,-20.508,-237.793
1692045258.867,-25.879,-8.789,-34.668,-11.230,-142.578
1692045258.871,-24.902,-9.766,-31.738,-12.695,-110.352
1692045258.875,-34.668,-9.766,-31.250,-19.043,-142.090
1692045258.879,-32.227,-13.672,-29.297,-25.879,-166.992
1692045258.883,-22.949,-21.484,-31.738,-20.020,-20.020
1692045258.887,-28.809,-26.367,-29.785,-11.719,78.613
1692045258.890,-31.738,-28.809,-26.367,-12.695,57.617
1692045258.894,-31.738,-29.297,-29.785,-37.598,-37.109
1692045258.898,-36.621,-26.855,-34.668,-42.969,76.172
1692045258.902,-34.180,-28.320,-34.180,-27.344,325.684
1692045258.906,-30.762,-30.762,-33.203,-30.762,-1.953
1692045258.921,-33.203,-32.715,-36.621,-38.086,-118.164
1692045258.925,-41.992,-32.715,-35.645,-42.480,-32.715
1692045258.929,-45.898,-34.180,-28.809,-52.246,-92.773
1692045258.933,-39.551,-34.180,-30.273,-42.969,-104.980
1692045258.937,-14.648,-23.438,-41.504,-29.297,-52.246
1692045258.941,3.906,-18.555,-44.434,-12.207,339.355
1692045258.945,-23.438,-35.645,-27.832,-26.855,334.961
1692045258.948,-66.895,-40.527,-22.461,-67.871,-160.156
1692045258.952,-70.801,-40.527,-29.297,-62.988,-52.246
1692045258.956,-46.387,-45.898,-34.668,-38.086,233.887
1692045258.960,-45.410,-40.527,-31.738,-38.574,20.996
1692045258.964,-61.035,-39.551,-31.250,-51.758,-235.840
1692045258.967,-63.477,-43.945,-32.227,-56.152,-236.816
1692045258.971,-58.105,-44.922,-30.762,-47.852,-193.848
1692045258.975,-49.805,-34.668,-36.621,-43.945,-197.754
1692045258.979,-37.598,-30.762,-35.645,-42.480,-172.363
1692045258.983,-42.480,-36.133,-36.133,-43.945,-118.652
1692045258.987,-44.922,-38.086,-38.086,-56.641,-66.895
1692045258.991,-38.086,-39.062,-33.691,-51.270,15.625
1692045258.994,-27.832,-39.551,-31.738,-33.203,-49.805
1692045258.998,-23.926,-36.621,-30.762,-35.156,7.324
1692045259.002,-34.180,-38.086,-34.180,-44.434,221.191
1692045259.006,-37.598,-41.016,-37.109,-51.758,-21.973
1692045259.010,-37.109,-37.598,-40.039,-41.016,-176.758
1692045259.011,-35.156,-34.668,-44.922,-26.367,-18.066
1692045259.015,-27.344,-34.180,-34.668,-23.926,-17.090
1692045259.019,-30.273,-30.762,-23.926,-32.715,-179.199
1692045259.023,-44.434,-28.809,-18.555,-35.645,-132.324
1692045259.027,-47.852,-35.156,-24.902,-36.621,101.562
1692045259.031,-43.457,-39.062,-35.156,-34.668,43.457
1692045259.035,-41.992,-38.086,-30.762,-34.180,-25.391
1692045259.038,-36.621,-40.039,-24.414,-38.574,-68.359
