timestamps,TP9,AF7,AF8,TP10,Right AUX
1690202413.178,34.180,-37.109,-41.504,76.172,-113.281
1690202413.182,43.457,-41.992,-31.738,196.777,89.355
1690202413.186,-32.715,-33.203,-29.785,32.227,-121.094
1690202413.190,-95.703,-22.949,-33.691,-196.289,-303.711
1690202413.194,-74.219,-14.648,-30.273,-197.754,-247.070
1690202413.198,15.625,-16.602,-33.203,34.668,5.859
1690202413.202,55.176,-21.484,-34.668,174.316,114.746
1690202413.205,-15.137,-12.695,-33.203,44.922,-96.680
1690202413.209,-91.797,-23.438,-34.180,-180.664,-168.457
1690202413.213,-80.078,-37.109,-35.156,-217.773,114.746
1690202413.217,-11.230,-29.785,-37.109,-15.137,-10.742
1690202413.221,22.461,-30.762,-25.391,156.738,-161.133
1690202413.223,-25.879,-40.527,-19.043,72.754,-69.336
1690202413.227,-98.145,-45.898,-23.926,-165.039,-58.105
1690202413.231,-103.027,-38.086,-28.809,-242.188,-169.922
1690202413.235,-24.414,-35.156,-36.621,-41.504,-163.574
1690202413.239,25.879,-32.715,-31.738,160.156,116.211
1690202413.243,-24.414,-27.832,-32.715,90.820,156.738
1690202413.247,-102.539,-31.250,-40.527,-150.391,-55.664
1690202413.250,-102.051,-33.691,-50.781,-256.836,-157.715
1690202413.254,-23.926,-36.133,-46.875,-74.707,113.770
1690202413.258,41.504,-34.668,-28.320,158.691,396.973
1690202413.262,14.160,-20.020,-22.461,123.535,14.648
1690202413.266,-80.566,-16.113,-27.832,-112.793,-196.289
1690202413.268,-100.098,-32.715,-25.879,-234.863,-12.695
1690202413.272,-28.320,-38.574,-27.344,-100.098,-78.613
1690202413.276,30.273,-28.320,-33.203,120.605,-152.832
1690202413.280,16.113,-18.555,-31.738,136.230,25.879
1690202413.284,-70.801,-20.020,-27.344,-80.078,19.531
1690202413.288,-123.535,-30.273,-31.250,-238.770,-48.340
1690202413.292,-60.059,-25.391,-33.203,-128.418,-45.410
1690202413.295,35.156,-14.648,-36.133,118.652,11.230
1690202413.299,31.250,-22.949,-32.227,186.523,322.266
1690202413.303,-48.828,-27.344,-25.879,-23.438,58.105
1690202413.307,-99.609,-19.531,-27.832,-221.191,-321.777
1690202413.311,-53.711,-25.391,-30.273,-147.949,-241.699
1690202413.313,25.391,-34.668,-26.855,92.285,-95.703
1690202413.317,25.391,-31.250,-25.879,176.758,-119.629
1690202413.321,-57.129,-22.949,-33.691,-19.531,-168.457
1690202413.325,-107.910,-22.949,-36.621,-229.004,-138.184
1690202413.329,-58.105,-24.414,-30.762,-177.734,-123.047
1690202413.333,28.320,-25.391,-26.855,62.988,-17.578
1690202413.337,46.387,-24.902,-27.832,177.246,29.297
1690202413.340,-28.320,-20.020,-23.926,31.738,273.926
1690202413.344,-95.703,-20.508,-22.461,-180.176,342.285
1690202413.348,-66.406,-21.973,-27.344,-182.129,-45.898
1690202413.352,26.367,-23.926,-29.297,40.527,-132.812
1690202413.356,53.223,-23.438,-23.926,186.035,175.781
1690202413.358,-19.043,-21.973,-21.484,49.316,36.621
1690202413.362,-98.633,-31.738,-28.809,-183.594,-206.543
1690202413.366,-90.332,-39.062,-30.762,-206.543,-163.086
1690202413.370,1.465,-41.992,-29.297,8.789,-115.723
1690202413.374,40.527,-34.668,-28.809,182.129,-69.336
1690202413.378,-28.809,-27.344,-32.227,89.844,-15.137
1690202413.382,-105.957,-22.461,-38.086,-154.785,-23.438
1690202413.385,-99.609,-17.090,-34.180,-225.586,110.352
1690202413.389,-8.301,-24.902,-33.203,-31.250,57.129
1690202413.393,37.598,-26.367,-33.203,160.156,-86.426
1690202413.397,-7.324,-27.344,-31.250,104.004,-66.895
1690202413.401,-71.289,-34.180,-31.738,-133.789,-74.219
1690202413.403,-96.680,-26.367,-33.203,-247.070,-179.688
1690202413.407,-31.250,-15.625,-33.203,-77.148,-166.504
1690202413.411,45.410,-12.695,-30.273,145.508,-18.066
1690202413.415,18.555,-12.207,-29.785,121.582,0.977
1690202413.419,-68.848,-16.602,-29.297,-111.328,-135.254
1690202413.423,-90.332,-31.738,-30.273,-247.070,-173.828
1690202413.427,-19.043,-37.109,-38.574,-91.309,66.406
1690202413.430,46.387,-31.738,-37.598,145.020,240.234
1690202413.434,19.043,-23.926,-34.668,142.090,-14.160
1690202413.438,-62.012,-32.227,-36.133,-83.008,-134.766
1690202413.442,-99.609,-39.062,-40.527,-232.422,49.805
1690202413.446,-43.945,-23.438,-41.992,-107.910,67.383
1690202413.448,33.691,-15.625,-39.551,128.418,-69.336
1690202413.452,20.020,-25.391,-37.109,166.016,-21.484
1690202413.456,-63.477,-37.598,-35.156,-47.363,78.613
1690202413.460,-90.332,-37.598,-37.598,-238.281,-124.512
1690202413.464,-51.758,-32.227,-34.668,-151.367,-244.629
1690202413.468,7.324,-24.902,-30.273,104.004,-6.348
1690202413.472,16.602,-21.484,-33.691,178.711,251.465
1690202413.475,-56.152,-25.391,-33.203,-23.438,51.758
1690202413.479,-104.004,-17.090,-34.668,-221.680,-240.234
1690202413.483,-59.082,-20.020,-37.598,-171.875,-201.660
1690202413.487,24.902,-27.832,-29.297,73.730,-7.812
1690202413.491,46.387,-28.320,-28.320,190.430,-13.184
1690202413.494,-21.973,-29.297,-32.227,25.391,-83.496
1690202413.498,-94.727,-22.949,-27.832,-189.941,-0.977
1690202413.502,-77.148,-20.508,-23.926,-193.848,-32.227
1690202413.506,16.602,-49.316,-27.344,41.504,-67.871
1690202413.510,69.336,-45.898,-29.297,216.309,-4.883
1690202413.514,-23.926,-16.602,-22.461,47.363,109.863
1690202413.518,-139.648,-10.254,-24.902,-220.215,107.910
1690202413.521,-126.465,-9.766,-25.391,-243.164,-143.066
1690202413.525,-43.945,-10.742,-17.578,-38.086,-160.156
1690202413.529,-17.090,-21.973,-18.555,122.559,348.633
1690202413.533,-95.215,-48.340,-21.973,0.000,344.238
1690202413.537,-185.059,-45.410,-26.855,-261.719,-195.312
1690202413.553,-184.570,-27.344,-30.762,-325.684,-267.578
1690202413.557,-116.699,-38.086,-33.691,-140.625,-110.840
1690202413.561,-80.078,-49.316,-28.809,39.551,-29.785
1690202413.565,-126.465,-48.828,-29.297,-21.484,-80.566
1690202413.569,-210.449,-48.340,-37.109,-249.512,-65.430
1690202413.573,-214.844,-33.203,-37.109,-337.402,136.719
1690202413.577,-111.328,-22.461,-35.645,-146.973,66.895
1690202413.580,-28.809,-31.250,-40.039,70.801,-126.465
1690202413.584,-53.711,-50.293,-38.574,46.387,-50.781
1690202413.588,-120.117,-43.945,-36.621,-165.527,102.539
1690202413.592,-142.090,-27.344,-39.062,-292.480,-167.480
1690202413.596,-65.918,-33.691,-36.133,-132.324,-274.902
1690202413.598,15.625,-38.086,-36.133,107.422,-94.727
1690202413.602,-9.277,-39.551,-32.227,114.746,-67.871
1690202413.606,-74.707,-46.875,-30.273,-93.262,-152.344
1690202413.610,-96.680,-46.875,-34.668,-234.375,-170.898
1690202413.614,-36.621,-37.109,-33.203,-115.234,-37.598
1690202413.618,34.668,-25.879,-35.645,121.094,117.188
1690202413.622,20.996,-28.320,-35.645,161.133,141.602
1690202413.625,-59.570,-43.945,-29.297,-45.410,-25.391
1690202413.629,-94.238,-47.363,-30.273,-219.727,121.094
1690202413.633,-35.645,-34.668,-33.203,-130.859,544.434
1690202413.637,41.504,-15.137,-25.391,104.492,215.820
1690202413.641,36.133,-13.672,-25.879,171.875,-174.316
1690202413.643,-41.504,-17.090,-31.738,-15.137,-136.719
1690202413.647,-84.473,-29.785,-31.738,-208.984,-241.211
1690202413.651,-40.039,-48.828,-30.762,-151.855,-335.449
1690202413.655,36.133,-40.527,-31.250,81.055,-182.129
1690202413.659,40.527,-29.297,-33.691,180.664,-26.855
1690202413.663,-35.156,-15.137,-35.156,18.066,-31.250
1690202413.667,-87.891,-27.344,-39.062,-204.102,-154.785
1690202413.670,-43.945,-66.895,-33.691,-185.547,-152.832
1690202413.674,24.902,-63.965,-31.250,59.570,243.652
1690202413.678,38.086,-30.762,-34.668,183.105,226.562
1690202413.682,-30.762,-14.648,-32.715,39.062,-114.258
1690202413.686,-95.215,-10.254,-38.574,-176.758,-156.738
1690202413.688,-75.684,-13.672,-41.016,-199.707,-91.797
1690202413.692,-2.930,-15.625,-31.250,9.277,-51.758
1690202413.696,27.832,-13.672,-27.344,168.457,-74.707
1690202413.700,-31.738,-11.230,-31.250,63.965,-37.109
1690202413.704,-97.168,-14.160,-33.203,-167.480,-118.652
1690202413.708,-67.383,-19.043,-30.273,-208.008,-113.770
1690202413.712,10.254,-17.090,-27.344,-16.113,45.410
1690202413.715,50.293,-22.461,-27.832,163.574,224.609
1690202413.719,-5.371,-30.762,-27.832,91.309,229.004
1690202413.723,-90.332,-35.645,-27.832,-153.809,-77.148
1690202413.727,-93.262,-30.273,-29.785,-243.652,-237.305
1690202413.731,-19.043,-23.438,-27.344,-55.664,70.312
1690202413.733,33.691,-21.484,-26.367,157.715,83.984
1690202413.737,2.930,-23.438,-32.227,121.582,-153.320
1690202413.741,-73.242,-26.367,-34.180,-104.980,-152.344
1690202413.745,-89.844,-37.598,-31.250,-221.191,-164.062
1690202413.749,-25.879,-45.898,-32.227,-84.473,-204.590
1690202413.753,34.180,-35.156,-33.691,134.766,-112.305
1690202413.757,2.930,-35.156,-33.691,143.066,63.477
1690202413.760,-68.848,-33.691,-34.668,-76.660,264.648
1690202413.764,-89.355,-22.461,-28.320,-236.816,44.922
1690202413.768,-30.762,-18.555,-27.344,-117.188,-197.754
1690202413.772,54.688,-24.414,-24.414,130.859,-48.340
1690202413.776,50.293,-20.020,-23.438,177.734,51.758
1690202413.779,-39.551,-13.672,-26.855,-29.785,-92.285
1690202413.783,-109.863,-29.785,-28.320,-217.285,-233.887
1690202413.787,-63.965,-37.109,-28.320,-134.277,-94.238
1690202413.791,26.367,-25.391,-31.250,97.656,31.250
1690202413.795,23.926,-22.949,-34.180,167.969,-45.898
1690202413.799,-43.945,-29.297,-26.855,-6.836,-44.434
1690202413.803,-95.215,-37.598,-27.344,-205.078,148.926
1690202413.806,-64.941,-30.762,-29.785,-162.598,125.488
1690202413.810,14.160,-22.949,-33.203,67.871,-114.258
1690202413.814,21.484,-21.484,-40.039,178.223,18.066
1690202413.818,-45.898,-19.531,-40.527,16.113,170.410
1690202413.822,-96.680,-20.508,-32.715,-198.730,-87.891
1690202413.823,-59.570,-20.020,-28.809,-184.570,-267.578
1690202413.827,31.250,-24.902,-33.203,47.363,-128.418
1690202413.831,46.875,-34.668,-32.227,181.152,36.133
1690202413.835,-20.020,-38.574,-30.273,44.922,-37.109
1690202413.839,-81.055,-31.738,-32.227,-177.246,-170.898
1690202413.843,-66.895,-26.855,-33.203,-199.707,2.930
1690202413.847,8.301,-27.832,-25.879,28.809,395.508
1690202413.850,43.457,-25.879,-20.996,183.105,281.738
1690202413.854,-13.672,-30.762,-28.320,70.801,-84.473
1690202413.858,-85.449,-30.273,-26.367,-146.973,-139.160
1690202413.862,-68.359,-20.508,-23.438,-209.473,-197.754
1690202413.866,11.230,-14.648,-26.855,-18.066,-160.156
1690202413.886,45.898,-23.438,-27.832,172.363,-100.586
1690202413.890,-7.812,-33.691,-26.367,105.957,-69.336
1690202413.894,-95.215,-25.879,-24.902,-129.883,-125.000
1690202413.898,-100.098,-23.438,-23.438,-232.422,-244.141
1690202413.902,-16.602,-21.484,-26.367,-44.434,-157.715
1690202413.906,46.387,-28.320,-26.855,174.805,125.488
1690202413.910,4.883,-35.156,-25.391,119.629,108.398
1690202413.913,-81.055,-25.879,-26.367,-104.980,-43.457
1690202413.917,-84.473,-27.832,-32.715,-219.727,-98.145
1690202413.921,-6.836,-36.621,-37.598,-70.312,177.246
1690202413.925,50.781,-31.250,-34.180,155.762,563.965
1690202413.929,12.207,-12.695,-33.691,144.043,202.148
1690202413.928,-74.707,-5.371,-33.691,-89.844,-89.844
1690202413.932,-100.098,-16.602,-28.809,-238.281,-81.055
1690202413.936,-30.762,-25.879,-32.227,-116.211,-135.254
1690202413.940,46.387,-34.180,-34.180,113.770,-90.332
1690202413.944,26.855,-42.480,-31.738,146.973,26.855
1690202413.948,-52.734,-37.598,-28.809,-49.805,102.539
1690202413.952,-84.473,-21.973,-26.367,-215.820,-57.129
1690202413.955,-32.227,-12.695,-25.879,-140.625,-238.281
1690202413.959,42.480,-10.254,-23.926,97.656,-66.406
1690202413.963,32.227,-12.695,-20.996,185.547,438.965
1690202413.967,-53.223,-27.344,-22.461,-7.324,200.195
1690202413.971,-102.051,-33.203,-26.855,-218.750,-243.652
1690202413.973,-52.246,-22.949,-26.855,-165.527,-133.301
1690202413.977,35.156,-14.648,-25.391,76.172,-41.504
1690202413.981,28.809,-15.137,-25.879,160.156,-122.559
1690202413.985,-55.176,-25.879,-25.879,-16.602,-165.039
1690202413.989,-109.375,-34.668,-25.391,-218.750,-162.109
1690202413.993,-77.148,-36.621,-27.344,-202.148,-119.141
1690202413.997,2.930,-34.668,-25.879,24.414,12.695
1690202414.000,26.855,-31.738,-32.715,162.109,-30.273
1690202414.004,-42.969,-23.438,-34.180,40.527,154.785
1690202414.008,-114.258,-17.090,-22.949,-181.641,338.379
1690202414.012,-85.449,-22.461,-18.066,-216.797,-137.695
1690202414.016,-1.953,-36.621,-18.555,-0.977,-146.484
1690202414.018,32.227,-42.969,-18.555,165.527,234.863
1690202414.022,-14.648,-22.461,-12.695,61.523,11.719
1690202414.026,-96.191,-7.324,-18.555,-175.781,-247.559
1690202414.030,-95.215,-13.184,-22.461,-222.656,-186.523
1690202414.034,1.953,-22.461,-20.508,-4.883,-10.254
1690202414.038,54.688,-28.320,-20.508,171.875,41.992
1690202414.042,5.371,-29.297,-21.484,89.355,-23.926
1690202414.045,-90.332,-27.832,-21.484,-138.672,-66.895
1690202414.049,-102.539,-33.691,-20.020,-227.051,39.062
1690202414.053,-21.484,-24.902,-20.996,-50.781,-83.008
1690202414.057,36.133,-13.184,-21.973,156.738,-115.723
1690202414.061,1.953,-20.508,-20.020,119.629,-17.090
1690202414.079,-68.848,-47.852,-19.531,-106.934,-32.715
1690202414.083,-87.402,-49.316,-27.344,-224.609,-187.012
1690202414.087,-34.668,-21.973,-35.156,-79.590,-134.766
1690202414.091,30.273,-7.324,-33.691,140.625,85.938
1690202414.095,7.812,-10.742,-34.180,129.395,101.562
1690202414.099,-67.383,-14.160,-27.832,-93.750,11.230
1690202414.103,-92.285,-16.113,-23.438,-227.539,-96.191
1690202414.106,-24.414,-22.949,-25.391,-97.168,49.316
1690202414.110,38.086,-24.414,-27.832,125.000,159.668
1690202414.114,9.766,-24.902,-27.832,142.090,-75.684
1690202414.118,-73.242,-34.180,-28.809,-67.871,-233.398
1690202414.122,-112.305,-47.363,-31.738,-229.492,-77.148
1690202414.108,-52.734,-43.945,-33.203,-139.648,-81.055
1690202414.112,20.020,-24.902,-30.273,83.984,-116.699
1690202414.116,8.301,-11.719,-28.809,143.066,-74.707
1690202414.120,-64.941,-9.766,-29.297,-40.527,-140.625
1690202414.124,-104.004,-15.625,-32.227,-231.445,-195.312
1690202414.128,-47.363,-26.367,-32.715,-174.805,-157.227
1690202414.132,31.250,-39.062,-27.832,71.289,6.348
1690202414.135,31.738,-43.945,-27.832,170.410,91.309
1690202414.139,-43.945,-32.715,-32.715,-3.418,-108.398
1690202414.143,-102.539,-19.531,-38.086,-221.191,-291.992
1690202414.147,-70.801,-11.719,-27.832,-199.219,-187.012
1690202414.151,7.812,-13.672,-23.438,36.133,227.051
1690202414.153,26.367,-14.160,-24.414,155.273,58.594
1690202414.157,-40.527,-20.996,-24.902,19.043,-188.477
1690202414.161,-101.562,-26.855,-27.344,-191.406,-66.895
1690202414.165,-59.570,-28.320,-22.949,-197.754,-50.293
1690202414.169,20.020,-35.645,-24.902,9.277,-134.277
1690202414.173,43.945,-34.668,-27.344,165.039,-81.543
1690202414.177,-21.973,-35.156,-30.273,64.453,231.934
1690202414.180,-111.328,-37.598,-27.344,-170.410,248.047
1690202414.184,-89.844,-24.902,-28.320,-226.562,-181.641
1690202414.188,-1.465,-12.695,-34.668,-24.902,-162.109
1690202414.192,33.691,-27.832,-34.180,166.016,175.781
1690202414.196,-18.555,-50.781,-32.227,88.379,124.512
1690202414.198,-106.445,-37.598,-36.133,-159.180,-232.422
1690202414.202,-115.234,-17.090,-37.598,-246.582,-245.605
1690202414.206,-28.809,-8.789,-36.133,-56.641,-98.633
1690202414.210,41.016,-5.371,-32.227,163.086,-98.145
1690202414.214,3.418,-17.578,-25.391,116.211,-137.207
1690202414.218,-88.379,-23.926,-24.902,-114.258,-33.203
1690202414.222,-100.586,-15.625,-24.414,-225.098,114.746
1690202414.225,-17.578,-5.859,-24.414,-72.754,-74.219
1690202414.229,40.527,-2.441,-25.879,147.949,-212.402
1690202414.233,6.836,-13.672,-24.414,139.648,39.062
1690202414.237,-69.336,-25.879,-23.438,-75.684,232.422
1690202414.241,-91.797,-30.762,-26.855,-233.398,-157.715
1690202414.258,-25.391,-27.344,-28.320,-121.582,-281.738
1690202414.262,35.645,-27.832,-20.996,108.887,-58.105
1690202414.266,9.277,-31.250,-22.461,137.207,-18.555
1690202414.270,-76.660,-23.438,-23.926,-66.406,-118.652
1690202414.274,-117.676,-27.832,-20.508,-233.887,-178.711
1690202414.278,-54.688,-38.574,-26.367,-142.090,35.645
1690202414.282,24.414,-47.363,-28.809,95.703,163.086
1690202414.285,16.602,-45.898,-28.809,151.367,65.918
1690202414.289,-63.477,-31.738,-35.645,-49.316,25.391
1690202414.293,-109.863,-23.438,-38.086,-229.004,340.820
1690202414.297,-62.012,-23.438,-43.945,-165.527,414.551
1690202414.301,10.254,-24.902,-53.711,57.129,-7.324
1690202414.304,8.789,-25.391,-42.969,150.879,19.531
1690202414.308,-55.664,-25.879,-37.109,-12.695,122.070
1690202414.312,-104.980,-20.996,-34.180,-226.562,-126.953
1690202414.316,-69.824,-19.531,-27.344,-201.660,-214.844
1690202414.320,5.859,-18.066,-27.344,43.457,-59.082
1690202414.324,29.785,-17.578,-29.297,175.781,85.449
1690202414.328,-31.250,-26.855,-24.414,33.203,109.375
1690202414.331,-99.609,-40.527,-25.879,-185.059,-84.473
1690202414.335,-70.312,-32.227,-26.855,-205.566,-177.734
1690202414.339,2.930,-20.996,-26.367,10.254,222.168
1690202414.343,28.809,-35.645,-29.785,166.504,120.117
1690202414.347,-19.531,-48.828,-29.785,57.617,-153.809
1690202414.348,-101.074,-48.828,-32.715,-183.594,-185.059
1690202414.352,-90.332,-46.875,-30.762,-234.375,-197.266
1690202414.356,-3.906,-33.691,-31.738,-16.113,-82.520
1690202414.360,27.344,-14.648,-36.621,157.715,22.949
1690202414.364,-27.832,-4.395,-35.645,79.590,78.125
1690202414.368,-94.238,-8.789,-35.156,-145.508,0.000
1690202414.372,-83.496,-10.254,-30.273,-225.098,-115.234
1690202414.375,-10.254,-13.184,-29.297,-35.645,-154.785
1690202414.379,42.480,-26.855,-29.785,176.758,127.930
1690202414.383,8.789,-34.668,-25.391,130.859,504.395
1690202414.387,-68.359,-24.414,-23.926,-105.469,136.719
1690202414.391,-84.961,-26.367,-22.949,-226.074,-230.957
1690202414.393,-19.043,-34.668,-24.902,-62.500,-141.602
1690202414.397,50.293,-36.621,-24.902,161.621,-90.820
1690202414.401,20.020,-39.062,-22.461,140.137,-143.066
1690202414.405,-72.754,-37.109,-22.949,-76.660,-144.531
1690202414.409,-99.609,-26.367,-27.832,-218.750,-107.422
1690202414.413,-24.414,-23.926,-37.109,-93.262,-85.449
1690202414.417,52.734,-15.137,-35.645,132.324,9.766
1690202414.420,18.555,-11.719,-26.855,151.855,136.719
1690202414.424,-65.918,-23.926,-22.461,-51.758,346.680
1690202414.428,-97.656,-20.996,-23.926,-224.121,89.844
1690202414.432,-46.875,-18.555,-27.344,-136.719,-249.512
1690202414.436,43.457,-24.414,-26.367,101.562,-133.301
1690202414.438,48.340,-34.180,-21.973,169.434,-60.547
1690202414.442,-46.387,-36.621,-22.949,-27.832,-139.160
1690202414.446,-85.938,-23.926,-22.949,-203.613,-167.480
1690202414.450,-21.973,-8.789,-25.391,-117.188,-73.242
1690202414.454,35.156,-33.203,-26.855,79.102,-30.273
1690202414.458,3.906,-51.758,-31.250,125.488,20.020
1690202414.462,-69.336,-19.531,-36.133,-40.039,32.227
1690202414.465,-119.629,-0.488,-30.762,-235.352,153.320
1690202414.469,-101.074,-5.859,-33.203,-229.980,360.840
1690202414.473,-54.199,-10.742,-43.945,-26.855,123.047
1690202414.477,-43.457,-20.996,-46.875,98.145,-63.965
1690202414.481,-101.074,-27.344,-47.363,-40.039,56.152
1690202414.483,-164.062,-30.273,-49.316,-272.461,-85.449
1690202414.487,-130.859,-26.855,-52.246,-272.949,-290.039
1690202414.491,-31.738,-31.738,-47.852,-30.273,-211.426
1690202414.495,10.742,-61.523,-29.785,139.648,-52.734
1690202414.499,-46.875,-47.852,-30.762,27.344,-81.055
1690202414.503,-118.164,-26.367,-33.203,-207.031,-171.387
1690202414.507,-102.051,-28.320,-25.879,-241.699,-45.898
1690202414.510,-11.230,-21.973,-32.715,-26.367,255.371
1690202414.514,32.715,-11.719,-35.156,147.461,90.820
1690202414.518,-17.578,-9.277,-34.180,63.477,-163.574
1690202414.522,-93.750,-18.066,-34.668,-164.062,-125.977
1690202414.526,-100.098,-20.508,-25.391,-239.258,-143.066
1690202414.528,-8.789,-11.230,-24.902,-57.129,-154.297
1690202414.532,44.434,-9.766,-33.691,153.809,-5.371
1690202414.536,-4.395,-25.879,-34.668,103.516,31.738
1690202414.540,-77.148,-29.297,-28.320,-135.742,-42.969
1690202414.544,-87.891,-33.691,-22.949,-237.305,-188.477
1690202414.548,-16.113,-40.527,-30.762,-74.707,-166.992
1690202414.552,42.969,-24.414,-35.645,141.602,224.121
1690202414.555,5.371,-15.137,-33.691,126.465,295.898
1690202414.559,-78.125,-14.160,-31.250,-102.051,-134.277
1690202414.563,-92.285,-24.902,-31.738,-233.398,-175.293
1690202414.567,-22.949,-26.855,-35.645,-104.492,9.766
1690202414.571,44.922,-20.508,-28.809,123.535,-60.547
1690202414.574,18.066,-19.531,-23.438,140.137,-112.305
1690202414.578,-64.941,-20.508,-22.461,-76.660,-79.102
1690202414.582,-97.168,-32.715,-23.438,-234.863,140.625
1690202414.586,-45.898,-34.180,-22.461,-146.973,53.711
1690202414.590,27.832,-19.531,-23.926,85.938,-166.504
1690202414.594,4.395,-23.438,-22.461,157.715,80.078
1690202414.598,-82.031,-30.273,-20.020,-28.809,215.332
1690202414.601,-117.188,-17.090,-30.273,-234.863,-131.348
1690202414.605,-54.199,-16.602,-39.062,-184.082,-283.203
1690202414.609,24.902,-20.020,-33.203,64.941,-117.676
1690202414.613,34.668,-18.555,-30.762,164.551,43.945
1690202414.617,-40.039,-22.461,-32.227,-13.184,-77.148
1690202414.633,-100.586,-32.227,-31.738,-221.680,-227.539
1690202414.637,-54.199,-41.504,-26.367,-185.059,-201.172
1690202414.641,28.320,-48.340,-24.414,43.945,-104.492
1690202414.645,47.852,-44.434,-25.391,166.016,0.488
1690202414.649,-12.695,-22.949,-27.832,29.297,-81.543
1690202414.653,-92.285,-8.789,-31.738,-202.637,-35.645
1690202414.657,-89.355,-13.184,-35.156,-220.215,45.410
1690202414.660,-6.348,-13.672,-36.133,2.930,-129.395
1690202414.664,31.250,-15.625,-32.227,154.785,-158.691
1690202414.668,-33.203,-26.367,-29.785,50.781,159.180
1690202414.672,-99.609,-44.922,-28.320,-176.270,213.379
1690202414.676,-73.730,-55.664,-34.668,-226.562,-179.688
1690202414.678,1.953,-29.785,-38.574,-17.578,-158.203
1690202414.682,37.109,2.441,-35.645,155.762,-15.137
1690202414.686,-19.531,3.418,-36.133,71.289,-93.750
1690202414.690,-94.727,-1.465,-34.180,-168.457,-181.152
1690202414.694,-79.102,-15.625,-35.156,-213.867,-203.125
1690202414.698,-1.953,-24.414,-35.645,-12.207,-29.297
1690202414.702,48.340,-26.367,-29.785,166.504,123.047
1690202414.705,1.465,-33.203,-34.668,105.957,3.418
1690202414.709,-79.590,-41.504,-35.156,-125.977,-109.375
1690202414.713,-102.539,-32.227,-30.762,-234.863,145.020
1690202414.717,-24.414,-12.695,-30.273,-87.402,76.172
1690202414.721,54.199,-19.531,-23.438,132.324,-148.438
1690202414.723,6.836,-21.484,-17.090,124.512,-71.777
1690202414.727,-92.773,-7.812,-18.555,-90.332,-119.141
1690202414.731,-108.398,-7.324,-25.391,-235.352,-240.723
1690202414.735,-0.488,-28.809,-26.367,-105.957,-231.934
1690202414.739,73.730,-41.016,-26.855,142.578,-3.906
1690202414.743,30.273,-16.602,-25.879,156.250,134.277
1690202414.747,-52.246,-5.371,-29.785,-55.176,33.203
1690202414.750,-73.730,-11.719,-46.387,-220.703,-111.328
1690202414.754,-14.648,-3.906,-46.875,-122.559,176.758
1690202414.758,45.898,-10.742,-32.227,117.188,617.676
1690202414.762,27.832,-12.695,-25.391,178.711,237.793
1690202414.766,-62.988,-12.207,-21.484,-20.020,-153.809
1690202414.768,-101.074,-21.484,-21.973,-206.055,-183.594
1690202414.772,-33.691,-16.602,-28.809,-141.602,-251.953
1690202414.776,33.691,-19.531,-29.297,93.262,-224.121
1690202414.780,41.504,-22.461,-29.297,182.617,-110.352
1690202414.784,-16.113,-30.273,-41.016,-2.441,-90.332
1690202414.788,-85.938,-51.758,-39.551,-207.031,-141.113
1690202414.792,-63.477,-41.992,-31.738,-161.133,-100.586
1690202414.795,11.719,-10.254,-32.227,69.336,49.316
1690202414.799,52.734,-12.695,-30.273,184.570,318.359
1690202414.803,3.418,-21.484,-23.438,37.109,75.684
1690202414.807,-92.285,-19.043,-21.973,-180.664,-210.938
1690202414.811,-80.078,-7.812,-21.484,-187.988,-109.375
1690202414.813,4.883,-5.859,-21.973,36.133,-15.137
1690202414.817,31.250,-6.836,-22.949,198.730,5.859
1690202414.821,-18.066,-5.371,-25.879,72.754,-65.918
1690202414.825,-84.473,-25.879,-23.926,-159.180,-118.652
1690202414.829,-65.430,-23.438,-26.367,-194.824,-130.371
1690202414.833,20.508,-6.836,-27.344,20.508,-45.898
1690202414.837,48.340,-20.020,-26.855,183.594,-4.883
1690202414.840,-17.090,-32.227,-20.996,95.215,146.484
1690202414.844,-94.727,-22.949,-23.438,-130.859,178.711
1690202414.848,-85.449,-25.879,-35.645,-217.773,-107.910
1690202414.852,5.371,-48.340,-31.738,-21.484,-158.203
1690202414.856,82.031,-39.551,-21.484,193.848,111.328
1690202414.859,27.832,-21.484,-32.715,104.004,145.020
1690202414.863,-103.027,-27.832,-34.668,-154.297,-69.824
1690202414.867,-121.582,-36.621,-25.879,-250.977,-133.301
1690202414.871,-37.109,-35.156,-27.832,-93.262,-14.648
1690202414.875,23.438,-32.715,-18.066,139.648,5.859
1690202414.879,0.000,-38.086,-15.137,125.488,-42.480
1690202414.883,-80.566,-37.109,-26.367,-102.051,35.156
1690202414.886,-110.840,-43.457,-34.668,-239.258,210.449
1690202414.890,-48.828,-76.660,-22.949,-117.676,-48.340
1690202414.894,15.137,-66.406,-19.043,117.676,-199.219
1690202414.898,3.906,-33.203,-29.297,132.812,-65.918
1690202414.902,-69.336,-33.203,-32.715,-85.938,-71.777
1690202414.903,-104.004,-57.129,-27.832,-247.559,-218.262
1690202414.907,-41.016,-55.176,-30.273,-140.137,-216.797
1690202414.911,7.812,-21.973,-29.297,105.469,-77.148
1690202414.915,-16.602,-12.695,-28.320,165.039,42.969
1690202414.919,-75.195,-1.953,-33.691,-57.129,-8.789
1690202414.923,-105.469,4.395,-40.527,-247.559,-149.902
1690202414.927,-55.664,-13.672,-39.062,-164.062,82.031
1690202414.930,17.578,-40.039,-25.391,88.867,390.625
1690202414.934,11.230,-51.270,-25.391,181.641,96.191
1690202414.938,-74.219,-44.434,-36.133,-16.113,-59.570
1690202414.942,-145.508,-35.156,-41.016,-246.094,38.086
1690202414.946,-94.727,-24.414,-41.992,-232.910,-98.145
1690202414.963,-16.113,-2.930,-42.480,7.324,-187.500
1690202414.967,6.836,-5.859,-37.109,152.832,-21.973
1690202414.971,-27.344,-52.246,-25.391,19.043,11.230
1690202414.975,-111.816,-59.570,-24.414,-214.355,-200.195
1690202414.979,-109.863,-22.461,-34.180,-212.891,-302.246
1690202414.983,-8.301,-19.531,-43.945,15.137,-83.984
1690202414.987,0.000,-37.598,-34.668,142.578,134.766
1690202414.990,-52.734,-46.875,-28.320,49.316,128.418
1690202414.994,-92.773,-47.852,-32.227,-165.527,-86.426
1690202414.998,-64.941,-34.180,-33.203,-199.707,-190.918
1690202415.002,26.855,-24.414,-37.109,20.020,177.734
1690202415.006,45.898,-26.855,-38.574,162.109,75.195
1690202415.023,-5.859,-21.973,-31.250,69.824,-166.504
1690202415.027,-93.262,-25.879,-32.227,-141.113,-148.926
1690202415.031,-105.469,-32.715,-41.504,-226.074,-193.359
1690202415.035,-25.391,-36.133,-35.156,-47.852,-185.547
1690202415.039,25.879,-34.668,-28.320,172.852,-95.215
1690202415.043,8.301,-34.180,-25.879,112.793,133.789
1690202415.047,-91.309,-41.016,-27.344,-122.559,91.309
1690202415.050,-128.906,-41.992,-28.809,-222.656,-213.379
1690202415.054,-35.156,-30.762,-28.809,-56.152,-178.711
1690202415.058,37.109,-39.062,-29.785,159.180,316.406
1690202415.062,-9.277,-41.992,-23.926,141.113,603.516
1690202415.066,-103.027,-33.203,-21.973,-84.961,100.098
1690202415.053,-117.188,-27.344,-23.438,-233.398,-233.398
1690202415.057,-48.828,-15.137,-21.973,-99.609,-176.270
1690202415.061,19.531,-16.113,-25.879,136.230,-159.668
1690202415.065,-3.418,-32.227,-26.367,149.414,-161.133
1690202415.069,-79.590,-34.668,-27.344,-69.336,-165.527
1690202415.073,-102.539,-40.527,-27.832,-219.727,-64.941
1690202415.077,-46.875,-45.898,-26.367,-108.398,-89.844
1690202415.080,17.578,-38.086,-29.297,118.164,-105.469
1690202415.084,2.441,-35.156,-25.879,158.203,-50.781
1690202415.088,-64.453,-21.973,-24.902,-45.898,-45.898
1690202415.092,-83.984,-20.996,-30.273,-215.820,-138.672
1690202415.096,-28.809,-27.344,-30.762,-141.602,-179.199
1690202415.098,32.227,-14.160,-29.785,77.637,11.230
1690202415.102,37.109,-26.855,-27.832,180.176,368.164
1690202415.106,-33.203,-38.086,-28.809,6.348,117.676
1690202415.110,-83.984,-19.531,-34.180,-206.543,-235.352
1690202415.114,-61.523,-11.719,-37.109,-186.523,-158.691
1690202415.118,3.418,-15.625,-41.016,32.227,-12.207
1690202415.122,31.250,-19.531,-43.457,148.438,57.129
1690202415.125,-35.645,-26.855,-46.875,-11.719,-93.750
1690202415.129,-100.098,-17.578,-46.875,-231.934,27.344
1690202415.133,-72.266,-5.371,-44.922,-228.516,284.668
1690202415.137,11.719,-5.371,-37.598,-12.207,-45.410
1690202415.141,42.480,-11.719,-29.297,132.812,-137.695
1690202415.144,-34.180,-10.742,-34.180,-4.883,2.930
1690202415.148,-99.609,-12.695,-35.645,-230.957,-58.594
1690202415.152,-73.730,-24.414,-30.273,-251.465,-204.102
1690202415.156,8.301,-23.438,-29.785,-38.086,-159.668
1690202415.160,45.410,-20.508,-29.297,136.719,78.613
1690202415.164,-18.555,-19.531,-30.762,26.855,16.602
1690202415.168,-91.797,-17.578,-32.227,-198.730,-125.977
1690202415.171,-85.449,-14.160,-35.645,-259.277,-62.988
1690202415.175,-0.977,-17.578,-36.133,-71.289,222.656
1690202415.179,49.805,-31.250,-32.715,126.465,105.957
1690202415.183,-0.488,-36.621,-34.180,66.406,-133.789
1690202415.187,-83.008,-28.320,-34.668,-165.527,-148.438
1690202415.188,-93.262,-20.996,-31.738,-263.184,-142.090
1690202415.192,-3.418,-13.672,-30.273,-83.496,-175.293
1690202415.196,45.410,-13.184,-29.297,131.836,-129.395
1690202415.200,-3.418,-18.555,-31.738,101.562,33.691
1690202415.204,-75.195,-15.625,-30.273,-118.164,-0.977
1690202415.208,-89.844,-14.160,-24.902,-247.070,-58.105
1690202415.212,-21.973,-20.508,-28.809,-111.328,-20.508
1690202415.215,46.875,-24.414,-27.832,124.023,226.074
1690202415.219,20.996,-27.832,-22.461,140.137,510.742
1690202415.223,-69.824,-30.762,-31.250,-92.773,159.668
1690202415.227,-97.168,-31.250,-33.691,-258.301,-108.398
1690202415.231,-41.992,-33.691,-31.738,-138.184,70.312
1690202415.233,25.879,-26.367,-35.156,102.539,47.852
1690202415.237,17.578,-14.648,-34.180,140.625,-86.914
1690202415.241,-63.965,-15.625,-34.668,-64.941,-136.230
1690202415.245,-83.984,-17.090,-37.109,-237.305,-145.508
1690202415.249,-43.945,-19.043,-37.109,-156.738,-113.281
1690202415.253,16.602,-22.949,-38.574,80.078,42.480
1690202415.257,17.578,-22.461,-40.039,155.762,168.457
1690202415.260,-68.359,-24.414,-41.016,-29.785,420.410
1690202415.264,-125.000,-23.926,-41.016,-239.258,149.902
1690202415.268,-86.914,-21.973,-39.062,-206.055,-269.043
1690202415.272,7.812,-29.785,-33.691,38.574,-192.871
1690202415.276,25.391,-35.645,-30.273,155.762,-70.801
1690202415.278,-58.594,-22.949,-33.203,-12.695,-128.906
1690202415.282,-116.211,-13.672,-36.133,-232.910,-247.070
1690202415.286,-82.520,-17.090,-37.109,-212.891,-219.727
1690202415.290,12.207,-19.043,-39.062,20.508,-138.672
1690202415.294,51.758,-24.414,-38.574,157.227,-66.406
1690202415.298,-19.043,-19.043,-31.738,31.250,-32.227
1690202415.302,-90.332,-17.578,-25.879,-177.246,136.719
1690202415.305,-54.199,-25.879,-26.855,-193.848,180.664
1690202415.309,27.832,-30.273,-23.926,17.090,-74.707
1690202415.313,60.547,-21.973,-23.438,184.570,-4.395
1690202415.317,14.648,-17.578,-27.344,89.844,299.316
1690202415.321,-68.359,-23.926,-32.227,-151.367,148.926
1690202415.323,-70.801,-24.414,-34.668,-200.684,-165.527
1690202415.327,26.367,-28.809,-28.809,11.230,-158.203
1690202415.331,65.430,-33.691,-24.902,205.078,-56.152
1690202415.335,-2.930,-21.484,-24.902,140.625,-49.316
1690202415.339,-68.848,-14.648,-23.438,-95.215,-193.848
1690202415.343,-84.473,-27.832,-26.367,-194.824,-122.559
1690202415.347,-13.672,-29.785,-24.414,-20.508,286.133
1690202415.350,57.129,-20.996,-17.578,193.848,158.203
1690202415.354,11.230,-18.555,-20.996,149.902,-112.793
1690202415.358,-63.965,-15.137,-27.344,-94.238,-127.441
1690202415.362,-80.566,-16.602,-28.809,-221.680,-185.547
1690202415.366,-11.230,-32.227,-22.949,-69.824,-162.598
1690202415.369,55.176,-39.062,-20.020,158.691,-93.262
1690202415.373,15.625,-35.156,-24.414,155.762,7.812
1690202415.377,-80.078,-38.574,-30.762,-74.219,-31.738
1690202415.381,-111.328,-31.250,-31.738,-231.934,-269.531
1690202415.385,-35.156,-29.297,-32.227,-122.559,-227.539
1690202415.389,55.664,-27.344,-35.645,112.793,133.301
1690202415.393,41.992,-26.855,-32.227,161.621,137.207
1690202415.396,-54.688,-45.898,-26.367,-43.945,-106.445
1690202415.400,-101.562,-50.293,-30.762,-229.492,-191.895
1690202415.404,-43.457,-33.691,-38.574,-145.020,155.762
1690202415.408,24.414,-26.855,-31.738,89.844,379.395
1690202415.412,10.254,-22.949,-27.344,144.531,66.406
1690202415.428,-58.594,-20.508,-30.273,-51.758,-83.984
1690202415.432,-104.004,-20.020,-31.250,-245.605,-75.195
1690202415.436,-65.918,-27.344,-30.762,-189.941,-41.992
1690202415.440,32.227,-34.180,-28.320,47.363,-77.637
1690202415.444,42.480,-33.691,-27.344,149.414,-7.812
1690202415.448,-46.875,-35.645,-26.855,-3.418,306.152
1690202415.452,-101.562,-33.203,-23.926,-216.797,100.586
1690202415.455,-56.641,-38.574,-29.297,-203.613,-245.117
1690202415.459,19.043,-46.387,-32.715,19.043,-130.859
1690202415.463,31.738,-42.969,-31.738,160.645,127.441
1690202415.467,-36.621,-22.949,-30.273,27.344,-62.988
1690202415.471,-95.215,-9.277,-29.297,-203.613,-284.668
1690202415.473,-70.312,-25.391,-28.320,-224.121,-199.219
1690202415.477,4.883,-39.551,-21.484,-1.953,-99.121
1690202415.481,39.551,-39.551,-25.391,167.480,-64.453
1690202415.485,-25.879,-32.227,-32.715,54.199,-107.910
1690202415.489,-107.422,-25.391,-31.738,-183.105,-51.270
1690202415.493,-92.773,-14.160,-31.250,-240.234,21.484
1690202415.497,-10.742,-20.996,-32.715,-45.410,61.523
1690202415.500,42.969,-22.461,-29.785,136.719,15.625
1690202415.504,0.488,-18.066,-31.738,66.895,95.703
1690202415.508,-87.402,-33.203,-36.621,-152.344,396.484
1690202415.512,-84.473,-50.781,-33.203,-251.465,-1.953
1690202415.516,-8.301,-67.871,-28.809,-82.031,-257.324
1690202415.518,25.391,-40.527,-39.062,127.441,-10.742
1690202415.522,-29.297,-4.883,-41.016,81.055,-63.477
1690202415.526,-109.863,-4.395,-41.992,-154.297,-223.145
1690202415.530,-111.816,-9.277,-43.945,-274.414,-214.355
1690202415.534,-35.156,-18.555,-35.156,-119.629,-114.258
1690202415.538,30.273,-33.691,-31.250,96.191,31.250
1690202415.542,-12.695,-45.410,-23.926,84.961,100.098
1690202415.545,-95.215,-46.387,-22.949,-115.234,83.008
1690202415.549,-106.445,-31.738,-31.738,-263.184,248.535
1690202415.553,-26.855,-19.043,-38.086,-166.992,104.980
1690202415.557,47.852,-20.508,-32.227,63.477,-152.832
1690202415.561,9.766,-20.996,-30.273,112.305,-89.844
1690202415.563,-61.035,-23.926,-29.297,-83.496,-88.379
1690202415.567,-80.078,-33.203,-28.320,-259.277,-225.586
1690202415.571,-40.039,-40.527,-31.738,-177.246,-249.023
1690202415.575,32.715,-35.645,-25.879,72.266,-102.539
1690202415.579,12.695,-35.156,-20.508,151.367,-24.902
1690202415.583,-67.871,-26.367,-25.391,-37.598,-38.086
1690202415.587,-82.031,-15.625,-28.809,-242.188,-50.781
1690202415.590,-31.738,-23.438,-26.855,-191.406,120.117
1690202415.594,20.020,-23.926,-25.391,43.945,214.844
1690202415.598,25.879,-26.855,-25.879,136.230,30.273
1690202415.602,-48.340,-36.621,-26.855,-29.297,2.930
1690202415.606,-108.398,-31.738,-23.438,-229.492,114.258
1690202415.608,-61.523,-21.484,-22.461,-221.191,48.340
1690202415.612,13.672,-17.578,-29.297,-21.973,-125.488
1690202415.616,33.691,-25.879,-27.832,120.117,-127.441
1690202415.620,-26.367,-27.832,-24.414,-12.207,-99.609
1690202415.624,-99.609,-18.555,-26.855,-229.004,-126.465
1690202415.628,-82.031,-24.902,-22.949,-226.074,-183.594
1690202415.632,15.625,-43.457,-24.902,-22.949,-17.578
1690202415.635,58.594,-47.363,-20.508,144.043,330.078
1690202415.639,-12.695,-25.391,-20.508,26.367,95.703
1690202415.643,-104.004,-8.301,-23.926,-217.285,-243.652
1690202415.647,-109.375,-11.230,-28.809,-274.902,-231.934
1690202415.651,0.488,-21.973,-33.203,-79.102,-142.090
1690202415.653,59.570,-31.738,-25.391,125.977,-27.832
1690202415.657,-15.625,-10.742,-25.391,60.059,-87.891
1690202415.661,-98.633,-3.906,-25.391,-174.316,-85.449
1690202415.665,-104.004,-16.113,-22.461,-269.531,-61.035
1690202415.669,-21.973,-12.695,-27.344,-106.445,-126.953
1690202415.673,41.992,-15.137,-27.344,117.188,-32.227
1690202415.677,-10.742,-35.156,-21.484,104.492,288.086
1690202415.680,-88.867,-40.039,-20.020,-122.070,245.117
1690202415.684,-83.496,-22.949,-27.832,-258.789,-178.711
1690202415.688,-24.414,-20.508,-27.832,-137.695,-118.652
1690202415.692,30.762,-19.043,-22.461,101.074,208.008
1690202415.696,0.000,-10.742,-23.438,105.469,95.215
1690202415.699,-88.867,-11.719,-27.832,-113.281,-195.312
1690202415.703,-111.816,-21.973,-37.598,-266.113,-223.145
1690202415.707,-55.664,-29.785,-36.621,-153.809,-80.078
1690202415.711,7.812,-22.949,-25.879,96.680,-65.918
1690202415.715,11.719,-14.648,-22.949,115.234,-129.883
1690202415.719,-72.754,-21.973,-23.926,-102.539,-96.191
1690202415.723,-111.328,-30.762,-29.297,-267.578,226.074
1690202415.726,-53.711,-18.555,-32.227,-180.176,88.867
1690202415.730,24.902,-27.832,-27.344,51.758,-184.082
1690202415.734,20.020,-45.898,-31.250,122.559,-114.258
1690202415.738,-67.383,-33.203,-36.133,-64.941,-162.598
1690202415.742,-104.492,-20.508,-33.691,-264.648,-254.883
1690202415.743,-52.734,-24.902,-31.738,-200.195,-232.910
1690202415.747,1.953,-24.414,-32.227,35.645,-73.730
1690202415.751,-7.812,-22.461,-28.320,118.164,29.297
1690202415.755,-68.848,-23.438,-29.297,-36.621,-57.617
1690202415.759,-117.676,-27.344,-28.809,-229.492,-169.434
1690202415.763,-83.008,-41.504,-25.879,-196.777,52.246
1690202415.767,12.695,-47.363,-29.785,31.738,247.559
1690202415.770,33.691,-45.898,-26.367,154.785,81.055
1690202415.774,-50.293,-31.250,-27.832,1.465,-89.844
1690202415.778,-121.582,-25.391,-33.203,-201.660,91.797
1690202415.782,-70.801,-29.297,-35.645,-195.801,180.176
1690202415.786,16.602,-30.762,-33.203,13.184,-122.070
1690202415.803,32.227,-27.344,-34.668,168.945,-75.684
1690202415.807,-35.156,-20.996,-38.086,54.199,130.371
1690202415.811,-105.469,-26.367,-35.645,-201.172,-102.539
1690202415.815,-79.590,-32.715,-37.598,-235.352,-275.391
1690202415.819,12.695,-26.367,-41.992,-11.230,-139.648
1690202415.823,59.570,-20.020,-36.621,178.711,112.305
1690202415.827,-10.254,-20.508,-34.180,99.609,145.508
1690202415.830,-93.750,-21.973,-34.180,-159.668,-33.691
1690202415.834,-107.422,-23.926,-30.762,-266.602,-117.188
1690202415.838,-45.410,-31.738,-32.227,-66.895,-36.621
1690202415.842,32.227,-31.250,-33.203,148.926,41.504
1690202415.846,13.184,-20.996,-29.785,85.449,-66.895
1690202415.848,-87.891,-27.832,-29.297,-139.160,-46.387
1690202415.852,-107.910,-40.527,-30.762,-232.422,239.258
1690202415.856,-33.203,-19.531,-34.180,-91.309,-7.324
1690202415.860,28.320,-4.395,-33.691,125.488,-136.719
1690202415.864,8.301,-20.020,-23.926,132.324,35.156
1690202415.868,-77.637,-29.297,-20.996,-85.938,29.297
1690202415.872,-111.328,-20.020,-25.391,-232.910,-8.301
1690202415.875,-41.992,-22.461,-28.320,-122.070,-137.695
1690202415.879,15.625,-28.320,-29.297,122.559,97.656
1690202415.883,-8.301,-34.180,-24.902,170.898,374.023
1690202415.887,-70.801,-38.574,-23.926,-49.805,-76.660
1690202415.891,-102.051,-41.016,-27.832,-231.934,-345.703
1690202415.893,-57.129,-34.180,-30.762,-146.484,-99.609
1690202415.897,24.414,-15.137,-34.668,92.773,-86.914
1690202415.901,49.805,-9.277,-34.668,158.203,-275.879
1690202415.905,-40.039,-18.555,-30.273,-30.273,-216.797
1690202415.909,-104.004,-22.461,-26.855,-217.285,-188.965
1690202415.913,-66.895,-24.414,-24.414,-168.945,-112.305
1690202415.917,2.930,-29.297,-22.461,66.406,-56.152
1690202415.920,37.109,-25.879,-27.344,168.945,33.691
1690202415.924,-40.039,-32.227,-27.832,7.812,338.867
1690202415.928,-121.582,-38.086,-27.344,-228.516,41.504
1690202415.932,-75.684,-25.879,-28.809,-217.773,-293.457
1690202415.936,12.207,-22.949,-25.879,40.039,-131.348
1690202415.938,25.391,-26.367,-15.137,185.059,-14.648
1690202415.942,-31.738,-29.297,-17.090,35.645,-110.352
1690202415.946,-119.141,-21.973,-24.414,-213.379,-212.402
1690202415.950,-129.883,-18.066,-26.367,-223.145,-126.953
1690202415.954,-29.297,-28.320,-30.762,20.996,-40.039
1690202415.958,0.488,-38.086,-31.738,173.828,13.672
1690202415.962,-75.684,-35.156,-29.297,56.641,46.387
1690202415.965,-147.949,-29.785,-37.109,-175.781,60.547
1690202415.969,-152.832,-33.691,-36.621,-233.398,105.469
1690202415.973,-65.430,-28.809,-31.250,-31.738,-17.578
1690202415.977,-20.996,-24.414,-32.715,154.297,-49.316
1690202415.981,-73.730,-21.484,-31.738,76.660,128.418
1690202415.984,-122.559,-21.484,-34.180,-166.992,2.441
1690202415.988,-125.977,-29.785,-36.133,-255.371,-296.875
1690202415.992,-60.059,-36.133,-31.738,-48.340,-211.426
1690202415.996,12.207,-37.598,-30.762,166.504,-1.465
1690202416.000,-20.996,-39.551,-27.344,123.535,-64.453
1690202416.004,-88.379,-43.457,-22.461,-107.910,-131.836
1690202416.008,-113.770,-46.387,-20.508,-230.469,-32.715
1690202416.011,-52.246,-39.062,-21.484,-65.918,331.055
1690202416.015,-0.488,-19.043,-20.996,153.320,210.938
1690202416.019,-24.902,-1.465,-28.809,105.469,-144.531
1690202416.023,-89.355,-14.648,-31.250,-125.000,-186.035
1690202416.027,-119.141,-25.879,-32.227,-260.254,-208.008
1690202416.028,-54.199,-26.367,-29.785,-135.254,-232.910
1690202416.032,19.531,-27.344,-26.367,93.262,-164.062
1690202416.036,-3.906,-20.996,-27.344,122.070,-96.191
1690202416.040,-99.609,-28.809,-31.250,-103.027,-121.582
1690202416.044,-133.789,-31.738,-32.227,-276.855,-167.480
1690202416.048,-75.195,-36.621,-23.926,-169.434,-112.305
1690202416.052,-1.953,-41.504,-22.461,74.219,216.797
1690202416.055,10.742,-29.785,-31.250,135.254,471.191
1690202416.059,-68.848,-22.461,-34.668,-73.242,35.156
1690202416.063,-109.375,-27.344,-28.809,-264.160,-172.363
1690202416.067,-45.898,-30.762,-20.020,-199.219,55.664
1690202416.071,24.902,-26.855,-19.531,33.203,53.223
1690202416.088,19.043,-27.344,-29.785,134.277,-126.465
1690202416.092,-61.035,-30.273,-36.621,-43.457,-89.355
1690202416.096,-140.137,-26.855,-32.227,-273.438,-102.051
1690202416.100,-115.234,-22.461,-34.180,-246.094,-192.383
1690202416.104,-2.441,-28.320,-38.086,4.883,-177.734
1690202416.108,45.898,-31.738,-36.133,121.094,-11.230
1690202416.112,-31.738,-31.738,-35.156,-21.484,333.008
1690202416.115,-111.328,-32.227,-32.227,-270.508,54.688
1690202416.119,-116.211,-28.809,-29.785,-297.852,-287.109
1690202416.123,-29.297,-16.602,-37.598,-47.852,-116.211
1690202416.127,15.625,-24.902,-39.062,113.281,135.254
1690202416.131,-74.707,-39.551,-32.715,7.812,-41.504
1690202416.133,-136.230,-35.645,-34.180,-205.078,-232.910
1690202416.137,-63.477,-16.113,-45.410,-268.555,-190.918
1690202416.141,29.297,-17.578,-38.086,-29.297,-66.406
1690202416.145,34.180,-31.738,-24.902,204.590,-3.418
1690202416.149,-16.602,-35.156,-32.227,95.215,-73.242
1690202416.153,-83.008,-37.109,-36.621,-145.020,27.832
1690202416.157,-96.680,-38.086,-32.715,-225.098,132.324
1690202416.160,-22.461,-40.527,-32.715,-40.527,-20.996
1690202416.164,20.508,-41.016,-29.785,187.500,-62.988
1690202416.168,-52.734,-39.551,-21.973,163.086,304.199
1690202416.172,-89.844,-36.133,-29.297,-74.707,509.766
1690202416.176,-68.359,-30.273,-41.504,-216.797,29.297
1690202416.178,-19.531,-29.785,-38.086,-54.199,-186.523
1690202416.182,36.621,-33.203,-33.691,179.688,-20.508
1690202416.186,3.418,-35.645,-25.391,163.086,-68.848
1690202416.190,-84.961,-41.992,-17.090,-47.852,-225.098
1690202416.194,-99.609,-36.621,-25.391,-191.406,-287.598
1690202416.198,-30.762,-30.762,-34.180,-47.363,-91.309
1690202416.202,93.262,-28.809,-26.367,191.895,77.148
1690202416.205,81.543,-17.090,-25.879,207.520,-46.875
1690202416.209,-59.570,-15.625,-31.250,-27.832,-90.332
1690202416.213,-91.309,-19.531,-30.273,-187.500,178.223
1690202416.217,-28.809,-21.484,-27.832,-96.680,2.930
1690202416.221,41.016,-21.973,-29.785,128.418,-174.316
1690202416.223,57.129,-25.391,-29.785,207.031,51.270
1690202416.227,-38.086,-29.785,-28.809,21.973,87.402
1690202416.231,-112.793,-29.297,-36.133,-186.523,-185.059
1690202416.235,-75.195,-22.461,-31.738,-143.555,-239.746
1690202416.239,10.254,-19.531,-29.297,99.609,-21.484
1690202416.243,54.199,-24.902,-34.180,208.496,94.727
1690202416.247,-42.480,-29.297,-33.203,20.020,48.340
1690202416.250,-131.348,-27.344,-30.762,-192.871,-122.559
1690202416.254,-87.402,-20.996,-26.855,-140.625,28.809
1690202416.258,39.551,-32.715,-22.461,101.562,438.477
1690202416.262,75.684,-41.504,-25.879,197.754,128.906
1690202416.266,-1.953,-29.297,-30.273,36.621,-120.117
1690202416.268,-85.938,-29.785,-28.809,-176.758,85.938
1690202416.272,-93.750,-31.250,-27.344,-189.453,-8.789
1690202416.276,-28.809,-21.973,-33.691,23.926,-210.938
1690202416.280,12.695,-27.832,-33.203,174.316,4.395
1690202416.284,-15.137,-28.320,-31.250,66.895,121.094
1690202416.288,-92.773,-35.156,-37.109,-196.777,-59.570
1690202416.292,-79.590,-39.551,-25.879,-231.934,-245.117
1690202416.295,8.301,-38.086,-19.531,4.883,-129.883
1690202416.299,51.270,-33.691,-34.180,171.875,262.207
1690202416.303,-28.809,-41.504,-34.668,109.863,81.543
1690202416.307,-110.352,-40.039,-35.156,-142.090,-217.285
1690202416.311,-74.707,-12.207,-46.387,-244.629,-201.172
1690202416.313,8.301,-14.160,-37.598,-39.551,-111.328
1690202416.317,40.039,-29.297,-29.297,172.852,-48.828
1690202416.321,0.488,-28.809,-34.180,126.465,-63.965
1690202416.325,-115.723,-30.273,-38.086,-126.953,-119.141
1690202416.329,-103.516,-28.809,-33.203,-223.633,-210.938
1690202416.333,28.809,-28.320,-33.203,-38.574,-82.520
1690202416.337,51.758,-26.855,-31.738,158.691,75.195
1690202416.340,-8.789,-26.855,-26.367,139.648,241.211
1690202416.344,-85.449,-26.855,-31.738,-59.082,362.793
1690202416.348,-98.633,-28.809,-33.203,-198.730,-43.945
1690202416.352,-21.484,-28.320,-27.344,-68.359,-201.172
1690202416.356,49.805,-20.996,-26.855,169.922,113.281
1690202416.358,30.273,-22.461,-26.367,205.078,74.707
1690202416.362,-67.383,-26.855,-23.438,-17.090,-203.125
1690202416.366,-98.145,-27.344,-32.715,-187.500,-279.297
1690202416.370,-45.898,-33.691,-41.504,-89.355,-177.246
1690202416.374,0.488,-31.738,-34.668,109.863,-79.102
1690202416.378,14.648,-26.367,-30.273,173.828,13.672
1690202416.382,-24.414,-22.949,-37.598,26.367,52.246
1690202416.385,-57.129,-18.066,-35.645,-132.324,194.824
1690202416.389,-50.781,-23.926,-36.133,-91.797,138.184
1690202416.393,6.348,-22.949,-40.039,92.285,-129.883
1690202416.397,53.711,-23.438,-36.133,186.035,-37.598
1690202416.401,-9.766,-27.344,-30.762,25.391,-3.906
1690202416.403,-83.984,-24.414,-32.227,-195.312,-231.445
1690202416.407,-59.082,-20.020,-39.062,-167.969,-231.445
1690202416.411,20.996,-21.973,-39.062,77.637,-52.246
1690202416.415,37.598,-25.879,-32.715,200.195,11.719
1690202416.419,-23.438,-20.508,-25.879,68.848,-43.945
1690202416.423,-75.195,-21.973,-23.438,-189.453,-91.797
1690202416.427,-90.332,-32.227,-17.090,-217.285,95.703
1690202416.430,-18.555,-34.180,-12.207,36.621,321.777
1690202416.434,8.301,-30.762,-19.043,176.758,36.621
1690202416.438,-57.129,-41.016,-7.812,22.461,-82.520
1690202416.442,-101.562,-39.551,-15.625,-167.480,203.613
1690202416.446,-76.660,-23.926,-36.621,-175.781,153.320
1690202416.448,-1.465,-19.043,-25.391,7.812,-170.410
1690202416.452,46.387,-34.668,-20.508,169.922,-133.301
1690202416.456,-0.488,-38.574,-28.320,93.750,-41.016
1690202416.460,-90.820,-37.598,-25.391,-142.578,-93.262
1690202416.464,-105.957,-33.203,-32.715,-250.000,-252.930
1690202416.468,-6.836,-29.785,-39.062,-71.777,-71.777
1690202416.472,50.293,-34.180,-31.738,130.371,387.695
1690202416.475,-15.137,-41.504,-25.879,73.242,113.281
1690202416.479,-90.332,-36.133,-25.879,-168.457,-233.887
1690202416.483,-87.891,-27.344,-24.902,-288.574,-208.984
1690202416.487,-17.578,-25.391,-26.367,-118.164,-139.648
1690202416.491,44.922,-21.484,-32.227,100.586,-97.168
1690202416.494,12.695,-20.996,-30.273,52.734,-131.836
1690202416.498,-103.516,-21.973,-29.297,-171.875,-107.422
1690202416.502,-111.328,-23.438,-25.391,-308.594,-89.844
1690202416.506,-44.922,-41.504,-22.461,-173.340,-205.566
1690202416.510,-8.789,-48.340,-27.344,62.012,-152.832
1690202416.514,11.230,-34.668,-35.156,76.660,47.852
1690202416.518,-33.203,-30.762,-37.598,-158.203,44.434
1690202416.521,-94.727,-26.367,-30.762,-328.125,-110.352
1690202416.525,-48.828,-12.207,-36.621,-188.477,-199.707
1690202416.529,19.531,-11.719,-37.109,57.129,184.082
1690202416.533,20.020,-18.555,-29.297,103.027,477.051
1690202416.537,-36.621,-19.043,-27.832,-100.586,-20.996
1690202416.553,-115.234,-18.555,-33.691,-292.969,-238.281
1690202416.557,-71.289,-23.438,-34.180,-226.562,-90.820
1690202416.561,30.273,-30.273,-32.715,16.602,-86.426
1690202416.565,22.949,-31.738,-33.203,106.934,-44.434
1690202416.569,-45.410,-28.809,-40.039,-60.059,2.441
1690202416.573,-101.562,-34.180,-41.016,-286.621,227.539
1690202416.577,-79.102,-31.250,-37.109,-279.297,97.168
1690202416.580,21.973,-20.996,-46.387,-2.441,-183.594
1690202416.584,47.852,-25.879,-40.527,119.629,-66.406
1690202416.588,-35.645,-37.109,-30.762,-40.039,125.977
1690202416.592,-130.859,-33.691,-27.832,-268.066,-106.445
1690202416.596,-82.031,-19.531,-34.668,-293.457,-301.758
1690202416.598,14.160,-16.602,-33.203,-48.340,-133.301
1690202416.602,25.391,-15.137,-29.297,113.770,-0.488
1690202416.606,-17.090,-14.160,-32.227,-18.066,-75.195
1690202416.610,-117.676,-25.879,-26.367,-276.367,-185.547
1690202416.614,-98.633,-20.508,-35.156,-333.008,-133.301
1690202416.618,19.531,-17.578,-45.898,-82.031,10.742
1690202416.622,38.574,-26.367,-38.086,104.004,33.203
1690202416.625,-4.395,-38.086,-23.438,4.395,-12.695
1690202416.629,-75.684,-44.434,-16.113,-216.309,72.754
1690202416.633,-88.379,-34.668,-22.949,-291.504,437.012
1690202416.637,-18.066,-16.602,-33.203,-109.375,182.129
1690202416.641,40.039,-15.137,-30.762,97.168,-123.047
1690202416.643,24.414,-31.250,-20.508,72.754,-14.648
1690202416.647,-51.270,-28.809,-20.020,-166.016,-112.305
1690202416.651,-85.449,-18.555,-28.320,-311.035,-221.191
1690202416.655,-25.879,-7.324,-36.133,-171.387,-151.855
1690202416.659,18.066,0.000,-30.762,65.430,-6.836
1690202416.663,-43.945,-10.254,-20.020,62.988,61.035
1690202416.667,-84.961,-23.438,-33.203,-135.742,6.348
1690202416.670,-67.383,-22.949,-39.062,-274.902,-92.285
1690202416.674,-27.344,-21.484,-28.320,-148.438,264.160
1690202416.678,41.504,-23.438,-21.484,89.355,278.809
1690202416.682,17.578,-15.625,-21.973,84.961,-71.289
1690202416.686,-72.754,-11.230,-29.297,-156.738,-112.305
1690202416.688,-91.309,-12.695,-36.621,-300.781,-182.617
1690202416.692,-23.438,-22.949,-29.785,-195.801,-208.496
1690202416.696,30.273,-27.344,-29.297,39.062,-116.699
1690202416.700,36.133,-27.832,-33.691,98.145,-22.949
1690202416.704,-25.391,-40.039,-32.715,-104.492,-73.242
1690202416.708,-85.449,-36.621,-37.598,-297.363,-143.555
1690202416.712,-34.180,-26.367,-40.527,-227.539,-79.102
1690202416.715,45.898,-30.273,-34.180,15.137,138.184
1690202416.719,41.016,-25.879,-33.203,92.285,339.355
1690202416.723,-49.805,-22.461,-38.574,-104.980,28.320
1690202416.727,-86.426,-27.832,-38.086,-320.801,-290.039
1690202416.731,-35.156,-31.250,-37.109,-266.602,-17.090
1690202416.733,37.598,-32.715,-29.785,-25.879,115.723
1690202416.737,46.875,-27.832,-32.715,85.938,-83.008
1690202416.741,-31.250,-26.367,-39.062,-79.102,-122.559
1690202416.745,-78.125,-18.555,-30.273,-294.434,-132.812
1690202416.749,-52.246,-3.906,-22.949,-289.062,-218.262
1690202416.753,17.090,-5.859,-23.926,-66.895,-183.594
1690202416.757,43.457,-10.254,-22.461,72.266,62.500
1690202416.760,-19.531,-11.719,-19.531,-54.688,332.520
1690202416.764,-75.684,-20.020,-19.531,-294.922,46.875
1690202416.768,-68.359,-21.973,-25.391,-353.027,-213.379
1690202416.772,17.090,-17.578,-31.738,-137.695,-104.980
1690202416.776,57.617,-20.996,-32.227,22.461,-25.879
1690202416.793,-32.715,-25.391,-26.367,-110.840,-90.820
1690202416.797,-91.309,-26.367,-28.809,-333.008,-118.164
1690202416.801,-57.129,-39.551,-36.621,-385.254,-75.195
1690202416.805,10.254,-36.621,-32.227,-188.965,-35.156
1690202416.809,45.410,-19.531,-24.414,-21.484,-63.477
1690202416.813,-24.902,-11.719,-22.461,-115.234,-98.633
1690202416.817,-99.121,-23.438,-28.809,-319.824,130.371
1690202416.820,-82.031,-30.273,-32.227,-406.738,201.172
1690202416.824,-10.742,-34.668,-26.367,-242.188,-92.285
1690202416.828,32.227,-23.926,-29.297,-32.715,16.113
1690202416.832,-6.348,-18.555,-34.180,-60.547,194.336
1690202416.836,-70.801,-41.992,-28.809,-285.645,-6.348
1690202416.823,-102.539,-41.504,-26.855,-431.152,-259.277
1690202416.827,-38.086,-28.320,-26.855,-296.387,-204.102
1690202416.831,36.133,-23.926,-26.855,-36.621,-51.758
1690202416.835,-4.883,-14.160,-31.738,-25.391,-38.574
1690202416.839,-72.754,-19.043,-37.109,-248.047,-124.023
1690202416.843,-100.586,-37.109,-21.484,-408.203,-45.898
1690202416.847,-45.410,-39.062,-21.484,-301.758,121.094
1690202416.850,41.992,-31.738,-37.598,-27.832,0.488
1690202416.854,36.133,-34.180,-31.250,17.578,-139.160
1690202416.858,-64.453,-38.086,-9.766,-216.309,-123.535
1690202416.862,-110.352,-18.066,-10.742,-396.484,99.121
1690202416.866,-41.016,-10.254,-29.297,-310.547,-78.613
1690202416.868,40.039,-26.367,-18.066,-70.801,-217.285
1690202416.872,20.508,-24.414,-14.160,11.230,-69.824
1690202416.876,-57.129,-25.879,-20.996,-161.621,-106.934
1690202416.880,-80.566,-24.902,-39.551,-316.406,-220.703
1690202416.884,-38.574,-32.715,-33.203,-255.859,-251.465
1690202416.888,31.250,-31.250,-42.969,10.254,15.625
1690202416.892,32.227,-24.414,-41.992,104.004,221.191
1690202416.895,-16.113,-39.551,-31.250,-53.711,105.469
1690202416.899,-76.660,-26.855,-29.785,-280.762,-159.180
1690202416.903,-82.520,-13.672,-11.719,-330.078,-4.883
1690202416.907,-18.555,-19.531,-1.953,-156.250,384.766
1690202416.911,27.344,-20.508,-47.852,-2.441,116.211
1690202416.928,-19.531,-21.484,-44.922,-128.418,-122.559
1690202416.932,-122.070,-21.484,-32.715,-404.785,-166.016
1690202416.936,-93.262,-15.625,-55.176,-422.363,-258.301
1690202416.940,26.367,2.930,-59.082,-199.707,-219.238
1690202416.944,26.855,-9.766,-31.250,-57.129,-80.078
1690202416.948,-42.480,-42.969,-21.973,-162.109,58.594
1690202416.952,-70.801,-34.668,-55.176,-385.254,-75.195
1690202416.955,-99.121,-18.066,-53.711,-464.355,-275.879
1690202416.959,-25.391,-22.461,-38.086,-306.152,-142.578
1690202416.963,46.387,-17.578,-54.688,-83.984,370.605
1690202416.967,3.418,-17.090,-53.711,-146.973,199.219
1690202416.971,-77.637,-16.602,-46.387,-427.246,-191.406
1690202416.973,-99.609,-18.555,-31.250,-561.523,-174.316
1690202416.977,-10.254,-20.996,-43.457,-395.996,-75.195
1690202416.981,49.805,-27.344,-50.293,-183.105,-15.137
1690202416.985,-7.324,-27.832,-43.457,-244.141,-50.781
1690202416.989,-89.844,-29.297,-44.922,-505.371,-57.129
1690202416.993,-93.262,-32.715,-36.621,-639.648,-16.602
1690202416.997,-12.207,-33.691,-47.363,-456.543,-31.738
1690202417.000,55.176,-30.762,-43.945,-218.750,-114.258
1690202417.004,11.230,-12.695,-28.809,-215.820,158.691
1690202417.008,-96.191,-1.465,-22.461,-451.660,488.281
1690202417.012,-115.234,-7.812,-32.227,-582.031,-30.762
1690202417.016,-22.949,-41.016,-24.902,-413.086,-207.031
1690202417.033,47.363,-55.664,-27.832,-121.094,195.801
1690202417.037,21.484,-25.391,-40.039,-54.199,118.652
1690202417.041,-38.574,-10.254,-36.621,-237.793,-150.879
1690202417.045,-64.941,-8.301,-27.344,-354.492,-216.797
1690202417.049,-35.645,-8.789,-31.738,-248.535,-181.641
1690202417.053,15.137,-20.020,-23.926,6.836,-56.152
1690202417.057,25.879,-23.926,-28.809,134.277,32.227
1690202417.060,-47.363,-27.344,-32.227,-30.762,-9.766
1690202417.064,-97.168,-33.203,-23.438,-214.844,164.062
1690202417.068,-31.738,-41.504,-33.203,-121.094,17.090
1690202417.072,38.574,-59.570,-25.879,139.648,-135.254
1690202417.076,38.574,-49.316,-23.926,269.531,-12.695
1690202417.064,-29.785,-40.527,-14.160,107.422,-33.691
1690202417.068,-78.125,-42.480,-19.531,-122.559,-104.492
1690202417.072,-43.457,-20.020,-32.715,-80.566,-126.953
1690202417.076,30.273,-10.254,-13.184,147.949,-24.414
1690202417.080,52.246,-7.324,-14.160,307.129,52.246
1690202417.084,-30.273,-8.789,-19.531,202.637,-16.602
1690202417.088,-94.727,-30.273,-2.441,-66.895,-36.621
1690202417.091,-51.270,-36.621,-20.996,-62.988,-50.781
1690202417.095,29.785,-27.832,-31.738,202.148,-48.828
1690202417.099,52.734,-22.949,-19.043,341.797,14.160
1690202417.103,-12.207,-18.066,-22.949,233.398,-57.617
1690202417.107,-98.145,-32.715,-19.043,5.371,81.055
1690202417.108,-83.496,-46.387,-17.090,-53.223,306.641
1690202417.112,20.508,-34.180,-31.738,156.738,-52.734
1690202417.116,67.383,-29.785,-30.762,347.656,-145.020
1690202417.120,20.996,-45.410,-33.691,278.809,-30.273
1690202417.124,-63.965,-41.016,-30.762,26.855,-108.398
1690202417.128,-82.520,-19.043,-23.926,-90.820,-85.938
1690202417.132,-4.395,-11.719,-31.738,94.238,22.949
1690202417.135,57.129,-12.695,-42.969,341.797,304.688
1690202417.139,19.043,-16.113,-38.086,312.012,206.543
1690202417.143,-57.617,-16.113,-31.738,34.180,-223.633
1690202417.147,-73.730,-26.367,-32.227,-114.746,-275.879
1690202417.151,-7.324,-32.227,-21.484,55.176,-179.688
1690202417.153,55.176,-32.227,-14.160,290.039,-111.816
1690202417.157,31.250,-33.691,-27.344,289.062,-71.289
1690202417.161,-65.918,-30.273,-25.879,46.875,-80.078
1690202417.165,-107.910,-23.438,-27.344,-111.328,-144.531
1690202417.169,-40.527,-21.973,-35.156,21.484,-165.039
1690202417.173,41.504,-22.461,-31.738,279.297,-36.133
1690202417.177,25.391,-24.414,-27.344,325.684,253.418
1690202417.180,-61.035,-35.156,-31.738,97.656,359.375
1690202417.184,-98.633,-36.133,-32.227,-85.938,-104.004
1690202417.188,-47.363,-27.832,-31.738,3.906,-214.355
1690202417.192,32.227,-25.391,-34.180,249.512,166.016
1690202417.196,29.297,-26.855,-35.645,318.848,215.820
1690202417.198,-52.734,-25.879,-33.691,113.281,-129.395
1690202417.202,-101.562,-36.621,-36.621,-72.754,-254.395
1690202417.206,-57.617,-39.551,-36.621,-1.953,-169.922
1690202417.210,27.832,-32.715,-28.809,233.398,-120.605
1690202417.214,31.738,-27.832,-28.809,328.613,-126.465
1690202417.218,-29.785,-35.645,-35.156,163.086,64.453
1690202417.222,-91.797,-44.922,-36.621,-45.898,323.242
1690202417.225,-81.543,-38.574,-37.598,-35.645,24.902
1690202417.229,2.930,-26.367,-31.738,194.336,-174.316
1690202417.233,43.457,-20.020,-36.133,345.703,67.871
1690202417.237,-12.695,-19.043,-41.016,199.219,134.277
1690202417.241,-101.562,-19.043,-38.086,-39.551,-145.020
1690202417.243,-76.172,-31.738,-36.621,-52.734,-232.910
1690202417.247,22.461,-39.062,-39.062,173.828,-81.543
1690202417.251,58.105,-31.250,-40.527,342.285,-18.066
1690202417.255,-5.371,-24.414,-24.902,209.961,-98.633
1690202417.259,-83.008,-16.113,-26.367,-29.297,-146.484
1690202417.263,-73.242,-18.066,-41.504,-54.199,18.066
1690202417.267,0.488,-24.414,-32.715,169.922,127.441
1690202417.270,44.922,-27.344,-27.832,355.469,50.293
1690202417.274,0.488,-31.250,-30.273,266.113,-36.133
1690202417.278,-86.426,-31.738,-36.133,15.625,163.086
1690202417.282,-95.703,-34.668,-36.133,-78.125,178.711
1690202417.286,-4.395,-34.180,-38.086,120.605,-120.117
1690202417.303,43.457,-31.738,-37.598,336.426,-30.273
1690202417.307,-21.484,-24.902,-30.762,271.484,83.496
1690202417.311,-98.145,-20.020,-30.273,21.484,-131.348
1690202417.315,-104.004,-20.508,-33.203,-104.004,-302.734
1690202417.319,-34.668,-23.438,-34.180,60.059,-173.828
1690202417.323,31.250,-25.391,-30.762,302.734,99.121
1690202417.327,0.488,-28.809,-29.297,295.410,65.918
1690202417.330,-81.055,-28.320,-28.809,55.176,-173.828
1690202417.334,-104.492,-25.879,-27.344,-99.121,-168.945
1690202417.338,-44.922,-28.809,-23.926,43.457,104.980
1690202417.342,29.785,-31.738,-23.438,277.832,3.906
1690202417.346,19.531,-33.203,-21.973,300.781,-117.188
1690202417.349,-79.102,-34.668,-19.043,88.379,-104.980
1690202417.353,-118.164,-24.902,-20.996,-99.121,-168.457
1690202417.357,-57.129,-29.297,-19.043,-2.441,-156.738
1690202417.361,23.926,-40.039,-18.066,253.418,-75.684
1690202417.365,15.625,-40.039,-21.484,315.430,120.605
1690202417.369,-64.453,-37.109,-15.137,110.352,207.520
1690202417.373,-112.305,-33.691,-16.113,-96.191,21.973
1690202417.376,-75.195,-30.762,-21.484,-44.434,-187.012
1690202417.380,6.348,-25.391,-25.391,204.590,86.426
1690202417.384,20.996,-23.438,-26.855,316.895,564.453
1690202417.388,-54.199,-21.973,-25.391,128.906,76.660
1690202417.392,-105.469,-26.855,-24.902,-105.957,-305.664
1690202417.393,-61.035,-38.086,-24.902,-80.566,-155.273
1690202417.397,17.578,-27.832,-28.320,163.086,-102.051
1690202417.401,35.156,-11.230,-31.250,298.340,-116.699
1690202417.405,-28.809,-9.766,-27.344,152.832,-119.629
1690202417.409,-94.238,-16.602,-27.344,-82.031,-41.992
1690202417.413,-72.266,-25.879,-33.691,-105.469,-22.949
1690202417.417,14.160,-29.785,-30.762,124.512,-10.742
1690202417.420,44.922,-28.809,-28.320,295.898,86.426
1690202417.424,-18.555,-29.297,-24.902,176.270,309.082
1690202417.428,-87.891,-27.344,-23.438,-83.008,104.004
1690202417.432,-70.801,-29.297,-23.438,-134.766,-273.926
1690202417.436,19.531,-24.902,-19.043,85.938,-168.945
1690202417.438,56.641,-11.719,-20.020,257.324,-30.762
1690202417.442,-5.371,-12.695,-26.855,163.086,-69.824
1690202417.446,-86.426,-12.207,-27.344,-76.660,-185.547
1690202417.450,-79.590,-6.348,-25.391,-164.062,-155.762
1690202417.454,1.953,-21.484,-27.344,19.531,-81.543
1690202417.458,51.758,-33.203,-26.367,229.004,39.062
1690202417.462,11.719,-23.926,-28.320,179.199,77.148
1690202417.465,-71.289,-20.508,-34.668,-70.801,88.867
1690202417.469,-104.980,-25.879,-33.203,-195.312,296.875
1690202417.473,-37.598,-30.273,-34.180,-39.062,66.895
1690202417.477,28.809,-26.367,-35.645,184.082,-126.953
1690202417.481,-5.859,-29.785,-28.809,175.781,116.699
1690202417.483,-71.289,-33.203,-25.879,-35.645,0.488
1690202417.487,-93.750,-23.926,-33.691,-198.730,-243.164
1690202417.491,-48.340,-16.602,-39.062,-101.562,-172.852
1690202417.495,23.926,-15.137,-39.062,144.531,-35.645
1690202417.499,14.160,-9.766,-37.598,176.270,-64.453
1690202417.503,-68.359,-10.742,-39.062,-51.270,-145.020
1690202417.507,-106.445,-18.066,-41.992,-234.375,-39.062
1690202417.510,-44.922,-21.484,-43.457,-134.766,217.773
1690202417.514,41.016,-23.438,-47.363,116.699,84.473
1690202417.518,39.551,-14.648,-53.223,173.340,-105.957
1690202417.522,-55.176,-1.465,-52.246,-21.973,-62.012
1690202417.526,-99.121,-1.953,-45.898,-216.309,-92.285
1690202417.528,-42.969,-5.859,-46.875,-159.668,-249.512
1690202417.532,39.551,-2.930,-44.434,103.027,-216.797
1690202417.536,55.664,-5.371,-41.016,209.961,-24.414
1690202417.540,-28.809,-11.719,-38.086,23.438,-51.270
1690202417.544,-91.797,-15.137,-39.551,-195.312,-180.664
1690202417.548,-50.293,-18.555,-41.016,-163.086,-161.133
1690202417.552,30.762,-20.996,-38.086,88.867,133.789
1690202417.555,49.805,-24.414,-34.668,223.145,294.434
1690202417.559,-19.531,-32.715,-36.133,65.918,-37.109
1690202417.563,-84.961,-36.133,-36.133,-167.480,-128.418
1690202417.567,-61.035,-18.555,-33.691,-180.176,-8.789
1690202417.571,18.066,-9.277,-39.062,44.922,10.742
1690202417.574,50.781,-8.789,-40.527,211.426,-1.465
1690202417.578,-10.254,-10.254,-32.715,89.355,-17.578
1690202417.582,-83.496,-20.020,-31.738,-152.832,-5.859
1690202417.586,-68.848,-31.738,-34.668,-198.730,-129.883
1690202417.590,5.371,-35.156,-32.227,18.555,-266.113
1690202417.594,46.387,-20.996,-33.203,213.379,-45.410
1690202417.598,-10.742,-12.695,-38.574,120.117,359.863
1690202417.601,-94.727,-9.766,-37.598,-142.090,55.664
1690202417.605,-83.008,-10.254,-34.180,-231.445,-271.484
1690202417.609,-4.883,-16.113,-34.668,-35.645,-169.434
1690202417.613,38.574,-22.949,-28.320,180.664,-56.152
1690202417.617,8.789,-20.508,-23.438,135.254,-56.152
1690202417.633,-72.266,-23.438,-29.785,-112.305,-132.812
1690202417.637,-102.051,-29.785,-35.645,-237.793,-192.383
1690202417.641,-26.855,-32.715,-32.715,-58.105,-48.828
1690202417.645,42.969,-35.645,-27.344,184.570,105.469
1690202417.649,2.441,-41.992,-25.391,164.551,-30.273
1690202417.653,-81.055,-38.086,-27.832,-64.941,80.566
1690202417.657,-99.609,-20.020,-27.832,-206.055,282.227
1690202417.660,-39.062,-12.207,-30.273,-80.078,20.996
1690202417.664,29.785,-15.137,-33.691,161.621,-112.305
1690202417.668,17.578,-20.996,-31.738,193.848,207.520
1690202417.672,-68.848,-23.438,-31.738,-32.227,196.777
1690202417.676,-102.051,-23.926,-37.109,-221.191,-237.793
1690202417.678,-32.227,-43.945,-39.062,-122.070,-256.836
1690202417.682,36.133,-43.457,-33.691,137.207,-69.824
1690202417.686,17.578,-32.227,-33.691,195.801,-37.109
1690202417.690,-65.430,-37.109,-37.109,-18.555,-123.535
1690202417.694,-105.469,-28.320,-37.109,-214.844,-145.996
1690202417.698,-57.129,-13.672,-38.086,-137.695,-18.066
1690202417.702,25.879,-14.648,-36.133,124.023,52.734
1690202417.705,25.391,-21.484,-32.227,221.191,73.730
1690202417.709,-62.012,-22.949,-35.645,39.551,30.762
1690202417.713,-105.957,-18.066,-32.227,-170.410,166.016
1690202417.717,-68.359,-18.066,-31.250,-154.785,-20.508
1690202417.721,13.184,-21.484,-29.785,74.219,-253.906
1690202417.723,37.598,-25.391,-28.809,214.355,-88.379
1690202417.727,-36.133,-32.715,-30.273,58.105,-99.609
1690202417.731,-104.492,-26.367,-35.156,-192.383,-208.008
1690202417.735,-63.477,-17.578,-42.480,-183.594,-166.992
1690202417.739,47.363,-12.207,-35.645,83.008,-47.363
1690202417.743,61.523,-16.113,-22.949,233.887,109.863
1690202417.747,-38.086,-30.762,-22.949,93.750,100.586
1690202417.750,-107.910,-37.598,-25.879,-145.020,-103.516
1690202417.754,-85.938,-38.574,-24.902,-181.641,-11.230
1690202417.758,-5.859,-40.039,-16.113,42.480,473.633
1690202417.762,41.504,-43.457,-14.160,226.562,251.953
1690202417.766,-14.160,-45.898,-19.531,131.348,-184.570
1690202417.768,-94.727,-54.199,-18.555,-114.746,-205.078
1690202417.772,-89.355,-48.828,-20.508,-198.242,-291.016
1690202417.776,-12.207,-44.434,-21.484,0.977,-253.418
1690202417.780,40.527,-48.340,-19.531,217.285,-94.727
1690202417.784,-5.859,-46.387,-21.484,159.668,-45.410
1690202417.788,-84.473,-45.410,-21.973,-79.102,-22.461
1690202417.792,-95.703,-39.062,-23.438,-201.172,-130.859
1690202417.795,-20.996,-35.645,-20.996,-38.086,-174.805
1690202417.799,38.086,-44.434,-22.461,195.312,35.645
1690202417.803,-2.930,-43.945,-22.949,169.434,-20.996
1690202417.807,-87.402,-34.180,-22.949,-72.266,-159.180
1690202417.811,-104.004,-26.367,-27.344,-225.098,-177.734
1690202417.813,-36.621,-24.414,-23.926,-79.590,108.887
1690202417.817,34.180,-21.973,-19.531,166.992,0.000
1690202417.821,13.184,-24.414,-20.508,184.082,-189.941
1690202417.825,-72.266,-27.344,-24.902,-42.969,-153.809
1690202417.829,-98.633,-26.367,-25.879,-218.750,-250.488
1690202417.833,-36.621,-31.738,-26.367,-110.352,-169.434
1690202417.837,34.180,-36.133,-26.367,146.484,-31.738
1690202417.840,31.738,-31.738,-24.414,204.590,125.977
1690202417.844,-40.039,-30.762,-23.926,-16.602,190.918
1690202417.848,-76.172,-23.926,-23.926,-208.496,-46.875
1690202417.852,-19.531,-14.648,-24.414,-127.441,-92.285
1690202417.856,58.105,-16.113,-22.461,122.559,164.062
1690202417.859,55.176,-13.672,-20.508,215.820,216.309
1690202417.863,-26.855,-10.742,-26.367,23.438,-81.055
1690202417.867,-78.125,-15.625,-33.691,-201.172,-145.020
1690202417.871,-43.457,-22.949,-32.227,-166.016,67.383
1690202417.875,34.180,-31.738,-32.715,83.008,88.379
1690202417.879,49.316,-30.762,-35.156,217.773,60.547
1690202417.883,-23.926,-26.855,-37.109,62.012,122.070
1690202417.886,-80.566,-26.367,-35.156,-175.293,232.910
1690202417.890,-61.523,-22.461,-32.715,-185.547,0.000
1690202417.894,11.230,-16.602,-34.668,45.898,-160.645
1690202417.898,32.227,-19.531,-33.691,199.219,-33.203
1690202417.902,-35.645,-24.414,-31.250,68.359,-11.719
1690202417.903,-108.887,-29.297,-34.668,-179.199,-125.488
1690202417.907,-91.797,-35.156,-34.180,-220.703,-199.219
1690202417.911,-2.930,-30.273,-26.855,12.695,-42.480
1690202417.915,38.086,-25.879,-27.344,194.336,120.605
1690202417.919,-13.672,-24.902,-29.785,94.238,-13.672
1690202417.923,-83.984,-27.832,-29.785,-148.438,-140.137
1690202417.927,-81.055,-33.203,-31.250,-224.609,99.121
1690202417.930,-9.277,-29.297,-26.367,-14.160,394.043
1690202417.934,46.875,-20.020,-22.461,188.965,88.867
1690202417.938,6.836,-26.855,-26.855,124.512,-53.711
1690202417.942,-79.102,-34.180,-29.297,-112.305,20.996
1690202417.946,-91.797,-27.832,-28.320,-223.145,-113.281
1690202417.948,-7.324,-26.367,-32.227,-57.129,-220.703
1690202417.952,66.895,-27.344,-34.668,180.664,-112.305
1690202417.956,23.438,-25.391,-31.738,164.551,5.371
1690202417.960,-83.008,-22.949,-35.156,-95.703,-76.660
1690202417.964,-102.051,-19.043,-41.016,-241.211,-208.496
1690202417.968,-19.531,-20.996,-39.551,-68.848,-43.457
1690202417.972,49.805,-24.414,-33.203,171.387,341.309
1690202417.975,28.809,-22.949,-30.762,176.270,217.773
1690202417.979,-56.152,-22.461,-30.762,-45.410,-174.316
1690202417.983,-87.402,-24.902,-24.414,-206.543,-208.496
1690202417.987,-34.180,-32.227,-26.855,-98.633,-12.695
1690202417.991,38.574,-27.832,-30.762,135.254,-56.152
1690202417.993,28.320,-21.484,-29.297,187.988,-139.648
1690202417.997,-54.688,-22.461,-26.855,-18.555,-130.371
1690202418.001,-98.633,-23.926,-22.949,-214.844,-127.930
1690202418.005,-49.805,-26.367,-23.438,-138.184,-186.035
1690202418.009,25.879,-29.785,-20.996,109.863,-130.371
1690202418.013,34.668,-33.691,-21.484,209.961,175.781
1690202418.017,-44.434,-32.227,-26.367,17.578,236.328
1690202418.020,-102.539,-31.738,-26.367,-205.566,-91.797
1690202418.024,-62.012,-31.250,-26.855,-169.922,-119.629
1690202418.028,18.555,-32.227,-25.879,74.707,122.070
1690202418.032,39.551,-26.855,-22.461,195.312,37.109
1690202418.036,-30.762,-20.996,-21.484,31.738,-142.090
1690202418.053,-94.727,-24.414,-27.344,-201.660,-208.008
1690202418.057,-63.965,-25.391,-30.273,-194.336,60.547
1690202418.061,12.207,-23.926,-32.715,44.922,379.395
1690202418.065,35.645,-21.484,-33.203,182.617,80.078
1690202418.069,-21.973,-22.461,-27.344,63.477,-107.422
1690202418.073,-93.750,-26.855,-24.902,-167.969,-16.602
1690202418.077,-79.590,-28.809,-28.320,-207.520,-46.875
1690202418.080,4.395,-26.855,-28.809,17.090,-135.742
1690202418.084,44.922,-30.762,-26.367,192.871,-51.270
1690202418.088,-18.066,-25.879,-26.855,76.172,177.246
1690202418.092,-91.797,-10.254,-27.344,-155.762,-6.836
1690202418.096,-85.938,-9.766,-27.832,-226.562,-229.980
1690202418.098,-12.695,-21.484,-33.203,-36.133,-168.945
1690202418.102,30.273,-28.320,-33.203,167.480,-28.320
1690202418.106,-15.625,-26.855,-25.879,109.375,-118.164
1690202418.110,-86.426,-13.184,-19.531,-120.605,-210.938
1690202418.114,-97.656,-15.625,-20.508,-228.516,-208.496
1690202418.118,-20.508,-25.879,-21.973,-59.570,-112.793
1690202418.122,42.969,-22.949,-20.020,171.387,38.574
1690202418.125,2.441,-27.344,-22.461,139.160,-21.973
1690202418.129,-82.031,-35.645,-22.949,-102.539,83.008
1690202418.133,-102.051,-31.738,-23.926,-231.934,407.227
1690202418.137,-26.367,-21.973,-27.344,-93.262,-2.930
1690202418.141,45.410,-20.020,-29.785,146.484,-204.590
1690202418.143,7.324,-36.621,-26.855,158.203,36.621
1690202418.147,-91.797,-46.875,-28.809,-75.684,-17.578
1690202418.151,-116.699,-23.926,-33.203,-240.234,-255.859
1690202418.155,-44.922,-13.672,-29.297,-120.117,-202.148
1690202418.159,31.738,-20.996,-27.344,135.254,88.379
1690202418.163,23.926,-21.484,-30.273,179.199,95.703
1690202418.167,-56.641,-20.020,-38.574,-35.645,24.902
1690202418.170,-110.840,-20.996,-43.945,-230.469,-38.574
1690202418.174,-59.570,-27.344,-41.992,-153.320,127.930
1690202418.178,30.273,-27.344,-39.551,97.656,57.129
1690202418.182,41.016,-20.020,-32.715,189.453,-160.645
1690202418.186,-37.598,-19.043,-32.227,1.465,-152.344
1690202418.188,-94.238,-20.996,-33.691,-209.473,-201.172
1690202418.192,-56.152,-20.996,-31.250,-164.062,-255.859
1690202418.196,21.973,-21.484,-28.809,79.102,-212.402
1690202418.200,31.738,-24.902,-26.367,194.336,25.391
1690202418.204,-41.016,-22.461,-29.297,28.809,51.270
1690202418.208,-106.934,-22.461,-33.691,-203.125,-77.637
1690202418.212,-77.637,-26.855,-28.809,-195.801,-98.633
1690202418.215,6.836,-24.414,-21.484,42.969,62.500
1690202418.219,33.203,-19.531,-26.855,192.871,368.652
1690202418.223,-25.879,-23.438,-24.414,58.594,112.305
1690202418.227,-104.492,-34.180,-21.973,-185.059,-210.449
1690202418.231,-92.773,-34.668,-28.809,-220.215,-69.824
1690202418.233,-0.977,-30.273,-28.809,2.441,-4.395
1690202418.237,37.598,-23.438,-25.879,176.270,-85.449
1690202418.241,-19.043,-14.160,-23.926,77.637,-39.062
1690202418.245,-88.867,-13.184,-25.879,-159.668,-105.957
1690202418.249,-78.613,-21.973,-29.785,-229.004,-187.012
1690202418.253,-0.488,-22.949,-31.738,-24.902,-64.453
1690202418.257,43.457,-23.926,-30.762,179.199,80.078
1690202418.260,-4.395,-31.738,-30.273,124.512,426.270
1690202418.264,-90.332,-33.203,-35.156,-117.676,244.141
1690202418.268,-100.586,-37.598,-34.180,-235.840,-247.070
1690202418.272,-14.160,-35.645,-31.738,-57.617,-238.281
1690202418.276,51.270,-31.738,-30.273,166.992,-101.074
1690202418.278,11.719,-34.180,-24.902,144.531,-62.012
1690202418.282,-72.266,-31.738,-24.414,-88.379,-133.301
1690202418.286,-99.121,-26.367,-28.809,-237.793,-162.109
1690202418.290,-35.645,-26.367,-35.645,-101.562,-92.285
1690202418.294,36.621,-29.785,-32.227,142.090,-74.707
1690202418.298,8.789,-41.016,-30.273,153.809,-68.359
1690202418.302,-76.172,-41.992,-27.832,-62.500,189.941
1690202418.305,-104.980,-26.367,-30.273,-226.074,199.707
1690202418.309,-41.016,-22.949,-29.785,-127.930,-95.215
1690202418.313,35.645,-30.762,-24.414,121.094,-38.574
1690202418.317,21.484,-35.645,-24.902,177.734,160.156
1690202418.321,-68.359,-32.715,-22.461,-38.086,128.906
1690202418.323,-111.328,-23.438,-20.508,-229.492,-197.754
1690202418.327,-52.246,-24.414,-26.855,-144.531,-196.777
1690202418.331,20.996,-24.902,-33.691,100.586,0.488
1690202418.335,15.137,-26.367,-29.297,176.758,-14.648
1690202418.339,-63.477,-33.691,-27.344,-16.113,-147.461
1690202418.343,-111.328,-37.109,-31.250,-223.633,-141.113
1690202418.347,-62.988,-34.668,-33.203,-177.246,201.660
1690202418.350,28.320,-25.879,-28.320,63.965,87.402
1690202418.354,49.316,-19.531,-26.855,184.570,-102.539
1690202418.358,-25.391,-20.996,-27.344,28.809,-54.199
1690202418.362,-87.402,-22.461,-25.879,-187.500,-67.383
1690202418.366,-62.012,-24.414,-26.855,-183.594,-97.168
1690202418.369,23.926,-33.691,-26.855,51.758,-192.383
1690202418.373,64.453,-23.926,-26.855,222.656,-105.957
1690202418.377,-9.277,-4.395,-34.180,76.660,14.648
1690202418.381,-97.168,-9.766,-38.574,-189.941,-149.414
1690202418.385,-85.449,-12.207,-34.180,-219.238,-223.145
1690202418.389,-0.977,-11.719,-36.133,6.348,53.711
1690202418.393,30.762,-14.160,-43.457,166.504,222.168
1690202418.396,-29.297,-10.254,-45.410,62.500,-1.465
1690202418.400,-98.145,-6.836,-43.945,-178.711,-186.523
1690202418.404,-99.609,-9.277,-46.875,-241.699,61.035
1690202418.408,-15.625,-13.184,-44.922,-31.250,291.016
1690202418.412,39.551,-13.672,-42.480,156.738,-15.137
1690202418.428,-16.113,-16.602,-41.016,87.402,-116.211
1690202418.432,-94.238,-16.602,-37.109,-139.160,-0.977
1690202418.436,-100.586,-14.648,-39.062,-240.723,-130.371
1690202418.440,-22.461,-15.625,-37.109,-68.359,-221.191
1690202418.444,39.062,-15.625,-35.156,158.203,-41.504
1690202418.448,-0.977,-17.090,-39.062,130.859,398.926
1690202418.452,-85.449,-17.578,-41.016,-116.699,219.727
1690202418.455,-104.980,-17.578,-39.551,-252.930,-254.395
1690202418.459,-31.738,-20.996,-34.180,-99.121,-228.516
1690202418.463,36.621,-22.461,-32.227,143.555,53.711
1690202418.467,6.836,-18.555,-31.738,151.855,-41.016
1690202418.471,-75.684,-12.207,-28.809,-74.707,-199.219
1690202418.473,-101.074,-11.719,-30.762,-235.352,-168.457
1690202418.477,-32.715,-13.184,-33.203,-120.117,-60.059
1690202418.481,33.691,-14.160,-32.227,120.605,-17.578
1690202418.485,19.531,-19.531,-33.203,162.109,-46.875
1690202418.489,-54.688,-22.461,-31.250,-44.922,27.832
1690202418.493,-92.285,-24.902,-34.668,-230.469,79.590
1690202418.497,-34.668,-26.855,-34.668,-151.367,-0.488
1690202418.500,47.852,-26.367,-32.227,91.309,-125.000
1690202418.504,46.387,-25.879,-34.180,189.453,62.012
1690202418.508,-44.434,-35.156,-37.109,3.418,390.625
1690202418.512,-105.469,-32.715,-41.992,-222.656,-14.648
1690202418.516,-62.012,-28.809,-45.898,-173.340,-265.625
1690202418.518,17.090,-31.738,-47.852,64.941,-48.340
1690202418.522,28.809,-30.273,-42.969,171.875,-56.641
1690202418.526,-48.828,-34.180,-39.062,6.348,-125.000
1690202418.530,-112.305,-36.621,-41.504,-216.797,-173.340
1690202418.534,-75.684,-28.809,-36.621,-193.848,-135.254
1690202418.538,11.719,-28.809,-31.738,41.992,19.531
1690202418.542,32.227,-24.902,-32.715,168.945,54.199
1690202418.545,-37.109,-21.484,-27.344,36.133,60.547
1690202418.549,-104.980,-20.996,-24.414,-194.824,110.352
1690202418.553,-82.031,-19.531,-31.738,-226.074,-129.883
1690202418.557,20.508,-23.926,-32.715,22.949,-184.570
1690202418.561,62.012,-30.273,-23.926,203.125,7.812
1690202418.563,-35.156,-38.086,-26.855,74.707,294.434
1690202418.567,-122.070,-36.133,-28.320,-172.363,19.531
1690202418.571,-105.957,-38.086,-24.902,-244.141,-272.949
1690202418.575,-23.438,-46.875,-27.344,-41.016,-171.875
1690202418.579,31.250,-48.340,-19.531,166.504,-107.910
1690202418.583,-15.625,-45.410,-14.160,101.562,-12.695
1690202418.587,-96.680,-51.270,-16.602,-139.648,-62.012
1690202418.590,-98.633,-51.270,-16.113,-230.957,-45.410
1690202418.594,-22.949,-44.922,-17.090,-52.246,172.363
1690202418.598,28.320,-45.410,-16.602,158.203,91.309
1690202418.602,-4.395,-41.992,-8.789,130.371,29.297
1690202418.606,-81.543,-40.527,-12.207,-100.586,129.883
1690202418.609,-101.074,-41.992,-22.949,-239.258,55.664
1690202418.613,-28.320,-41.504,-22.949,-91.797,-156.250
1690202418.617,39.551,-39.062,-20.996,149.902,-99.121
1690202418.621,6.836,-35.645,-24.414,149.414,-16.602
1690202418.625,-76.172,-36.621,-27.344,-81.543,-136.230
1690202418.629,-94.727,-37.109,-30.273,-218.750,-155.273
1690202418.633,-39.062,-37.109,-35.156,-110.840,31.738
1690202418.636,33.691,-35.645,-35.156,127.441,329.102
1690202418.640,16.602,-34.180,-32.227,168.457,166.016
1690202418.644,-66.895,-37.109,-33.691,-57.617,-177.246
1690202418.648,-97.656,-34.668,-34.180,-226.562,-250.977
1690202418.652,-41.504,-27.344,-32.715,-142.578,-185.059
1690202418.653,41.992,-26.367,-32.227,97.656,-136.719
1690202418.657,38.086,-30.273,-30.273,174.805,-147.461
1690202418.661,-49.316,-31.250,-31.250,-21.484,-97.168
1690202418.665,-97.656,-30.273,-35.156,-226.562,-132.812
1690202418.669,-54.199,-27.344,-34.180,-170.898,-218.750
1690202418.673,18.555,-26.367,-33.691,71.289,-121.094
1690202418.677,33.691,-25.391,-35.645,179.199,191.895
1690202418.680,-40.039,-24.414,-34.180,10.254,392.090
1690202418.684,-104.980,-21.484,-33.691,-219.727,-23.438
1690202418.688,-65.918,-18.555,-32.227,-193.359,-104.492
1690202418.692,15.625,-27.344,-34.180,46.387,146.484
1690202418.696,44.434,-29.785,-31.738,179.199,74.219
1690202418.699,-23.926,-26.367,-33.203,28.809,-167.480
1690202418.703,-97.656,-24.414,-38.574,-192.383,-211.914
1690202418.707,-68.848,-20.508,-31.738,-195.312,-15.625
1690202418.711,14.160,-22.461,-29.785,15.625,-81.055
1690202418.715,40.039,-26.855,-30.762,179.199,-167.969
1690202418.719,-21.484,-28.320,-25.879,77.637,41.016
1690202418.723,-94.238,-28.320,-27.344,-153.320,347.168
1690202418.726,-84.961,-20.508,-33.203,-217.773,34.180
1690202418.730,-1.953,-21.973,-31.738,-22.461,-214.355
1690202418.734,46.875,-20.020,-28.320,173.340,-32.715
1690202418.738,-8.301,-21.484,-29.297,94.727,31.250
1690202418.742,-95.215,-30.273,-32.227,-152.344,-139.160
1690202418.743,-101.074,-31.250,-33.203,-247.559,-281.250
1690202418.747,-20.996,-28.320,-35.645,-58.594,-123.535
1690202418.751,35.156,-23.438,-31.250,152.832,15.625
1690202418.755,-5.371,-23.438,-27.832,117.676,-33.203
1690202418.759,-86.914,-30.762,-31.250,-114.258,-143.555
1690202418.763,-104.492,-41.016,-29.785,-237.305,-25.391
1690202418.767,-35.645,-36.133,-27.832,-77.637,314.453
1690202418.770,24.902,-23.438,-23.438,139.160,104.980
1690202418.774,-1.953,-22.461,-19.043,125.000,-82.520
1690202418.778,-80.078,-20.996,-22.461,-96.191,166.992
1690202418.782,-113.281,-22.461,-25.879,-250.000,96.680
1690202418.786,-47.852,-29.297,-24.902,-129.883,-163.574
1690202418.803,27.832,-29.297,-24.414,110.352,-90.332
1690202418.807,11.230,-26.855,-25.879,145.996,-25.391
1690202418.811,-73.730,-31.250,-22.949,-64.941,-136.230
1690202418.815,-115.723,-30.273,-20.996,-239.746,-225.586
1690202418.819,-50.293,-27.344,-16.602,-129.395,-142.090
1690202418.823,48.828,-26.855,-17.090,126.465,85.449
1690202418.827,25.879,-19.531,-18.555,172.363,121.094
1690202418.830,-73.730,-20.020,-18.066,-40.039,28.320
1690202418.834,-118.164,-15.625,-24.902,-252.930,-102.539
1690202418.838,-65.918,-14.648,-28.809,-190.918,101.562
1690202418.842,4.883,-19.531,-26.367,49.805,88.379
1690202418.846,0.977,-18.555,-29.297,138.184,-140.625
1690202418.848,-56.152,-19.043,-33.691,-23.438,-186.523
1690202418.852,-119.629,-25.879,-35.156,-245.605,-236.816
1690202418.856,-94.238,-28.809,-37.109,-231.445,-281.250
1690202418.860,-13.672,-27.344,-39.062,11.230,-292.969
1690202418.864,5.859,-23.926,-43.945,153.320,-73.730
1690202418.868,-54.199,-23.438,-44.434,15.625,84.473
1690202418.872,-122.559,-29.297,-41.992,-225.098,-118.652
1690202418.875,-95.215,-23.438,-41.016,-239.258,-312.500
1690202418.879,-6.836,-30.273,-35.645,-4.883,0.000
1690202418.883,18.066,-40.527,-37.598,156.738,559.570
1690202418.887,-49.316,-34.180,-39.062,41.504,219.727
1690202418.891,-115.234,-30.762,-33.203,-193.848,-216.309
1690202418.893,-99.121,-35.156,-31.250,-242.676,-62.500
1690202418.897,-9.277,-32.715,-29.785,-26.367,-80.078
1690202418.901,43.945,-24.414,-24.902,164.062,-198.730
1690202418.905,-5.371,-23.926,-24.414,74.707,-135.254
1690202418.909,-92.285,-22.949,-25.391,-167.969,-150.879
1690202418.913,-104.980,-21.973,-27.832,-259.766,-146.484
1690202418.917,-21.484,-20.996,-30.762,-69.336,-89.355
1690202418.920,35.156,-20.996,-27.832,146.484,-24.902
1690202418.924,-11.230,-29.785,-31.250,100.586,270.996
1690202418.928,-91.309,-38.574,-35.156,-134.277,27.344
1690202418.932,-100.098,-29.785,-32.715,-250.977,-320.312
1690202418.936,-23.438,-23.438,-35.645,-95.215,-92.285
1690202418.938,44.922,-20.508,-32.227,138.672,48.828
1690202418.942,7.812,-18.066,-29.297,131.836,-51.270
1690202418.946,-83.496,-21.973,-33.203,-105.957,-173.828
1690202418.950,-100.586,-23.438,-36.133,-263.672,-204.590
1690202418.954,-31.250,-18.066,-33.203,-136.719,-108.398
1690202418.958,27.344,-17.578,-30.273,111.328,39.551
1690202418.962,6.836,-21.484,-29.785,136.719,58.105
1690202418.965,-72.754,-23.438,-31.738,-81.543,102.539
1690202418.969,-105.957,-17.578,-29.297,-240.234,102.051
1690202418.973,-44.922,-16.113,-20.020,-148.438,-68.848
1690202418.977,25.879,-25.879,-25.391,88.379,-84.473
1690202418.981,10.254,-23.926,-30.273,156.250,88.379
1690202418.984,-65.430,-18.555,-26.855,-44.922,-3.418
1690202418.988,-104.492,-20.020,-29.297,-248.535,-272.949
1690202418.992,-58.105,-21.484,-26.855,-178.223,-155.762
1690202418.996,19.043,-24.414,-24.414,74.707,120.117
1690202419.000,13.672,-29.785,-29.297,154.785,50.781
1690202419.004,-66.895,-34.180,-29.297,-26.367,-71.289
1690202419.008,-106.934,-32.715,-24.414,-218.262,33.203
1690202419.011,-64.453,-30.273,-19.531,-193.359,264.648
1690202419.015,8.789,-29.785,-26.367,31.250,120.605
1690202419.019,15.625,-27.832,-33.691,164.062,-82.031
1690202419.023,-57.617,-27.344,-32.227,28.320,-71.289
1690202419.027,-116.699,-34.180,-29.297,-195.312,-133.301
1690202419.028,-82.031,-32.227,-33.691,-213.379,-205.566
1690202419.032,12.207,-19.043,-32.227,12.695,-158.691
1690202419.036,43.945,-18.555,-21.484,183.105,-41.992
1690202419.040,-14.160,-24.902,-18.066,61.523,-25.391
1690202419.044,-81.055,-24.414,-23.926,-178.223,-90.820
1690202419.048,-63.477,-22.461,-28.809,-217.773,-170.410
1690202419.052,12.695,-27.344,-23.926,-14.160,111.816
1690202419.055,40.039,-28.320,-25.391,164.062,518.555
1690202419.059,-20.508,-30.762,-32.227,51.270,146.973
1690202419.063,-86.914,-40.039,-31.250,-165.527,-94.727
1690202419.067,-72.266,-41.504,-22.461,-222.168,63.477
1690202419.071,23.926,-19.531,-22.461,-36.621,-34.668
1690202419.073,63.477,-7.812,-30.273,156.738,-142.090
1690202419.077,0.977,-7.812,-35.156,86.914,-39.062
1690202419.081,-80.566,-6.348,-37.109,-141.602,-13.672
1690202419.085,-94.727,-8.301,-38.574,-258.789,-136.230
1690202419.089,-23.438,-8.301,-40.039,-101.562,-159.180
1690202419.093,33.203,-6.348,-43.457,130.859,42.480
1690202419.097,-4.395,-0.977,-53.711,116.699,406.250
1690202419.100,-88.867,5.859,-59.082,-125.977,177.246
1690202419.104,-113.770,2.441,-52.246,-270.020,-262.207
1690202419.108,-53.223,-6.348,-45.898,-130.371,-158.691
1690202419.112,13.672,-12.695,-50.293,111.328,146.973
1690202419.116,2.930,-17.578,-48.340,127.930,1.953
1690202419.118,-74.707,-16.602,-43.457,-88.867,-211.426
1690202419.122,-94.238,-7.324,-41.992,-245.117,-198.730
1690202419.126,-31.250,-0.977,-39.062,-137.695,-100.098
1690202419.130,39.551,-2.930,-39.062,102.051,-12.207
1690202419.134,28.320,-4.883,-43.457,165.527,-42.969
1690202419.138,-62.500,-11.719,-41.992,-27.832,25.391
1690202419.142,-116.211,-19.531,-35.156,-225.098,2.441
1690202419.145,-62.500,-18.066,-44.434,-155.762,-83.008
1690202419.149,21.484,-13.184,-45.898,96.680,-63.965
1690202419.153,31.250,-13.672,-41.992,185.547,186.035
1690202419.157,-48.828,-19.531,-41.016,7.324,592.285
1690202419.161,-106.445,-26.367,-44.922,-214.355,97.656
1690202419.178,-59.082,-25.879,-43.457,-184.570,-257.324
1690202419.182,17.578,-11.230,-36.133,56.152,-0.977
1690202419.186,31.738,-10.742,-31.738,171.387,-30.273
1690202419.190,-38.086,-25.391,-34.668,17.090,-169.922
1690202419.194,-96.680,-21.484,-34.180,-201.660,-216.309
1690202419.198,-61.523,-17.090,-28.809,-197.266,-96.191
1690202419.202,20.996,-22.461,-31.738,29.297,-42.480
1690202419.205,49.805,-22.461,-38.574,177.246,-109.375
1690202419.209,-27.344,-21.484,-38.086,66.895,-97.656
1690202419.213,-96.680,-22.461,-38.086,-161.133,135.254
1690202419.217,-75.684,-18.555,-42.969,-213.867,-62.500
1690202419.221,-0.488,-20.996,-41.016,-7.812,-234.375
1690202419.223,36.621,-28.320,-40.527,177.734,-10.742
1690202419.227,-12.207,-23.926,-40.527,85.449,47.363
1690202419.231,-90.332,-17.090,-40.527,-158.691,-136.230
1690202419.235,-83.496,-18.066,-36.133,-240.723,-214.844
1690202419.239,-3.418,-26.855,-26.855,-26.855,-79.102
1690202419.243,39.551,-29.785,-25.879,185.059,116.699
1690202419.247,-12.207,-27.832,-36.133,113.281,156.250
1690202419.250,-86.426,-31.250,-39.062,-129.883,-124.512
1690202419.254,-93.262,-35.645,-42.480,-237.793,-21.973
1690202419.258,-20.508,-34.668,-42.480,-61.523,418.945
1690202419.262,44.434,-30.273,-37.598,152.344,148.438
1690202419.266,12.695,-32.227,-31.738,136.719,-89.844
1690202419.269,-73.242,-31.738,-32.227,-85.938,-96.680
1690202419.273,-106.934,-33.691,-34.668,-237.793,-226.074
1690202419.277,-44.922,-34.180,-31.738,-93.262,-170.410
1690202419.281,36.621,-27.832,-34.668,152.832,14.648
1690202419.285,13.184,-26.855,-32.715,161.621,108.887
1690202419.289,-64.941,-32.227,-29.297,-54.688,3.418
1690202419.293,-84.961,-29.297,-33.203,-207.520,-161.133
1690202419.296,-30.273,-23.926,-32.227,-112.793,-172.852
1690202419.300,30.273,-25.879,-29.297,112.305,219.727
1690202419.304,21.973,-21.484,-33.691,168.945,173.828
1690202419.308,-45.410,-20.996,-35.645,-25.391,-132.324
1690202419.312,-100.586,-25.879,-37.598,-214.355,-199.707
1690202419.313,-41.992,-22.461,-36.621,-138.184,-213.867
1690202419.317,46.875,-19.531,-28.809,100.586,-125.488
1690202419.321,43.945,-20.020,-29.297,198.242,-93.262
1690202419.325,-40.039,-20.996,-27.832,17.090,-107.910
1690202419.329,-98.145,-26.855,-33.691,-210.938,-185.547
1690202419.333,-52.246,-30.762,-30.762,-157.227,-116.699
1690202419.337,26.855,-34.180,-32.715,78.125,57.617
1690202419.340,30.273,-32.715,-36.133,192.383,194.824
1690202419.344,-36.621,-27.344,-29.785,44.434,413.574
1690202419.348,-105.957,-28.320,-33.203,-188.477,84.473
1690202419.352,-83.008,-34.180,-37.109,-198.730,-227.051
1690202419.356,7.324,-41.016,-34.668,25.879,0.977
1690202419.358,40.039,-40.039,-32.227,182.617,57.617
1690202419.362,-25.391,-38.574,-33.691,52.734,-127.930
1690202419.366,-99.121,-37.598,-38.086,-184.082,-174.316
1690202419.370,-80.078,-26.367,-38.574,-208.984,-184.082
1690202419.374,3.906,-18.066,-29.785,0.977,-181.641
1690202419.378,48.340,-18.555,-22.949,187.500,-43.945
1690202419.382,-6.836,-25.391,-30.762,99.121,90.820
1690202419.385,-87.891,-36.621,-32.227,-142.578,337.402
1690202419.389,-89.355,-33.691,-28.809,-221.680,173.340
1690202419.393,-15.137,-23.926,-34.180,-33.203,-180.664
1690202419.397,38.574,-23.926,-40.039,171.875,-123.535
1690202419.401,-6.348,-21.973,-31.738,124.512,-55.664
1690202419.403,-95.703,-21.973,-19.531,-116.211,-179.199
1690202419.407,-100.098,-14.648,-26.855,-231.934,-283.691
1690202419.411,-8.789,-15.137,-35.645,-55.664,-189.941
1690202419.415,44.922,-29.297,-39.062,158.691,-55.176
1690202419.419,5.859,-33.203,-33.691,132.324,-19.531
1690202419.423,-76.660,-32.227,-29.297,-97.168,-37.109
1690202419.427,-104.492,-33.691,-31.738,-234.375,121.582
1690202419.430,-27.832,-33.203,-32.715,-90.332,256.348
1690202419.434,43.457,-30.273,-26.367,138.184,-1.465
1690202419.438,19.043,-27.832,-24.902,147.461,-41.016
1690202419.442,-68.359,-25.391,-25.879,-63.477,198.730
1690202419.446,-105.957,-20.996,-21.484,-228.027,97.656
1690202419.448,-49.316,-22.461,-24.414,-131.836,-168.457
1690202419.452,24.414,-27.832,-33.691,110.840,-107.910
1690202419.456,21.484,-28.320,-29.297,174.805,-20.508
1690202419.460,-60.547,-23.926,-19.531,-19.531,-130.371
1690202419.464,-102.539,-20.020,-28.809,-223.145,-292.480
1690202419.468,-54.688,-23.926,-38.574,-158.691,-86.426
1690202419.472,25.879,-19.531,-26.855,102.539,399.414
1690202419.475,30.762,-15.625,-27.832,180.176,189.941
1690202419.479,-43.457,-20.996,-41.992,-9.766,-144.043
1690202419.483,-100.098,-21.484,-42.969,-221.680,-162.598
1690202419.487,-58.105,-26.855,-32.227,-177.246,-146.973
1690202419.491,35.156,-33.203,-30.273,86.426,-106.934
1690202419.494,41.992,-31.738,-28.809,193.848,-40.527
1690202419.498,-39.062,-24.414,-32.715,17.090,4.395
1690202419.502,-97.656,-20.020,-31.738,-200.195,-52.246
1690202419.506,-65.918,-21.973,-23.926,-191.895,-206.543
1690202419.510,16.113,-19.043,-24.414,32.715,-160.156
1690202419.514,47.363,-21.484,-27.344,185.059,83.984
1690202419.518,-24.902,-23.438,-34.668,64.941,108.398
1690202419.521,-98.633,-23.438,-30.762,-169.434,-95.703
1690202419.525,-80.566,-21.484,-30.762,-204.102,-234.375
1690202419.529,-0.488,-21.973,-26.855,10.254,112.793
1690202419.533,36.621,-25.391,-23.438,187.988,419.922
1690202419.537,-24.902,-22.949,-29.297,83.984,-18.066
1690202419.553,-102.539,-21.484,-32.227,-163.574,-233.887
1690202419.557,-84.961,-17.090,-38.574,-217.285,-139.648
1690202419.561,-9.277,-22.949,-32.715,-5.859,-141.113
1690202419.565,33.203,-25.879,-29.297,175.293,-110.840
1690202419.569,-2.441,-22.949,-32.227,111.816,-43.945
1690202419.573,-86.426,-27.832,-27.344,-110.840,245.605
1690202419.577,-96.191,-21.973,-35.156,-226.562,172.852
1690202419.580,-21.484,-25.391,-34.668,-64.941,-150.391
1690202419.584,30.762,-30.273,-29.297,158.203,-93.750
1690202419.588,-8.301,-17.578,-33.203,132.812,114.258
1690202419.592,-84.961,-16.602,-30.273,-98.145,-92.285
1690202419.596,-112.305,-17.090,-31.250,-233.398,-303.223
1690202419.598,-41.992,-16.113,-28.809,-90.332,-167.480
1690202419.602,34.668,-20.508,-28.809,130.371,-14.648
1690202419.606,6.348,-22.949,-27.344,132.324,-54.688
1690202419.610,-73.242,-29.297,-23.926,-79.102,-120.605
1690202419.614,-111.328,-34.180,-37.109,-235.352,-166.504
1690202419.618,-54.688,-36.133,-38.086,-125.977,-93.262
1690202419.622,18.066,-30.273,-31.738,117.188,74.219
1690202419.625,8.789,-21.973,-37.598,162.598,80.078
1690202419.629,-67.871,-23.438,-30.762,-42.480,129.395
1690202419.633,-113.770,-23.926,-28.320,-222.656,497.559
1690202419.637,-55.176,-20.508,-34.180,-148.926,213.379
1690202419.641,27.832,-21.973,-31.738,92.773,-126.465
1690202419.643,35.645,-26.367,-28.320,179.199,-28.809
1690202419.647,-45.410,-26.367,-33.691,-10.254,-112.305
1690202419.651,-104.980,-22.461,-38.086,-223.633,-238.770
1690202419.655,-60.547,-20.508,-38.086,-186.523,-212.402
1690202419.659,17.578,-27.832,-38.574,53.223,-41.992
1690202419.663,32.715,-34.668,-31.250,177.734,85.938
1690202419.667,-41.016,-35.645,-31.738,9.277,66.895
1690202419.670,-104.492,-35.645,-40.527,-207.031,-79.102
1690202419.674,-73.242,-35.645,-38.574,-183.594,204.590
1690202419.678,10.254,-28.320,-35.645,40.039,247.559
1690202419.682,31.250,-25.879,-39.062,175.781,-73.242
1690202419.686,-31.250,-26.855,-39.551,46.387,-116.211
1690202419.688,-100.098,-22.461,-38.086,-189.941,-165.039
1690202419.692,-83.496,-23.926,-37.109,-225.098,-263.672
1690202419.696,13.672,-25.879,-38.086,-0.488,-215.820
1690202419.700,42.480,-30.762,-33.203,161.133,-36.621
1690202419.704,-25.879,-40.527,-35.645,71.777,-5.371
1690202419.708,-97.656,-38.086,-36.133,-151.367,-25.879
1690202419.712,-79.590,-30.762,-30.273,-218.262,-77.637
1690202419.715,3.906,-26.855,-22.461,-17.090,75.195
1690202419.719,41.016,-21.973,-32.227,180.664,308.105
1690202419.723,1.465,-28.320,-24.414,114.258,55.176
1690202419.727,-91.797,-33.203,-21.973,-117.188,-119.629
1690202419.731,-127.441,-31.250,-38.086,-235.352,12.695
1690202419.748,-41.016,-31.250,-36.133,-65.918,84.473
1690202419.752,33.691,-32.715,-30.762,159.668,-109.375
1690202419.756,-6.836,-37.598,-25.879,131.348,-145.020
1690202419.760,-81.055,-39.551,-22.949,-93.750,-96.680
1690202419.764,-93.750,-31.738,-26.367,-220.703,-148.926
1690202419.768,-18.555,-29.785,-25.391,-62.500,-117.676
1690202419.772,44.922,-34.668,-20.996,163.086,52.246
1690202419.775,7.812,-38.574,-28.809,163.574,319.824
1690202419.779,-71.777,-36.133,-34.668,-59.570,77.637
1690202419.783,-106.445,-33.203,-34.180,-226.562,-284.180
1690202419.787,-48.340,-37.598,-35.156,-109.375,-210.938
1690202419.791,27.344,-26.855,-32.715,131.836,-94.238
1690202419.779,20.020,-29.297,-29.785,170.410,-64.941
1690202419.783,-62.012,-37.598,-33.203,-36.621,-90.820
1690202419.787,-106.934,-34.668,-30.273,-218.262,-145.508
1690202419.791,-49.316,-35.156,-29.297,-134.766,-97.656
1690202419.795,26.367,-30.762,-30.762,102.539,-57.129
1690202419.799,25.391,-29.297,-30.762,178.711,-12.207
1690202419.803,-58.105,-33.691,-27.344,-14.160,123.535
1690202419.806,-111.328,-36.621,-25.879,-221.680,76.660
1690202419.810,-42.480,-28.809,-28.809,-138.184,-143.555
1690202419.814,32.227,-29.297,-25.391,91.309,-72.754
1690202419.818,26.855,-38.574,-28.320,180.664,181.641
1690202419.822,-43.945,-38.086,-36.133,19.043,393.066
1690202419.823,-104.004,-27.344,-39.551,-206.543,-29.785
1690202419.827,-67.871,-26.855,-35.156,-192.871,-300.781
1690202419.831,24.902,-26.367,-31.738,40.527,-111.816
1690202419.835,58.105,-17.090,-28.809,191.406,-21.973
1690202419.839,-10.254,-23.438,-30.273,58.105,-102.539
1690202419.843,-81.543,-35.645,-33.691,-172.363,-146.484
1690202419.847,-58.105,-32.227,-29.785,-177.246,224.121
1690202419.850,18.555,-21.973,-28.320,34.668,244.629
1690202419.854,45.410,-19.531,-23.926,190.918,-71.777
1690202419.858,-9.766,-24.902,-22.461,79.590,-85.449
1690202419.862,-87.402,-18.066,-26.367,-167.480,-102.051
1690202419.866,-82.031,-14.648,-26.855,-219.727,-179.688
1690202419.868,4.395,-17.090,-27.832,-17.578,-191.895
1690202419.872,44.434,-18.066,-23.926,178.223,-66.406
1690202419.876,-4.395,-18.066,-23.926,115.723,8.301
1690202419.880,-85.938,-22.461,-23.926,-123.535,-126.465
1690202419.884,-94.238,-29.785,-22.461,-223.633,-234.375
1690202419.888,-11.719,-30.762,-28.809,-27.832,-48.828
1690202419.892,37.598,-34.668,-25.879,165.039,78.613
1690202419.895,2.441,-35.156,-32.227,115.234,-27.344
1690202419.899,-71.777,-21.484,-38.574,-113.281,-107.910
1690202419.903,-94.727,-22.949,-32.715,-238.770,56.641
1690202419.907,-29.785,-24.414,-25.879,-83.008,365.234
1690202419.911,36.621,-22.461,-25.391,131.836,101.074
1690202419.928,5.371,-24.414,-30.762,123.535,-117.676
1690202419.932,-89.355,-24.414,-39.551,-97.168,-19.043
1690202419.936,-118.652,-25.391,-41.016,-252.441,-126.465
1690202419.940,-36.621,-23.926,-37.109,-126.465,-237.793
1690202419.944,35.645,-23.926,-44.922,120.117,-86.426
1690202419.948,9.766,-26.367,-45.898,152.344,92.773
1690202419.952,-66.406,-32.227,-42.969,-62.500,-5.859
1690202419.955,-97.168,-30.273,-38.086,-236.816,-166.504
1690202419.959,-52.734,-22.949,-34.668,-144.531,-144.043
1690202419.963,17.090,-24.414,-31.250,99.609,257.324
1690202419.967,15.625,-26.367,-33.691,158.203,215.332
1690202419.971,-62.500,-23.926,-37.109,-39.551,-149.414
1690202419.973,-108.887,-22.949,-33.203,-233.398,-234.863
1690202419.977,-62.012,-24.414,-32.227,-177.246,-217.773
1690202419.981,17.578,-24.902,-33.203,70.801,-145.996
1690202419.985,21.484,-28.809,-35.156,173.340,-81.055
1690202419.989,-48.340,-33.691,-33.691,5.371,-61.523
1690202419.993,-88.867,-29.297,-28.320,-189.453,-64.453
1690202419.997,-58.105,-22.949,-24.902,-167.969,-23.438
1690202420.000,12.207,-22.949,-29.297,52.734,-81.543
1690202420.004,30.762,-24.902,-30.273,180.176,70.312
1690202420.008,-31.250,-29.785,-29.785,49.805,479.004
1690202420.012,-106.445,-25.391,-28.320,-193.848,100.586
1690202420.016,-88.867,-18.555,-32.715,-216.797,-220.703
1690202420.018,-0.488,-22.949,-29.785,4.395,-12.207
1690202420.022,29.297,-26.367,-28.320,161.621,23.926
1690202420.026,-34.180,-26.855,-32.715,57.617,-128.418
1690202420.030,-104.004,-30.762,-30.762,-175.781,-213.867
1690202420.034,-95.703,-33.691,-27.832,-236.328,-212.891
1690202420.038,-16.113,-28.320,-31.738,-28.320,-83.008
1690202420.042,38.574,-21.484,-32.227,170.410,5.859
1690202420.045,-6.348,-22.949,-32.715,96.191,-22.461
1690202420.049,-91.309,-25.391,-35.156,-145.996,201.172
1690202420.053,-95.703,-24.902,-37.598,-238.770,59.570
1690202420.057,-13.184,-30.762,-36.621,-50.293,-200.684
1690202420.061,45.898,-36.133,-31.250,166.016,-91.797
1690202420.064,2.441,-29.297,-25.391,113.281,-11.230
1690202420.068,-74.219,-20.996,-22.461,-112.305,-23.926
1690202420.072,-84.473,-21.484,-29.785,-229.980,-162.109
1690202420.076,-11.719,-30.273,-33.691,-78.613,-130.371
1690202420.080,49.805,-29.297,-31.738,153.320,5.859
1690202420.084,11.719,-24.414,-33.203,122.559,-8.789
1690202420.088,-72.754,-29.297,-38.574,-93.750,-116.211
1690202420.091,-91.309,-26.367,-37.109,-225.586,-102.051
1690202420.095,-22.949,-18.066,-40.527,-110.840,168.457
1690202420.099,35.645,-21.484,-43.945,121.582,99.609
1690202420.103,18.066,-24.414,-37.598,159.180,-111.816
1690202420.107,-61.523,-26.367,-31.250,-53.223,-2.930
1690202420.108,-101.562,-30.762,-30.273,-226.562,-1.953
1690202420.112,-41.504,-34.180,-32.227,-131.836,-186.523
1690202420.116,43.457,-30.762,-32.715,111.328,-118.164
1690202420.120,39.062,-23.926,-28.320,170.898,1.465
1690202420.124,-53.711,-26.367,-21.973,-35.156,-41.016
1690202420.128,-104.004,-29.785,-27.344,-231.934,-116.699
1690202420.132,-52.246,-32.227,-27.832,-163.086,-103.027
1690202420.135,29.297,-36.133,-21.973,85.449,236.816
1690202420.139,33.203,-38.574,-24.414,181.641,291.992
1690202420.143,-40.527,-38.086,-33.691,4.395,-116.699
1690202420.147,-94.238,-34.180,-36.133,-215.332,-241.699
1690202420.151,-60.547,-37.109,-33.691,-193.359,-180.176
1690202420.168,23.438,-50.293,-32.227,40.039,-114.258
1690202420.172,38.574,-41.504,-29.297,174.805,-10.254
1690202420.176,-40.039,-27.344,-31.250,37.598,11.719
1690202420.180,-113.281,-21.484,-34.668,-192.383,-118.652
1690202420.184,-83.496,-18.555,-34.180,-194.336,-191.406
1690202420.188,15.137,-18.066,-28.320,31.738,-87.891
1690202420.192,42.480,-20.020,-24.414,189.941,208.496
1690202420.195,-31.250,-21.973,-26.855,80.566,418.945
1690202420.199,-101.074,-21.484,-24.902,-165.527,-32.227
1690202420.203,-84.961,-35.645,-26.367,-211.914,-197.754
1690202420.207,-5.371,-45.410,-23.926,-1.953,96.191
1690202420.211,33.203,-34.668,-24.902,178.711,215.332
1690202420.198,-27.344,-21.484,-27.832,81.055,-46.387
1690202420.202,-100.586,-23.926,-35.645,-146.973,-194.824
1690202420.206,-86.914,-26.367,-33.203,-219.727,-160.156
1690202420.210,-6.836,-22.949,-30.273,-44.434,-148.438
1690202420.214,43.457,-28.809,-31.250,156.250,-89.355
1690202420.218,-5.859,-35.645,-33.203,102.051,64.453
1690202420.222,-100.098,-32.227,-31.738,-130.859,159.180
1690202420.225,-106.934,-21.484,-31.250,-238.770,-71.289
1690202420.229,-11.230,-18.066,-34.180,-71.777,-154.297
1690202420.233,43.945,-20.996,-35.645,152.344,42.969
1690202420.237,9.277,-21.484,-29.297,149.414,294.922
1690202420.241,-67.871,-20.508,-28.320,-78.613,115.723
1690202420.243,-99.609,-25.879,-28.320,-230.957,-295.410
1690202420.247,-34.668,-25.879,-23.926,-100.098,-233.398
1690202420.251,28.320,-33.691,-25.391,126.465,-51.758
1690202420.255,10.742,-37.598,-23.438,147.461,-108.887
1690202420.259,-57.617,-24.414,-27.832,-53.223,-195.801
1690202420.263,-100.586,-20.508,-42.969,-218.750,-54.199
1690202420.267,-62.500,-20.508,-49.316,-145.020,41.504
1690202420.270,8.789,-25.391,-51.270,81.055,-49.805
1690202420.274,14.160,-23.438,-45.898,143.555,-131.348
1690202420.278,-55.176,-14.648,-41.504,-48.340,101.074
1690202420.282,-102.539,-20.996,-46.387,-237.793,305.176
1690202420.286,-62.012,-20.996,-45.898,-184.570,-21.973
1690202420.303,19.531,-15.137,-39.062,58.594,-158.691
1690202420.307,29.785,-10.742,-37.598,159.180,54.199
1690202420.311,-44.922,-13.184,-36.621,-19.531,-64.941
1690202420.315,-102.539,-12.207,-41.504,-222.656,-248.535
1690202420.319,-64.941,-15.137,-41.016,-184.570,-199.707
1690202420.323,20.020,-23.438,-36.133,58.594,31.250
1690202420.327,36.621,-20.508,-39.062,183.105,104.492
1690202420.330,-36.133,-20.020,-39.551,24.902,-100.098
1690202420.334,-101.562,-24.414,-41.504,-198.730,-160.645
1690202420.338,-78.125,-24.902,-38.086,-200.195,143.555
1690202420.342,9.766,-19.531,-42.969,13.672,70.801
1690202420.346,60.059,-16.113,-47.363,170.410,-121.094
1690202420.348,-16.602,-18.066,-42.480,53.711,-121.582
1690202420.352,-104.004,-20.020,-46.387,-178.223,-109.375
1690202420.356,-85.449,-15.625,-45.898,-214.844,-120.117
1690202420.360,0.977,-17.578,-38.086,-6.836,-190.918
1690202420.364,47.852,-22.461,-33.691,177.734,-46.387
1690202420.368,-7.812,-17.578,-29.785,93.750,205.566
1690202420.372,-95.703,-19.531,-29.297,-155.273,64.941
1690202420.375,-94.727,-29.785,-27.344,-243.652,-223.145
1690202420.379,-0.977,-29.785,-23.438,-53.223,-7.812
1690202420.383,44.922,-19.043,-24.902,165.527,522.461
1690202420.387,-2.441,-17.090,-29.785,108.887,193.359
1690202420.391,-76.172,-20.020,-30.273,-132.324,-224.609
1690202420.393,-92.773,-20.508,-28.320,-230.469,-157.227
1690202420.397,-24.414,-22.949,-34.668,-64.941,-135.742
1690202420.401,40.039,-22.949,-35.645,151.855,-118.164
1690202420.405,5.371,-21.973,-34.668,130.859,-21.973
1690202420.409,-81.543,-24.902,-33.203,-103.027,49.805
1690202420.413,-107.422,-31.738,-28.320,-238.770,-17.090
1690202420.417,-38.574,-34.668,-26.367,-93.750,-75.195
1690202420.420,36.133,-27.344,-32.715,135.254,-49.316
1690202420.424,16.602,-23.926,-31.250,152.344,267.578
1690202420.428,-65.918,-20.996,-28.809,-74.707,106.445
1690202420.432,-105.957,-20.020,-31.250,-248.047,-265.625
1690202420.436,-49.805,-26.855,-29.297,-139.648,-240.234
1690202420.438,30.762,-30.762,-29.297,106.934,-84.473
1690202420.442,19.531,-28.809,-34.180,159.668,15.625
1690202420.446,-66.406,-27.832,-38.574,-53.711,-118.164
1690202420.450,-106.934,-27.344,-39.551,-242.676,-212.891
1690202420.454,-45.898,-26.367,-43.945,-160.645,-157.227
1690202420.458,29.785,-30.762,-40.039,89.355,-6.836
1690202420.462,29.785,-29.785,-35.645,178.223,50.293
1690202420.465,-42.480,-33.691,-33.691,0.488,120.117
1690202420.469,-104.004,-36.133,-28.809,-201.660,313.965
1690202420.473,-74.219,-27.344,-40.039,-168.457,42.480
1690202420.477,13.672,-24.902,-44.434,66.895,-192.383
1690202420.481,30.273,-34.668,-33.691,185.059,41.016
1690202420.483,-48.340,-37.109,-30.273,23.438,57.129
1690202420.487,-116.211,-32.227,-32.227,-205.078,-188.965
1690202420.491,-82.031,-29.297,-34.180,-195.801,-191.406
1690202420.495,18.555,-32.227,-38.574,33.203,-53.711
1690202420.499,41.016,-24.414,-34.668,178.711,13.184
1690202420.503,-39.062,-16.113,-32.227,51.270,66.406
1690202420.507,-104.980,-26.855,-32.227,-176.758,-6.348
1690202420.510,-83.984,-36.621,-32.227,-209.961,113.770
1690202420.514,-0.488,-30.762,-33.203,1.953,105.957
1690202420.518,37.598,-28.809,-32.227,169.434,-39.551
1690202420.522,-17.578,-26.855,-28.320,73.730,-5.859
1690202420.526,-87.402,-22.461,-29.297,-150.391,53.711
1690202420.527,-83.984,-20.020,-33.203,-218.750,-145.020
1690202420.531,-7.324,-18.555,-33.203,-42.969,-236.328
1690202420.535,32.227,-20.508,-30.762,154.785,-147.461
1690202420.539,-4.395,-20.996,-30.762,108.887,-103.516
1690202420.543,-74.707,-19.043,-27.832,-131.348,-178.223
1690202420.547,-82.520,-20.508,-32.227,-236.816,-234.375
1690202420.551,1.465,-23.926,-36.133,-60.059,60.059
1690202420.554,44.922,-30.273,-30.762,145.020,290.039
1690202420.558,-2.930,-31.250,-26.367,105.469,-22.461
1690202420.562,-84.961,-33.691,-29.297,-116.211,-196.289
1690202420.566,-104.004,-37.598,-33.691,-242.676,-64.453
1690202420.570,-31.738,-35.156,-33.691,-107.422,36.621
1690202420.589,44.434,-27.832,-37.598,122.070,-25.391
1690202420.593,23.926,-22.461,-33.203,138.184,-98.145
1690202420.597,-69.824,-26.367,-27.832,-73.242,8.789
1690202420.601,-105.469,-30.762,-33.203,-233.887,-131.836
1690202420.605,-39.062,-31.738,-33.203,-123.047,-279.297
1690202420.609,41.992,-30.273,-33.203,120.117,16.113
1690202420.613,25.391,-28.809,-32.715,176.758,413.086
1690202420.616,-64.453,-26.855,-26.367,-36.621,87.402
1690202420.620,-105.469,-34.668,-32.227,-232.910,-272.461
1690202420.624,-43.457,-41.504,-42.480,-149.902,-174.316
1690202420.628,42.480,-34.180,-34.180,93.262,-87.402
1690202420.632,38.574,-25.879,-26.367,172.363,-67.871
1690202420.633,-47.363,-25.879,-31.250,-8.789,-149.414
1690202420.637,-96.680,-25.879,-31.250,-209.473,-208.008
1690202420.641,-51.758,-22.461,-26.855,-171.875,-73.730
1690202420.645,27.344,-23.438,-31.250,64.453,-52.734
1690202420.649,42.969,-28.809,-30.273,181.152,-63.477
1690202420.653,-30.762,-37.109,-33.203,27.344,107.422
1690202420.657,-98.145,-32.227,-37.598,-198.730,140.137
1690202420.660,-67.383,-19.043,-33.203,-194.824,-52.734
1690202420.664,13.184,-15.137,-32.227,37.598,-125.000
1690202420.668,33.691,-20.508,-32.715,187.988,176.758
1690202420.672,-27.832,-24.902,-27.344,66.895,461.426
1690202420.676,-105.469,-25.879,-25.879,-175.781,134.277
1690202420.693,-92.773,-26.855,-28.320,-220.215,-232.422
1690202420.697,-4.395,-21.973,-20.996,3.906,-130.371
1690202420.701,39.551,-17.090,-19.531,187.012,-39.062
1690202420.705,-19.531,-18.066,-23.438,91.797,-125.488
1690202420.709,-94.727,-23.438,-22.949,-151.855,-145.020
1690202420.713,-85.938,-27.344,-26.855,-214.844,34.668
1690202420.717,0.488,-27.344,-21.484,-12.207,40.039
1690202420.720,41.504,-28.809,-19.531,168.945,-34.668
1690202420.724,-17.090,-33.203,-30.762,101.074,-70.801
1690202420.728,-97.168,-34.668,-35.645,-127.441,122.559
1690202420.732,-97.168,-39.062,-34.180,-233.887,-34.668
1690202420.736,-18.066,-34.180,-32.227,-61.035,-254.883
1690202420.723,31.250,-31.250,-28.809,154.785,-63.965
1690202420.727,-6.348,-31.250,-25.391,120.605,40.039
1690202420.731,-77.637,-20.996,-30.762,-105.957,-89.355
1690202420.735,-105.957,-21.484,-35.645,-244.141,-210.938
1690202420.739,-41.992,-24.414,-36.621,-97.168,-98.633
1690202420.743,28.809,-26.367,-38.086,132.812,143.066
1690202420.747,2.441,-28.809,-33.691,135.254,82.031
1690202420.750,-79.590,-29.297,-32.715,-81.055,-97.656
1690202420.754,-106.445,-30.273,-31.738,-233.887,-62.988
1690202420.758,-48.340,-32.227,-33.203,-126.953,-22.461
1690202420.762,23.926,-31.738,-32.227,104.492,-65.430
1690202420.766,17.578,-35.156,-21.973,146.484,-92.773
1690202420.768,-69.824,-39.062,-29.785,-63.965,98.633
1690202420.772,-118.164,-31.738,-37.598,-235.352,355.469
1690202420.776,-62.012,-23.438,-36.133,-155.762,72.754
1690202420.780,22.949,-27.832,-32.715,67.383,-139.160
1690202420.784,26.367,-28.320,-27.832,139.160,-37.598
1690202420.788,-49.805,-18.066,-32.715,-34.180,-59.082
1690202420.792,-99.121,-16.113,-37.598,-227.539,-174.316
1690202420.795,-59.082,-29.785,-36.133,-178.711,-183.594
1690202420.799,25.391,-35.156,-35.156,67.871,157.715
1690202420.803,33.691,-29.785,-39.062,164.062,205.566
1690202420.807,-46.387,-29.785,-36.133,-5.371,-88.867
1690202420.811,-97.168,-25.879,-36.133,-208.984,-163.574
1690202420.814,-68.848,-30.273,-38.086,-191.406,-48.340
1690202420.818,7.324,-35.645,-39.551,39.062,-65.430
1690202420.822,41.992,-33.691,-38.086,178.711,-85.938
1690202420.826,-36.133,-26.367,-36.621,38.086,-58.594
1690202420.830,-106.445,-25.879,-39.062,-200.684,-159.668
1690202420.834,-81.055,-28.809,-42.480,-219.727,-149.902
1690202420.838,-3.906,-26.367,-35.156,-3.418,3.906
1690202420.841,32.227,-27.344,-29.297,154.785,147.949
1690202420.845,-19.531,-22.461,-38.086,62.500,330.566
1690202420.849,-85.449,-16.602,-40.039,-165.527,100.098
1690202420.853,-74.219,-15.137,-31.250,-224.121,-204.102
1690202420.857,-0.488,-20.508,-34.668,-20.996,29.785
1690202420.858,38.574,-18.555,-35.645,160.156,273.438
1690202420.862,-8.301,-13.184,-35.156,80.566,-26.855
1690202420.866,-81.055,-18.066,-34.668,-145.020,-186.035
1690202420.870,-94.238,-16.602,-32.227,-235.840,-69.824
1690202420.874,-13.184,-15.137,-32.715,-55.176,-111.816
1690202420.878,48.340,-19.043,-31.250,160.645,-66.406
1690202420.882,8.789,-21.973,-29.297,122.070,2.930
1690202420.885,-73.730,-24.902,-31.738,-110.352,164.062
1690202420.889,-97.168,-24.414,-37.598,-240.234,43.457
1690202420.893,-31.738,-22.949,-38.086,-96.191,-204.102
1690202420.897,36.133,-19.043,-26.855,133.301,-158.203
1690202420.901,9.277,-22.949,-21.973,134.277,-125.000
1690202420.904,-69.336,-29.785,-29.297,-92.285,-177.734
1690202420.908,-103.516,-32.227,-31.250,-244.629,-283.203
1690202420.912,-46.875,-27.344,-32.715,-117.676,-186.035
1690202420.916,28.809,-14.648,-34.180,117.676,-31.250
1690202420.920,16.602,-14.160,-31.738,143.066,-94.727
1690202420.924,-67.383,-21.973,-30.762,-66.406,-97.168
1690202420.928,-115.234,-21.973,-23.438,-238.770,66.406
1690202420.931,-54.688,-22.461,-19.043,-148.926,265.137
1690202420.935,35.645,-17.578,-22.949,89.355,44.922
1690202420.939,30.762,-17.090,-18.555,156.738,-79.102
1690202420.943,-58.105,-24.414,-19.531,-32.715,51.758
1690202420.947,-105.469,-24.902,-32.715,-227.051,-123.535
1690202420.948,-59.570,-20.508,-28.809,-175.781,-284.668
1690202420.952,24.414,-24.414,-25.879,66.406,-112.793
1690202420.956,45.410,-29.297,-27.832,175.781,16.602
1690202420.960,-34.180,-28.320,-22.461,3.418,-99.121
1690202420.964,-101.562,-27.344,-23.438,-213.867,-240.234
1690202420.968,-60.059,-29.297,-27.344,-188.477,-162.598
1690202420.972,15.625,-33.691,-30.273,50.781,324.219
1690202420.975,28.320,-27.832,-30.762,182.617,395.996
1690202420.979,-35.645,-25.391,-30.273,33.203,-50.293
1690202420.983,-104.980,-27.832,-32.715,-198.730,-182.617
1690202420.987,-77.148,-32.715,-28.809,-206.055,-76.660
1690202420.991,2.441,-32.227,-26.855,18.066,-130.859
1690202420.993,31.250,-30.273,-29.785,168.457,-82.031
1690202420.997,-21.973,-34.668,-31.738,59.570,-27.832
1690202421.001,-97.168,-28.320,-37.109,-174.805,-111.816
1690202421.005,-81.543,-25.391,-37.598,-220.215,-166.504
1690202421.009,-0.488,-29.297,-30.273,-11.230,-137.695
1690202421.013,35.156,-26.855,-32.227,156.250,160.645
1690202421.017,-15.625,-22.949,-41.016,62.500,217.773
1690202421.020,-96.191,-23.438,-41.992,-150.879,-60.059
1690202421.024,-98.145,-28.809,-34.668,-232.422,-183.594
1690202421.028,-14.648,-30.273,-27.344,-57.617,59.082
1690202421.032,43.945,-25.391,-31.250,157.227,431.152
1690202421.036,0.488,-21.484,-32.715,107.910,157.227
1690202421.053,-85.449,-26.367,-32.227,-121.094,-152.344
1690202421.057,-100.098,-31.250,-33.691,-238.281,-183.594
1690202421.061,-22.949,-30.273,-35.156,-86.914,-189.453
1690202421.065,38.086,-29.297,-31.250,131.836,-126.953
1690202421.069,0.977,-37.109,-29.297,119.141,-83.984
1690202421.073,-84.961,-37.109,-30.762,-100.586,75.684
1690202421.077,-113.281,-27.344,-29.297,-250.488,-11.719
1690202421.080,-36.621,-22.949,-32.227,-123.047,-167.969
1690202421.084,37.109,-24.414,-33.203,126.465,-69.824
1690202421.088,14.160,-27.832,-30.273,157.227,280.273
1690202421.092,-72.754,-26.855,-26.855,-70.801,116.699
1690202421.096,-109.863,-32.715,-33.203,-241.699,-286.621
1690202421.098,-43.945,-31.738,-34.668,-136.230,-218.750
1690202421.102,23.926,-26.367,-32.715,109.375,18.066
1690202421.106,20.508,-20.996,-33.203,172.363,-4.395
1690202421.110,-57.617,-18.555,-30.273,-24.414,-141.113
1690202421.114,-108.398,-21.973,-25.391,-220.703,-165.527
1690202421.118,-56.152,-22.461,-27.344,-159.668,-59.082
1690202421.122,25.879,-25.879,-32.715,82.031,98.633
1690202421.125,30.273,-27.344,-27.344,171.875,7.812
1690202421.129,-39.551,-33.691,-26.855,3.906,60.547
1690202421.133,-87.402,-35.156,-31.250,-198.730,400.391
1690202421.137,-55.176,-31.738,-29.297,-187.988,1.953
1690202421.141,22.461,-30.273,-25.391,32.227,-235.840
1690202421.143,42.969,-20.508,-27.832,175.293,64.941
1690202421.147,-28.809,-20.996,-23.438,30.762,1.465
1690202421.151,-98.633,-23.926,-20.996,-192.383,-210.938
1690202421.155,-79.102,-21.973,-27.344,-200.195,-219.238
1690202421.159,4.883,-24.902,-28.320,12.207,-70.312
1690202421.163,37.109,-24.414,-30.273,176.758,16.113
1690202421.167,-28.320,-27.344,-29.297,60.547,-43.945
1690202421.170,-102.539,-29.297,-24.902,-179.199,-123.535
1690202421.174,-86.914,-27.344,-27.344,-215.332,116.699
1690202421.178,-6.348,-26.855,-31.738,-18.555,138.672
1690202421.182,33.203,-28.320,-33.691,153.809,-90.332
1690202421.186,-20.508,-32.227,-33.691,78.613,-94.727
1690202421.188,-101.074,-35.156,-34.180,-155.762,-112.793
1690202421.192,-100.586,-35.645,-36.133,-235.352,-209.473
1690202421.196,-19.531,-38.086,-34.180,-49.805,-223.633
1690202421.200,36.133,-33.691,-33.203,154.785,-44.922
1690202421.204,-1.465,-23.926,-37.109,111.816,63.965
1690202421.208,-84.473,-22.949,-36.133,-116.211,4.883
1690202421.212,-92.285,-25.879,-27.832,-221.191,-150.879
1690202421.215,-18.555,-22.461,-29.297,-59.082,0.000
1690202421.219,31.250,-20.020,-32.715,148.438,275.391
1690202421.223,3.418,-20.020,-30.273,130.859,24.414
1690202421.227,-68.359,-19.043,-26.855,-83.496,-204.590
1690202421.231,-92.773,-15.625,-25.391,-220.215,-102.051
1690202421.233,-24.902,-20.508,-29.785,-95.215,-52.734
1690202421.237,48.828,-28.809,-28.320,127.441,-133.301
1690202421.241,24.414,-29.297,-29.785,155.273,-63.965
1690202421.245,-61.035,-24.414,-37.598,-55.176,-22.949
1690202421.249,-98.145,-23.926,-40.527,-218.262,-63.965
1690202421.253,-48.828,-25.391,-35.645,-120.605,-85.938
1690202421.257,30.762,-32.227,-34.180,114.746,-9.277
1690202421.260,29.297,-39.551,-41.504,180.664,444.336
1690202421.264,-55.664,-34.668,-41.016,-30.273,276.367
1690202421.268,-104.980,-26.855,-34.180,-224.121,-232.422
1690202421.272,-53.223,-27.344,-31.738,-153.320,-189.453
1690202421.276,21.973,-31.250,-27.832,82.520,95.703
1690202421.278,28.320,-26.367,-24.414,178.711,70.312
1690202421.282,-45.898,-25.391,-30.273,4.883,-83.984
1690202421.286,-104.980,-23.926,-33.203,-199.707,-199.707
1690202421.290,-61.523,-22.949,-30.762,-170.410,-209.473
1690202421.294,21.973,-31.250,-26.855,59.570,-102.539
1690202421.298,41.504,-26.855,-27.344,192.871,36.133
1690202421.302,-29.297,-20.020,-28.809,41.016,201.660
1690202421.305,-97.168,-17.578,-31.738,-188.965,202.637
1690202421.309,-80.566,-23.438,-34.180,-205.566,-78.125
1690202421.313,1.465,-27.832,-37.598,15.137,-125.488
1690202421.317,33.203,-25.391,-37.109,181.152,100.586
1690202421.321,-23.926,-23.926,-35.156,65.918,175.781
1690202421.323,-94.238,-25.391,-30.273,-180.664,-178.223
1690202421.327,-81.543,-27.344,-25.391,-227.539,-269.531
1690202421.331,13.672,-21.484,-26.855,-14.160,-99.121
1690202421.335,56.152,-20.508,-26.855,164.551,-27.832
1690202421.339,-7.324,-23.926,-24.902,70.801,-147.949
1690202421.343,-88.867,-25.391,-32.715,-159.668,-154.785
1690202421.347,-85.938,-28.320,-36.621,-224.121,152.832
1690202421.350,-15.137,-27.344,-37.598,-44.922,14.648
1690202421.354,28.809,-28.320,-37.109,139.160,-163.086
1690202421.358,-16.602,-37.109,-43.457,84.473,-70.801
1690202421.362,-93.262,-38.086,-42.969,-127.441,59.082
1690202421.366,-96.191,-32.227,-37.109,-232.910,-122.070
1690202421.368,-23.438,-35.645,-35.645,-84.961,-263.672
1690202421.372,39.062,-37.109,-36.133,133.789,-68.359
1690202421.376,5.859,-31.250,-41.992,126.953,58.594
1690202421.380,-77.637,-25.879,-38.086,-93.262,-104.492
1690202421.384,-95.215,-26.855,-34.180,-234.375,-212.402
1690202421.388,-25.879,-29.297,-37.598,-100.586,25.879
1690202421.392,47.852,-23.438,-33.691,133.301,189.941
1690202421.395,20.996,-20.020,-37.109,144.043,7.812
1690202421.399,-63.477,-25.879,-34.180,-73.730,-158.691
1690202421.403,-92.773,-29.785,-24.414,-232.422,3.418
1690202421.407,-34.180,-26.367,-25.391,-122.559,195.312
1690202421.411,48.340,-23.926,-27.832,107.422,-35.156
1690202421.427,34.180,-23.438,-26.855,157.227,-46.875
1690202421.431,-57.129,-25.391,-35.645,-40.527,170.410
1690202421.435,-104.004,-26.855,-35.645,-229.492,-61.035
1690202421.439,-50.293,-24.902,-34.180,-157.227,-269.043
1690202421.443,35.645,-22.949,-31.738,80.566,-134.766
1690202421.447,41.016,-20.020,-29.297,171.875,85.449
1690202421.451,-25.879,-20.020,-32.715,20.508,34.668
1690202421.454,-65.918,-34.180,-24.902,-175.781,-208.496
1690202421.458,-56.152,-48.340,-17.578,-169.434,-206.055
1690202421.462,-2.441,-47.363,-24.902,50.293,113.770
1690202421.466,14.160,-35.156,-32.715,160.645,83.008
1690202421.470,-86.426,-29.297,-28.320,-13.184,-173.828
1690202421.473,-170.898,-38.574,-28.809,-240.234,-219.238
1690202421.477,-139.160,-42.480,-29.785,-239.746,-156.250
1690202421.481,-52.246,-49.316,-18.066,-10.742,-81.055
1690202421.485,-32.227,-59.082,-15.137,123.047,-23.926
1690202421.489,-89.844,-61.523,-16.602,8.789,37.109
1690202421.493,-155.273,-53.223,-6.836,-204.102,91.309
1690202421.497,-140.625,-68.848,-4.883,-250.488,-30.273
1690202421.500,-42.969,-100.098,-1.953,-34.668,-151.367
1690202421.504,-0.977,-98.633,0.488,149.414,52.246
1690202421.508,-64.453,-74.707,-2.930,64.453,479.004
1690202421.512,-138.672,-52.246,-2.441,-180.664,87.891
1690202421.516,-127.441,-53.223,-8.789,-256.348,-296.387
1690202421.518,-41.992,-52.734,-12.695,-47.363,-92.285
1690202421.522,23.438,-33.203,-9.277,159.180,-6.348
1690202421.526,-12.695,-27.832,-15.137,98.633,-75.195
1690202421.530,-104.492,-34.180,-19.043,-135.254,-180.176
1690202421.534,-121.582,-27.832,-16.602,-240.234,-145.508
1690202421.538,-27.832,-25.879,-21.973,-46.875,-25.391
