timestamps,TP9,AF7,AF8,TP10,Right AUX
1692211327.240,-54.688,-42.969,-34.180,-53.223,-91.797
1692211327.244,-48.340,-39.062,-30.762,-54.199,-146.484
1692211327.248,-33.203,-30.762,-24.414,-18.066,-214.844
1692211327.252,-19.043,-29.297,-26.855,12.207,-138.672
1692211327.256,-20.508,-28.320,-28.809,3.906,-55.664
1692211327.260,-29.785,-26.367,-31.250,-24.902,-9.766
1692211327.264,-36.133,-27.832,-33.203,-34.668,-1.465
1692211327.267,-34.668,-30.762,-35.156,-18.555,12.207
1692211327.271,-30.762,-32.227,-32.227,2.441,216.309
1692211327.275,-30.273,-29.785,-31.250,-9.766,58.105
1692211327.279,-31.250,-22.949,-30.273,-41.016,-198.242
1692211327.283,-30.762,-19.043,-33.691,-49.316,-22.461
1692211327.284,-23.926,-17.578,-41.504,-33.691,51.270
1692211327.288,-20.996,-20.996,-39.551,-18.066,-140.137
1692211327.292,-21.973,-21.484,-37.598,-19.043,-164.062
1692211327.296,-25.391,-18.555,-35.645,-40.039,131.836
1692211327.300,-24.902,-18.066,-34.180,-55.176,279.785
1692211327.304,-20.996,-17.578,-30.762,-37.109,122.070
1692211327.308,-20.508,-22.461,-35.156,-12.695,41.504
1692211327.311,-16.602,-26.855,-39.551,-20.996,173.828
1692211327.315,-25.391,-22.949,-32.227,-46.875,224.609
1692211327.319,-37.109,-23.438,-28.809,-63.965,-137.207
1692211327.323,-30.273,-26.855,-28.320,-53.223,-201.172
1692211327.327,-23.926,-24.902,-25.391,-32.715,-57.617
1692211327.332,-23.926,-19.531,-23.438,-29.785,-58.105
1692211327.336,-25.391,-20.020,-23.438,-42.480,-134.766
1692211327.340,-32.227,-27.832,-22.461,-57.129,-49.805
1692211327.344,-33.691,-26.367,-20.508,-48.828,64.453
1692211327.348,-25.391,-24.414,-19.043,-12.695,2.441
1692211327.352,-25.391,-32.227,-23.438,-4.883,1.465
1692211327.356,-30.762,-32.227,-24.902,-29.785,63.477
1692211327.359,-32.227,-29.297,-21.484,-43.457,157.715
1692211327.363,-32.227,-27.344,-22.949,-38.574,-22.949
1692211327.367,-28.320,-25.391,-28.320,-22.949,-207.520
1692211327.371,-31.738,-28.809,-27.344,-7.812,-100.098
1692211327.375,-38.574,-30.273,-24.902,-12.695,-107.422
1692211327.374,-39.551,-29.297,-30.273,-37.598,-184.082
1692211327.378,-35.156,-31.738,-29.785,-44.434,-171.387
1692211327.382,-28.809,-29.297,-28.320,-29.297,39.551
1692211327.386,-27.344,-25.879,-32.227,-19.043,58.105
1692211327.390,-32.715,-27.344,-34.180,-33.203,-55.176
1692211327.394,-34.668,-30.762,-31.250,-53.223,-4.883
1692211327.398,-42.480,-34.668,-28.809,-54.688,177.246
1692211327.401,-44.434,-31.738,-31.250,-35.156,448.730
1692211327.405,-31.250,-23.438,-29.297,-13.184,191.895
1692211327.409,-26.367,-22.461,-28.809,-19.043,-181.641
1692211327.413,-26.855,-24.902,-28.809,-44.434,-201.660
1692211327.417,-26.367,-26.855,-31.250,-50.293,-175.781
1692211327.421,-24.414,-29.297,-34.668,-30.762,-214.844
1692211327.425,-26.367,-35.156,-37.109,-13.184,-140.625
1692211327.429,-29.785,-33.691,-38.086,-23.438,-82.031
1692211327.433,-33.203,-26.855,-30.273,-40.527,-146.484
1692211327.437,-42.480,-25.391,-31.250,-55.176,-178.223
1692211327.441,-35.156,-23.926,-36.621,-37.109,-70.312
1692211327.445,-23.926,-26.855,-32.715,-4.395,121.582
1692211327.448,-27.344,-28.809,-31.738,-8.301,73.730
1692211327.452,-26.367,-28.320,-30.762,-33.203,-133.301
1692211327.456,-26.367,-32.227,-30.762,-52.734,-146.484
1692211327.460,-26.855,-33.203,-34.180,-35.156,75.684
1692211327.464,-12.207,-24.414,-30.273,-5.371,-46.875
1692211327.465,-8.301,-17.578,-24.902,-13.184,-144.043
1692211327.469,-20.996,-25.391,-27.344,-25.879,-77.637
1692211327.473,-8.301,-38.574,-22.461,-21.973,-46.875
1692211327.477,-8.789,-25.879,-28.809,-29.297,-46.875
1692211327.481,-45.898,-8.301,-41.504,-50.293,-107.422
1692211327.485,-61.523,-15.137,-35.156,-52.246,181.641
1692211327.489,-60.059,-16.602,-29.297,-59.082,413.574
1692211327.492,-75.684,-14.648,-34.668,-92.285,-20.020
1692211327.496,-79.590,-16.602,-41.016,-87.402,-216.797
1692211327.500,-79.590,-12.207,-42.480,-64.941,7.812
1692211327.504,-84.473,-12.695,-41.504,-71.289,-33.203
1692211327.508,-87.402,-20.020,-40.527,-92.285,-188.477
1692211327.524,-90.820,-15.625,-40.527,-115.234,-145.996
1692211327.528,-88.867,-8.301,-37.109,-104.004,-83.496
1692211327.532,-87.402,-14.160,-42.969,-74.707,-72.754
1692211327.536,-75.684,-11.719,-36.621,-64.941,-165.039
1692211327.540,-67.383,-14.648,-34.668,-63.965,-120.117
1692211327.544,-66.895,-25.879,-36.133,-79.102,48.340
1692211327.548,-58.594,-30.762,-25.879,-70.801,2.441
1692211327.551,-61.035,-34.668,-30.273,-48.340,-105.469
1692211327.555,-57.129,-36.621,-27.344,-35.156,8.301
1692211327.559,-39.062,-26.367,-27.832,-29.785,182.617
1692211327.563,-36.133,-20.996,-28.320,-51.270,-18.555
1692211327.567,-29.297,-27.832,-24.902,-55.176,-180.176
1692211327.569,-16.602,-31.250,-27.344,-24.902,50.293
1692211327.573,-11.719,-25.879,-31.250,-5.371,110.840
1692211327.577,-12.695,-23.926,-30.762,-18.555,-33.203
1692211327.581,-18.066,-21.973,-27.344,-45.410,-116.699
1692211327.585,-15.625,-19.531,-25.879,-45.898,20.508
1692211327.589,-8.301,-20.996,-26.367,-13.672,186.035
1692211327.593,1.465,-21.484,-33.203,6.348,26.855
1692211327.596,10.254,-21.973,-31.250,-6.348,-136.230
1692211327.600,6.836,-16.113,-27.344,-25.391,30.762
1692211327.604,-6.348,-14.160,-28.809,-33.203,168.945
1692211327.608,-15.625,-19.043,-28.809,-17.578,-162.598
1692211327.612,-12.695,-24.902,-30.273,1.465,-131.836
1692211327.616,-22.949,-32.227,-31.738,-9.277,-34.668
1692211327.620,-35.156,-30.273,-36.621,-36.621,-112.305
1692211327.624,-30.762,-26.855,-38.574,-48.828,-159.180
1692211327.628,-28.809,-30.273,-38.574,-26.855,-75.195
1692211327.632,-26.367,-29.297,-31.738,-3.418,41.992
1692211327.636,-23.438,-24.902,-23.926,-6.836,50.781
1692211327.640,-29.785,-23.438,-20.996,-26.367,-12.695
1692211327.643,-22.949,-36.133,-13.672,-20.996,-22.949
1692211327.647,-9.277,-41.992,-14.160,8.301,136.719
1692211327.651,-24.902,-23.926,-29.297,5.859,-26.367
1692211327.655,-45.898,-18.066,-34.180,-28.809,-191.406
1692211327.659,-54.688,-24.414,-36.621,-59.570,-46.875
1692211327.660,-52.246,-20.020,-42.969,-66.406,-96.191
1692211327.664,-40.039,-12.207,-37.109,-41.016,-185.547
1692211327.668,-30.273,-10.742,-30.273,-23.926,-36.621
1692211327.672,-30.762,-9.277,-27.344,-25.879,244.629
1692211327.676,-40.039,-14.160,-33.691,-38.574,196.289
1692211327.680,-36.133,-22.461,-37.109,-62.988,-40.039
1692211327.684,-29.785,-24.414,-28.320,-48.828,-129.395
1692211327.687,-34.668,-22.949,-27.344,-24.902,69.824
1692211327.691,-30.762,-25.391,-29.297,-25.391,281.250
1692211327.695,-30.273,-26.367,-28.320,-51.758,-79.102
1692211327.699,-33.203,-21.973,-28.809,-67.383,-278.809
1692211327.703,-36.621,-25.391,-34.668,-57.129,-184.082
1692211327.705,-34.668,-26.367,-31.738,-42.969,-159.668
1692211327.709,-26.367,-21.484,-28.809,-27.832,-152.832
1692211327.713,-31.250,-18.066,-30.762,-35.156,-41.992
1692211327.717,-33.203,-22.949,-26.855,-58.105,-14.160
1692211327.721,-31.738,-29.785,-30.762,-49.316,-72.266
1692211327.725,-33.203,-25.879,-31.250,-27.832,16.113
1692211327.729,-28.320,-24.414,-29.297,-18.066,126.465
1692211327.732,-29.297,-26.367,-28.809,-31.250,254.883
1692211327.736,-35.156,-26.367,-26.367,-54.688,50.781
1692211327.740,-36.621,-24.902,-25.879,-55.664,-222.168
1692211327.744,-34.180,-28.809,-25.879,-32.715,-47.363
1692211327.748,-37.109,-31.738,-27.344,-14.160,164.551
1692211327.749,-38.574,-28.809,-27.344,-32.715,-32.227
1692211327.753,-37.109,-22.949,-24.902,-54.688,-210.938
1692211327.757,-38.086,-25.879,-30.273,-52.734,45.898
1692211327.761,-36.133,-35.645,-32.227,-34.668,113.281
1692211327.765,-28.809,-34.180,-25.879,-17.090,-127.930
1692211327.769,-26.855,-24.902,-30.273,-18.555,-159.668
1692211327.773,-28.320,-24.902,-28.320,-46.875,142.090
1692211327.776,-26.855,-25.879,-24.902,-56.641,280.762
1692211327.780,-26.367,-24.414,-32.227,-32.715,-95.703
1692211327.784,-31.738,-26.855,-31.738,-15.137,-190.918
1692211327.788,-30.273,-26.367,-27.344,-17.578,-88.379
1692211327.792,-27.832,-25.879,-29.785,-42.969,-153.809
1692211327.798,-30.762,-32.715,-34.180,-63.477,-267.090
1692211327.802,-26.367,-34.180,-32.715,-41.504,-248.535
1692211327.806,-25.879,-33.691,-30.762,-15.625,-125.000
1692211327.810,-26.855,-29.297,-33.203,-23.926,-79.102
1692211327.814,-31.250,-27.832,-35.156,-45.898,-198.730
1692211327.818,-29.785,-29.785,-33.691,-55.664,-101.562
1692211327.822,-22.461,-29.785,-30.762,-42.480,258.301
1692211327.825,-20.508,-29.297,-29.785,-20.020,80.566
1692211327.829,-19.043,-29.297,-27.832,-12.695,-221.191
1692211327.833,-20.508,-32.227,-25.879,-31.250,-151.855
1692211327.837,-24.902,-33.203,-30.273,-46.875,-117.676
1692211327.841,-25.879,-34.180,-31.250,-31.250,-230.469
1692211327.841,-21.484,-31.250,-22.461,1.953,-118.164
1692211327.845,-23.926,-30.273,-21.973,4.883,96.680
1692211327.849,-39.062,-34.668,-25.391,-24.414,57.129
1692211327.853,-53.711,-35.645,-29.297,-54.688,-10.254
1692211327.857,-48.340,-33.203,-31.250,-51.758,-85.449
1692211327.861,-42.969,-31.250,-33.691,-23.926,140.625
1692211327.865,-42.480,-30.762,-33.691,-13.184,670.898
1692211327.868,-38.086,-29.785,-36.133,-30.762,353.027
1692211327.872,-38.086,-29.785,-36.133,-53.711,-197.266
1692211327.876,-38.086,-31.250,-29.297,-51.758,-188.965
1692211327.880,-35.156,-31.250,-31.250,-29.297,-127.441
1692211327.884,-33.691,-34.668,-28.809,-13.672,-133.301
1692211327.900,-43.457,-39.551,-23.438,-29.785,-128.906
1692211327.904,-44.434,-35.645,-25.879,-48.828,-129.395
1692211327.908,-36.621,-27.344,-21.973,-49.316,-129.883
1692211327.912,-31.738,-28.809,-20.996,-24.902,-100.098
1692211327.916,-30.273,-28.320,-25.879,-2.930,-77.148
1692211327.920,-35.645,-24.414,-23.926,-22.461,218.750
1692211327.924,-40.039,-21.973,-28.320,-57.617,231.445
1692211327.927,-41.504,-23.926,-35.156,-67.871,-154.297
1692211327.931,-42.969,-32.715,-36.133,-49.805,-99.121
1692211327.935,-39.062,-31.738,-31.250,-28.809,106.934
1692211327.939,-35.645,-30.273,-37.109,-30.273,-92.285
1692211327.943,-37.109,-36.133,-43.457,-47.852,-216.309
1692211327.944,-35.156,-32.715,-33.203,-49.316,-122.070
1692211327.948,-28.320,-28.809,-28.320,-26.367,-113.281
1692211327.952,-20.996,-31.250,-34.180,-10.254,-68.359
1692211327.956,-26.367,-34.668,-33.691,-19.043,-56.152
1692211327.960,-33.691,-32.227,-31.738,-40.039,24.414
1692211327.964,-32.715,-27.344,-35.156,-52.734,131.348
1692211327.968,-31.738,-28.809,-30.762,-38.574,-7.324
1692211327.971,-25.879,-26.855,-27.344,-10.254,-72.266
1692211327.975,-21.973,-24.414,-31.738,-7.812,116.699
1692211327.979,-25.879,-27.832,-30.762,-33.203,282.715
1692211327.983,-24.902,-27.344,-28.809,-43.945,-74.707
1692211327.987,-26.367,-30.273,-33.203,-28.320,-202.637
1692211327.989,-20.996,-30.273,-38.086,-11.230,-90.820
1692211327.993,-20.020,-25.879,-28.320,-15.625,-84.473
1692211327.997,-27.832,-24.902,-23.926,-35.156,-107.910
1692211328.001,-36.621,-25.391,-31.250,-52.734,-105.957
1692211328.005,-44.434,-26.367,-24.902,-52.246,-76.660
1692211328.009,-42.969,-30.273,-26.855,-33.203,-27.832
1692211328.013,-42.480,-30.762,-39.062,-30.273,9.766
1692211328.016,-45.410,-29.297,-33.203,-48.340,-23.926
1692211328.020,-36.621,-27.832,-24.414,-56.641,325.195
1692211328.024,-30.762,-23.926,-29.297,-52.734,240.723
1692211328.028,-23.926,-20.996,-29.297,-15.137,-166.992
1692211328.032,-20.996,-23.926,-26.367,2.930,-48.340
1692211328.034,-29.297,-23.926,-30.762,-22.949,-22.461
1692211328.038,-32.715,-20.020,-24.902,-49.316,-159.668
1692211328.042,-36.621,-26.855,-23.926,-40.527,-199.219
1692211328.046,-27.832,-26.367,-30.762,-0.977,30.273
1692211328.050,-22.949,-20.020,-27.832,2.441,92.285
1692211328.054,-26.367,-23.438,-28.809,-13.672,-109.375
1692211328.058,-31.250,-28.809,-31.738,-37.598,-95.215
1692211328.061,-36.621,-34.668,-33.691,-48.340,154.785
1692211328.065,-37.598,-35.645,-33.203,-23.438,209.473
1692211328.069,-33.203,-29.785,-29.297,-4.883,-123.047
1692211328.073,-30.273,-26.855,-31.250,-20.508,-187.500
1692211328.077,-34.180,-23.926,-30.273,-49.805,-82.031
1692211328.079,-34.180,-27.832,-32.715,-59.082,-114.258
1692211328.083,-34.668,-32.715,-34.668,-40.527,-165.039
1692211328.087,-30.273,-29.785,-33.203,-23.438,-104.004
1692211328.091,-34.668,-25.879,-28.809,-34.668,-23.438
1692211328.095,-38.086,-22.949,-29.297,-59.082,-110.840
1692211328.099,-13.672,-16.113,-44.922,-54.688,-212.402
1692211328.103,0.000,-26.367,-42.480,-21.973,-37.109
1692211328.106,-14.160,-44.434,-29.297,-2.930,291.504
1692211328.110,-28.809,-34.668,-24.902,-21.484,143.066
1692211328.114,-24.902,-33.691,-22.461,-40.527,-141.113
1692211328.118,-27.344,-39.062,-23.926,-38.086,-89.355
1692211328.122,-28.809,-34.180,-21.973,-5.859,-55.176
1692211328.126,-23.438,-34.180,-23.438,17.090,-30.273
1692211328.130,-30.762,-40.527,-22.949,1.953,17.090
1692211328.134,-40.039,-43.457,-21.484,-20.996,200.684
1692211328.138,-41.504,-40.527,-22.461,-28.809,311.035
1692211328.142,-31.250,-39.551,-20.508,-11.719,-25.879
1692211328.146,-19.043,-41.992,-24.414,10.742,-140.137
1692211328.150,-14.160,-47.363,-29.785,9.277,223.145
1692211328.153,-17.090,-46.875,-29.785,-16.602,275.391
1692211328.157,-23.438,-39.551,-32.227,-39.062,-168.945
1692211328.161,-23.926,-38.574,-31.738,-24.902,-259.277
1692211328.165,-22.461,-37.109,-27.344,1.953,-116.699
1692211328.169,-20.996,-31.250,-29.297,5.859,-76.172
1692211328.171,-20.020,-31.250,-29.297,-14.160,-191.406
1692211328.175,-30.762,-35.645,-24.902,-37.109,-229.004
1692211328.179,-25.391,-25.879,-18.066,-18.066,-165.527
1692211328.183,-4.395,-18.555,-16.602,17.090,-54.199
1692211328.187,-16.602,-27.832,-30.762,7.324,-68.848
1692211328.191,-27.344,-23.926,-30.273,-22.461,-31.738
1692211328.195,-36.133,-23.926,-28.809,-49.316,327.637
1692211328.198,-50.781,-37.598,-33.691,-60.547,194.336
1692211328.202,-49.805,-30.273,-31.738,-35.156,-197.266
1692211328.206,-47.852,-26.855,-21.484,-14.648,-138.672
1692211328.210,-57.129,-40.039,-19.531,-38.086,-96.680
1692211328.214,-69.336,-38.574,-31.250,-77.148,-218.750
1692211328.215,-78.613,-36.133,-33.691,-90.820,-207.031
1692211328.219,-86.914,-34.668,-31.738,-77.637,-53.223
1692211328.223,-86.426,-31.250,-24.414,-61.523,-13.184
1692211328.227,-79.590,-26.367,-22.949,-66.406,-94.727
1692211328.231,-76.660,-20.996,-23.926,-101.562,-187.988
1692211328.235,-92.285,-21.973,-22.949,-116.699,57.129
1692211328.239,-101.074,-29.785,-20.020,-94.238,362.305
1692211328.242,-89.844,-29.785,-23.926,-81.055,144.531
1692211328.246,-81.543,-21.973,-27.832,-84.473,-138.184
1692211328.250,-86.426,-24.414,-25.879,-93.750,43.945
1692211328.254,-74.707,-32.715,-25.391,-86.426,121.094
1692211328.258,-53.223,-30.762,-23.438,-48.828,-166.016
1692211328.274,-41.992,-22.461,-29.785,-22.461,-98.633
1692211328.278,-41.992,-23.438,-31.250,-36.621,-34.668
1692211328.282,-41.504,-27.832,-30.762,-59.570,-133.301
1692211328.286,-34.668,-27.344,-33.203,-60.059,-220.215
1692211328.290,-32.715,-24.414,-30.762,-38.574,-141.602
1692211328.294,-27.344,-27.344,-31.738,-11.230,75.684
1692211328.298,-22.949,-28.320,-33.691,-14.160,93.262
1692211328.301,-21.973,-25.879,-29.297,-30.762,-68.359
1692211328.305,-14.160,-26.855,-26.367,-30.273,-22.949
1692211328.309,-1.465,-25.391,-23.438,-3.418,320.312
1692211328.313,-0.977,-23.926,-25.391,15.137,181.152
1692211328.317,-2.441,-23.926,-29.785,9.277,-202.148
1692211328.319,0.000,-23.438,-25.879,-0.977,-154.785
1692211328.323,-4.883,-23.438,-26.367,-11.230,-142.578
1692211328.327,-0.488,-22.949,-29.785,1.953,-137.695
1692211328.331,15.625,-20.020,-26.855,33.691,-72.754
1692211328.335,15.137,-20.996,-26.367,28.809,46.875
1692211328.339,6.348,-25.879,-29.785,-6.348,166.504
1692211328.343,0.000,-26.367,-28.809,-22.949,31.250
1692211328.346,-5.371,-24.902,-31.738,-15.137,-149.414
1692211328.350,1.465,-26.367,-32.715,15.137,80.078
1692211328.354,0.000,-27.832,-28.320,17.578,217.285
1692211328.358,-5.371,-26.855,-31.250,-11.719,-143.555
1692211328.362,-1.953,-26.367,-28.809,-21.484,-160.156
1692211328.364,0.000,-26.367,-28.320,-11.719,-47.363
1692211328.368,7.324,-27.832,-29.297,12.207,-49.805
1692211328.372,6.348,-25.391,-24.414,23.438,-153.809
1692211328.376,-11.719,-23.438,-23.926,1.953,-168.457
1692211328.380,-15.137,-27.344,-25.879,-22.949,-125.488
1692211328.384,-22.949,-24.902,-32.227,-24.902,-106.934
1692211328.388,-32.227,-27.832,-34.180,-4.883,-108.398
1692211328.391,-35.645,-35.156,-30.762,10.254,-33.691
1692211328.395,-26.855,-36.133,-31.250,-1.953,210.938
1692211328.399,-21.973,-29.785,-32.227,-27.344,38.086
1692211328.403,-30.273,-27.344,-28.809,-26.367,-223.145
1692211328.407,-24.414,-33.203,-26.855,-1.953,-130.859
1692211328.410,-31.250,-33.691,-27.832,11.230,-39.551
1692211328.414,-32.227,-31.738,-28.320,4.883,21.484
1692211328.418,-29.297,-29.785,-24.902,-22.949,-52.246
1692211328.422,-33.203,-33.691,-29.785,-29.785,-11.230
1692211328.426,-35.645,-36.621,-41.992,-5.859,167.969
1692211328.430,-39.551,-38.086,-40.527,10.254,30.273
1692211328.434,-31.738,-40.527,-34.668,-0.977,-93.262
1692211328.437,-23.926,-36.621,-31.250,-30.762,99.121
1692211328.441,-20.020,-28.320,-28.809,-34.668,182.617
1692211328.445,-21.973,-23.926,-29.785,-12.207,-130.859
1692211328.449,-25.391,-23.926,-30.273,8.301,-138.184
1692211328.453,-7.812,-20.996,-25.391,9.766,-67.871
1692211328.456,-6.348,-23.438,-25.879,-11.719,-142.090
1692211328.460,-20.020,-25.391,-26.367,-32.227,-192.383
1692211328.464,-24.902,-22.461,-21.973,-23.926,-120.117
1692211328.468,-34.180,-23.926,-25.879,-12.695,-31.250
1692211328.472,-42.480,-28.320,-30.273,-24.902,-18.066
1692211328.476,-38.574,-26.367,-34.668,-47.363,-76.172
1692211328.480,-25.391,-28.320,-36.133,-58.105,0.000
1692211328.483,-13.672,-22.461,-31.738,-38.574,206.543
1692211328.487,-8.789,-13.184,-33.691,-6.348,70.801
1692211328.491,-12.695,-21.484,-33.691,-9.277,-154.297
1692211328.495,-15.625,-30.762,-34.180,-42.480,-6.348
1692211328.499,-12.695,-47.852,-28.320,-43.945,154.785
1692211328.499,7.324,-45.898,-29.297,-8.301,-104.980
1692211328.503,2.930,-19.043,-44.922,2.930,-225.098
1692211328.507,-29.785,-12.207,-45.898,-27.832,14.648
1692211328.511,-47.852,-18.066,-39.062,-61.523,79.590
1692211328.515,-54.199,-19.531,-39.062,-75.195,-99.609
1692211328.519,-53.711,-16.113,-40.527,-76.172,-142.578
1692211328.523,-61.035,-11.719,-38.086,-59.570,154.785
1692211328.526,-65.430,-11.719,-41.992,-46.387,581.543
1692211328.530,-74.219,-5.859,-44.922,-68.359,219.238
1692211328.534,-86.426,-4.395,-44.922,-97.656,-250.488
1692211328.538,-76.660,-6.348,-43.945,-87.891,-193.359
1692211328.542,-63.965,-7.812,-41.504,-57.617,-156.738
1692211328.546,-56.641,-15.625,-36.133,-43.457,-139.160
1692211328.550,-50.781,-18.555,-34.180,-62.012,-161.621
1692211328.554,-50.781,-19.531,-31.250,-79.590,-120.117
1692211328.558,-52.246,-21.973,-24.414,-72.266,-85.449
1692211328.562,-39.062,-20.020,-30.273,-41.992,-172.852
1692211328.566,-26.367,-20.508,-37.598,-18.555,10.254
1692211328.570,-22.949,-24.902,-38.574,-29.297,340.332
1692211328.573,-23.438,-24.414,-37.109,-51.758,71.289
1692211328.577,-30.273,-24.902,-34.668,-52.246,-212.402
1692211328.581,-20.020,-22.461,-30.762,-21.973,-25.879
1692211328.585,-12.207,-20.996,-29.785,0.488,89.355
1692211328.589,-20.508,-18.066,-34.180,-21.484,-120.117
1692211328.590,-30.762,-17.578,-32.715,-50.781,-229.004
1692211328.594,-29.785,-21.973,-33.203,-56.641,-123.535
1692211328.598,-30.762,-30.273,-36.133,-42.969,-15.137
1692211328.602,-27.832,-38.086,-34.668,-18.555,-0.977
1692211328.606,-20.508,-30.762,-34.180,-20.508,-101.562
1692211328.610,-19.043,-26.367,-31.738,-39.062,80.078
1692211328.614,-11.719,-25.879,-28.809,-35.156,398.438
1692211328.617,-7.324,-18.555,-21.484,-17.090,95.215
1692211328.621,-11.230,-20.996,-21.973,0.000,-141.113
1692211328.625,-14.160,-20.996,-23.926,-0.488,-82.031
1692211328.629,-11.230,-20.508,-21.484,-19.531,-135.254
1692211328.633,-22.461,-23.438,-24.414,-38.086,-95.215
1692211328.638,-26.855,-27.344,-25.391,-28.809,-84.961
1692211328.642,-25.879,-32.227,-29.785,-8.789,0.977
1692211328.646,-23.926,-31.250,-28.320,-10.254,-22.461
1692211328.650,-17.090,-26.367,-21.973,-28.809,-260.742
1692211328.654,-21.973,-24.902,-26.367,-47.852,-250.488
1692211328.658,-27.832,-27.344,-33.203,-37.598,-92.285
1692211328.662,-26.855,-25.879,-33.691,-13.672,-30.273
1692211328.665,-21.484,-17.578,-30.273,-6.836,-128.906
1692211328.669,-20.996,-13.672,-33.691,-25.391,-143.555
1692211328.673,-28.320,-17.090,-35.156,-46.387,33.691
1692211328.677,-34.180,-20.508,-34.180,-42.480,-89.355
1692211328.681,-22.461,-17.578,-36.621,-6.348,-219.727
1692211328.709,-7.324,-15.625,-38.574,17.090,-73.730
1692211328.713,-26.367,-28.809,-22.461,-15.137,19.531
1692211328.717,-59.082,-35.645,-14.648,-65.430,14.648
1692211328.721,-60.059,-30.762,-20.020,-72.754,-88.867
1692211328.725,-41.992,-29.785,-17.578,-31.250,41.016
1692211328.729,-38.086,-30.762,-20.020,-12.695,452.148
1692211328.733,-41.992,-30.273,-20.508,-46.387,147.461
1692211328.736,-41.016,-29.297,-18.066,-68.359,-245.605
1692211328.740,-41.504,-33.203,-19.043,-61.035,-63.477
1692211328.744,-40.039,-32.715,-21.973,-40.039,-18.555
1692211328.748,-39.062,-27.832,-21.973,-16.602,-190.430
1692211328.752,-37.109,-25.879,-21.973,-20.996,-166.016
1692211328.741,-43.457,-21.973,-24.902,-48.340,-158.203
1692211328.745,-45.898,-22.949,-21.973,-48.340,-184.082
1692211328.749,-51.270,-25.879,-23.438,-29.785,-182.617
1692211328.753,-51.270,-31.250,-24.414,-13.672,-88.867
1692211328.757,-47.363,-34.180,-22.949,-21.484,9.277
1692211328.761,-51.270,-36.621,-28.320,-55.664,-40.527
1692211328.765,-43.945,-37.598,-26.855,-54.688,-130.371
1692211328.768,-43.945,-32.227,-23.438,-28.809,-91.797
1692211328.772,-37.109,-31.250,-27.832,-13.184,155.762
1692211328.776,-26.367,-28.809,-32.227,-25.391,26.855
1692211328.780,-31.250,-26.367,-31.738,-46.387,-269.531
1692211328.784,-39.062,-26.855,-28.809,-54.199,-112.305
1692211328.784,-32.715,-19.531,-27.832,-30.273,156.738
1692211328.788,-20.996,-17.090,-25.391,-1.465,-51.758
1692211328.792,-25.879,-21.484,-25.391,-11.719,-107.910
1692211328.796,-33.203,-24.902,-26.855,-47.363,100.586
1692211328.800,-26.367,-29.785,-27.832,-62.012,2.441
1692211328.804,-13.184,-23.926,-31.250,-44.922,-46.875
1692211328.808,-8.301,-21.484,-33.203,-22.461,-1.953
1692211328.811,-17.090,-25.391,-35.645,-25.391,246.094
1692211328.815,-36.133,-25.879,-36.621,-43.457,565.918
1692211328.819,-48.828,-29.297,-36.621,-58.105,186.523
1692211328.823,-54.199,-29.297,-32.227,-42.969,-186.035
1692211328.827,-50.781,-25.391,-29.785,-13.672,-53.223
1692211328.831,-42.969,-23.438,-32.227,-9.277,-62.012
1692211328.835,-44.922,-24.414,-32.715,-27.344,-117.188
1692211328.839,-42.969,-25.879,-27.832,-39.551,-119.141
1692211328.843,-42.969,-25.391,-26.367,-34.180,-145.508
1692211328.847,-37.598,-29.785,-27.832,-15.137,-80.566
1692211328.851,-29.785,-31.738,-29.785,-8.301,11.719
1692211328.855,-40.039,-27.832,-33.203,-33.203,64.941
1692211328.858,-48.340,-31.738,-32.227,-62.500,223.633
1692211328.862,-45.410,-31.738,-32.227,-58.105,50.293
1692211328.866,-38.574,-31.738,-39.551,-28.809,-90.332
1692211328.870,-32.715,-35.645,-41.504,-22.949,94.727
1692211328.874,-35.156,-39.551,-40.039,-49.316,62.012
1692211328.875,-44.922,-43.945,-37.598,-74.707,-151.367
1692211328.879,-41.016,-40.039,-32.715,-59.570,-222.656
1692211328.883,-35.156,-40.039,-38.086,-32.227,-31.738
1692211328.887,-41.504,-43.457,-42.480,-23.438,73.242
1692211328.891,-50.293,-45.410,-42.480,-41.016,-51.270
1692211328.895,-44.922,-45.410,-41.504,-63.965,-75.684
1692211328.899,-37.598,-38.086,-40.527,-52.246,181.641
1692211328.902,-35.645,-34.668,-40.527,-22.949,412.598
1692211328.906,-32.715,-34.668,-38.086,-21.973,18.555
1692211328.910,-37.598,-35.156,-36.133,-44.434,-224.121
1692211328.914,-40.039,-35.156,-34.668,-61.035,-117.188
1692211328.918,-38.086,-38.086,-35.156,-52.734,-65.430
1692211328.923,-33.203,-39.551,-39.551,-33.691,-141.602
1692211328.927,-30.762,-35.156,-34.180,-14.160,-139.160
1692211328.931,-39.551,-33.691,-36.621,-18.066,8.301
1692211328.935,-44.922,-32.227,-42.969,-45.898,-44.434
1692211328.939,-44.922,-36.621,-40.039,-62.500,-198.730
1692211328.943,-45.410,-44.434,-41.992,-39.062,-99.609
1692211328.947,-40.527,-36.133,-37.598,-13.184,55.176
1692211328.950,-36.133,-29.297,-34.668,-26.855,-60.059
1692211328.954,-31.738,-25.879,-37.598,-57.129,-185.059
1692211328.958,-29.297,-30.273,-34.180,-67.383,-91.309
1692211328.962,-24.414,-29.785,-28.809,-43.457,86.914
1692211328.966,-19.531,-26.855,-31.250,-20.996,-41.504
1692211328.980,-15.137,-27.832,-37.109,-24.414,-173.340
1692211328.984,-11.230,-26.367,-41.016,-41.016,-74.707
1692211328.988,-27.344,-27.344,-29.785,-50.781,-41.504
1692211328.992,-44.922,-26.367,-16.602,-42.480,-48.828
1692211328.996,-41.992,-28.320,-20.996,-28.809,25.391
1692211329.000,-30.273,-32.715,-22.461,-22.949,167.480
1692211329.004,-36.133,-39.062,-19.531,-37.598,526.855
1692211329.007,-46.875,-37.109,-25.391,-68.359,304.688
1692211329.011,-43.457,-37.109,-27.344,-63.477,-185.059
1692211329.015,-36.621,-39.551,-22.461,-35.645,-162.598
1692211329.019,-36.621,-39.551,-27.344,-32.227,-104.980
1692211329.023,-41.016,-40.527,-33.203,-47.363,-186.523
1692211329.024,-43.457,-40.039,-27.832,-62.500,-227.539
1692211329.028,-39.551,-35.645,-20.508,-50.781,-184.082
1692211329.032,-33.203,-35.156,-21.973,-23.438,-156.250
1692211329.036,-37.598,-38.086,-19.531,-13.184,-190.430
1692211329.040,-35.645,-33.203,-20.508,-29.297,-120.605
1692211329.044,-31.250,-27.832,-28.320,-54.688,34.180
1692211329.048,-35.156,-27.344,-31.250,-50.293,21.484
1692211329.051,-38.574,-35.156,-29.785,-28.809,-78.125
1692211329.055,-41.992,-38.086,-26.855,-16.602,-78.125
1692211329.059,-43.457,-33.203,-27.344,-27.832,89.355
1692211329.063,-45.898,-32.715,-29.785,-50.293,-41.992
1692211329.067,-43.945,-30.762,-27.832,-45.410,-230.957
1692211329.069,-36.133,-30.273,-27.344,-17.090,28.320
1692211329.073,-35.645,-32.227,-27.832,-13.184,196.777
1692211329.077,-35.156,-36.133,-28.809,-27.344,20.020
1692211329.081,-39.551,-37.109,-35.645,-45.410,-110.840
1692211329.085,-37.598,-33.203,-37.598,-54.688,30.273
1692211329.089,-31.738,-30.273,-35.156,-29.785,206.543
1692211329.093,-35.645,-34.180,-41.992,-11.230,63.477
1692211329.096,-35.156,-33.203,-43.945,-28.809,15.137
1692211329.100,-35.156,-30.762,-31.250,-56.152,68.848
1692211329.104,-38.574,-30.273,-30.762,-65.430,202.637
1692211329.108,-42.480,-32.715,-35.156,-60.059,-56.152
1692211329.112,-40.527,-33.203,-37.109,-43.457,-219.238
1692211329.115,-38.086,-27.344,-32.227,-33.691,-161.621
1692211329.119,-41.992,-23.438,-32.227,-54.199,-169.434
1692211329.123,-40.527,-33.203,-36.133,-72.266,-215.332
1692211329.127,-38.086,-37.109,-35.645,-42.480,-174.316
1692211329.131,-30.762,-27.344,-34.180,-7.812,-61.523
1692211329.135,-28.809,-26.367,-32.715,-15.137,79.590
1692211329.139,-36.133,-28.320,-34.180,-43.457,90.332
1692211329.142,-36.621,-31.738,-34.180,-59.570,-9.277
1692211329.146,-28.809,-29.297,-33.203,-34.668,138.672
1692211329.150,-20.996,-29.297,-27.832,-4.395,103.516
1692211329.154,-24.414,-30.273,-24.902,-5.371,-147.461
1692211329.158,-26.855,-27.832,-24.414,-28.809,-79.102
1692211329.159,-27.344,-27.344,-29.297,-50.781,-1.465
1692211329.163,-26.367,-26.367,-30.273,-39.062,-130.371
1692211329.167,-17.578,-24.414,-29.297,-1.465,-69.824
1692211329.171,-19.043,-24.414,-31.738,10.742,94.238
1692211329.175,-26.855,-25.879,-30.273,-22.461,87.891
1692211329.179,-25.879,-23.926,-30.762,-49.316,10.742
1692211329.183,-28.320,-22.949,-31.738,-35.156,-62.500
1692211329.186,-27.344,-27.344,-34.180,-11.719,72.266
1692211329.190,-29.297,-27.344,-35.645,-9.766,289.551
1692211329.194,-31.250,-26.367,-32.715,-34.180,-17.090
1692211329.198,-26.855,-32.227,-29.785,-57.129,-184.570
1692211329.202,-30.273,-33.203,-28.809,-54.199,-90.820
1692211329.207,-22.461,-29.297,-29.785,-29.297,-8.301
1692211329.211,-16.602,-28.320,-27.832,-23.438,-96.680
1692211329.215,-18.555,-23.438,-24.902,-38.574,-158.691
1692211329.219,-24.902,-20.508,-25.879,-52.246,-68.848
1692211329.223,-33.691,-26.855,-29.297,-41.992,-120.117
1692211329.227,-30.762,-26.367,-30.273,-13.184,-102.051
1692211329.231,-29.785,-21.973,-27.832,-7.324,-6.348
1692211329.234,-35.156,-23.438,-29.297,-23.438,200.195
1692211329.238,-34.668,-24.414,-25.879,-41.016,39.551
1692211329.242,-33.203,-25.391,-20.996,-41.016,-226.562
1692211329.246,-38.574,-29.785,-22.949,-24.414,-112.305
1692211329.250,-35.645,-32.227,-26.855,-14.648,-84.961
1692211329.251,-31.738,-28.320,-24.902,-21.484,-108.398
1692211329.255,-38.574,-28.320,-25.879,-46.875,-108.398
1692211329.259,-40.039,-29.297,-31.738,-58.594,18.555
1692211329.263,-41.016,-30.273,-22.949,-41.504,104.492
1692211329.267,-38.574,-27.344,-22.461,-20.020,11.719
1692211329.271,-37.598,-27.344,-31.250,-21.973,12.695
1692211329.275,-42.969,-30.762,-29.297,-41.992,150.391
1692211329.278,-42.969,-28.809,-31.738,-41.016,391.113
1692211329.282,-42.969,-29.785,-34.180,-23.926,158.203
1692211329.286,-32.227,-27.832,-31.738,-12.207,-215.820
1692211329.290,-27.344,-23.438,-32.227,-19.531,-182.617
1692211329.294,-41.016,-24.902,-36.621,-53.223,-184.082
1692211329.311,-53.223,-28.809,-40.527,-72.754,-255.859
1692211329.315,-53.711,-27.832,-40.527,-51.270,-224.609
1692211329.319,-47.363,-28.809,-36.133,-25.879,-138.184
1692211329.323,-41.992,-29.297,-34.668,-31.738,-119.141
1692211329.327,-40.527,-25.391,-33.691,-55.176,-139.648
1692211329.331,-36.621,-23.438,-30.762,-57.617,-38.086
1692211329.335,-33.203,-22.949,-35.645,-31.250,239.258
1692211329.338,-35.156,-23.438,-36.133,-11.719,199.707
1692211329.342,-34.180,-20.508,-35.156,-11.230,-80.078
1692211329.346,-33.203,-21.973,-34.180,-27.832,-98.145
1692211329.350,-33.691,-26.367,-32.715,-44.922,59.570
1692211329.354,-26.855,-23.438,-29.785,-34.180,-59.570
1692211329.354,-27.344,-21.973,-27.832,-12.207,-155.762
1692211329.358,-21.973,-27.832,-28.809,-7.324,-28.809
1692211329.362,-17.090,-31.250,-26.855,-30.273,-10.254
1692211329.366,-26.367,-31.738,-27.832,-51.758,-83.008
1692211329.370,-31.738,-32.227,-29.785,-46.387,-153.809
1692211329.374,-36.621,-32.227,-34.668,-19.531,70.801
1692211329.378,-35.156,-29.785,-34.668,-13.184,170.410
1692211329.381,-31.250,-25.391,-31.738,-29.785,-71.777
1692211329.385,-30.762,-22.461,-28.809,-53.711,-198.730
1692211329.389,-30.273,-20.020,-27.832,-48.828,4.395
1692211329.393,-23.926,-19.531,-30.273,-21.484,416.992
1692211329.397,-14.648,-23.438,-27.832,-14.160,146.973
1692211329.414,-12.207,-26.855,-21.484,-31.738,-220.215
1692211329.418,-17.578,-27.344,-22.949,-56.641,-101.562
1692211329.422,-22.461,-26.367,-29.785,-57.617,-50.293
1692211329.426,-16.602,-26.367,-30.273,-34.668,-143.555
1692211329.430,-15.137,-28.320,-28.809,-9.277,-130.859
1692211329.434,-27.344,-24.902,-31.250,-21.484,20.508
1692211329.438,-36.133,-17.578,-30.273,-56.152,17.578
1692211329.441,-36.621,-21.973,-34.668,-57.129,-115.723
1692211329.445,-30.762,-31.250,-33.691,-29.785,-91.797
1692211329.449,-19.531,-29.297,-30.273,-4.395,222.656
1692211329.453,-21.484,-24.414,-31.250,-18.555,115.234
1692211329.457,-33.203,-24.414,-28.320,-55.176,-214.844
1692211329.444,-36.133,-24.902,-27.832,-64.941,-95.703
1692211329.448,-33.691,-24.902,-30.762,-40.527,-11.230
1692211329.452,-29.785,-23.926,-28.320,-21.973,-57.129
1692211329.456,-33.203,-28.320,-31.738,-35.645,-75.684
1692211329.460,-41.016,-34.668,-34.180,-61.035,65.430
1692211329.464,-44.922,-34.668,-27.832,-69.336,184.082
1692211329.468,-38.574,-33.691,-28.320,-50.781,-87.891
1692211329.471,-27.832,-33.691,-28.320,-16.113,-152.832
1692211329.475,-26.367,-27.344,-27.344,-18.555,-78.613
1692211329.479,-29.297,-23.438,-27.832,-41.016,-90.332
1692211329.483,-31.738,-26.367,-27.344,-51.758,-153.320
1692211329.487,-23.438,-25.391,-25.879,-42.969,-194.824
1692211329.489,-20.508,-25.391,-30.273,-17.578,109.863
1692211329.493,-26.855,-27.344,-28.320,-18.555,316.895
1692211329.497,-27.832,-23.926,-25.879,-44.922,-77.637
1692211329.501,-27.832,-20.508,-26.367,-52.734,-176.270
1692211329.505,-25.391,-21.484,-30.762,-44.922,-135.742
1692211329.509,-10.742,-23.438,-39.062,-13.184,-109.375
1692211329.513,-4.395,-26.367,-34.180,2.930,-36.621
1692211329.516,-32.227,-34.668,-20.508,-28.320,-3.418
1692211329.520,-51.758,-33.691,-20.020,-45.898,163.086
1692211329.524,-46.387,-34.180,-24.414,-37.109,52.734
1692211329.528,-35.645,-36.621,-20.508,-13.184,-153.320
1692211329.532,-31.250,-34.180,-19.043,0.977,-74.707
1692211329.549,-34.180,-32.715,-14.648,-21.973,-60.059
1692211329.553,-33.203,-30.273,-14.648,-44.922,-161.133
1692211329.557,-36.133,-35.645,-24.414,-43.945,-153.320
1692211329.561,-30.273,-36.621,-30.762,-20.508,220.703
1692211329.565,-29.297,-34.668,-31.738,-9.277,403.320
1692211329.569,-36.133,-33.691,-26.367,-33.691,28.320
1692211329.573,-36.621,-31.250,-32.227,-60.547,-137.695
1692211329.576,-40.527,-28.809,-37.109,-53.223,71.289
1692211329.580,-33.691,-22.461,-28.320,-20.996,138.184
1692211329.584,-29.297,-25.391,-31.250,-13.672,-171.387
1692211329.588,-34.180,-30.762,-39.551,-30.273,-233.887
1692211329.592,-38.086,-28.320,-36.133,-45.898,-165.527
1692211329.579,-43.457,-27.344,-33.203,-41.504,-222.168
1692211329.583,-33.691,-30.273,-30.762,-11.230,-204.590
1692211329.587,-26.855,-35.156,-31.250,7.812,-59.082
1692211329.591,-30.762,-32.715,-28.809,-4.883,-6.836
1692211329.595,-30.762,-27.344,-28.809,-28.320,-103.516
1692211329.599,-31.250,-25.879,-37.109,-37.598,-121.094
1692211329.603,-32.715,-24.414,-35.645,-27.832,38.086
1692211329.606,-29.785,-26.855,-39.062,-6.836,141.602
1692211329.610,-33.203,-25.879,-40.527,-12.695,24.902
1692211329.614,-31.738,-20.996,-33.203,-31.250,-111.328
1692211329.618,-35.645,-22.461,-33.203,-35.156,-80.078
1692211329.622,-41.992,-28.320,-34.180,-24.902,127.930
1692211329.624,-30.762,-26.855,-28.809,-5.371,20.020
1692211329.628,-23.438,-26.367,-27.344,-10.742,-135.742
1692211329.632,-34.180,-33.691,-26.855,-40.039,48.828
1692211329.636,-40.039,-31.738,-24.902,-49.316,421.875
1692211329.640,-37.109,-28.809,-31.738,-34.668,208.008
1692211329.644,-31.738,-27.832,-30.273,-8.301,-127.930
1692211329.648,-29.785,-22.949,-26.855,-14.648,77.148
1692211329.651,-37.109,-25.391,-28.320,-47.363,199.707
1692211329.655,-32.715,-20.996,-26.367,-59.082,-120.605
1692211329.659,-27.832,-16.113,-30.273,-43.457,-231.445
1692211329.663,-16.602,-21.484,-30.273,-15.137,-64.941
1692211329.667,-13.184,-25.391,-28.809,-16.602,-49.316
1692211329.687,-12.695,-25.391,-30.273,-48.828,-193.359
1692211329.691,-6.836,-23.438,-31.250,-65.918,-197.266
1692211329.695,-21.973,-23.926,-31.738,-58.594,-135.254
1692211329.699,-29.785,-20.996,-34.180,-33.203,-110.840
1692211329.703,-23.926,-21.484,-34.180,-19.043,-148.438
1692211329.707,-29.297,-21.973,-31.738,-36.621,-55.176
1692211329.711,-34.180,-25.879,-32.715,-59.082,175.293
1692211329.714,-30.762,-25.879,-35.645,-45.898,9.766
1692211329.718,-35.645,-22.461,-31.250,-19.531,-194.824
1692211329.722,-45.898,-24.902,-32.715,-8.789,-74.707
1692211329.726,-49.805,-25.879,-35.645,-17.090,98.633
1692211329.730,-52.246,-27.832,-32.227,-50.293,-63.477
1692211329.730,-53.711,-30.762,-29.785,-47.363,-271.484
1692211329.734,-53.223,-30.762,-25.391,-10.742,-79.590
1692211329.738,-51.270,-26.855,-30.273,2.441,102.539
1692211329.742,-43.457,-21.973,-29.297,-16.602,-77.637
1692211329.746,-33.203,-20.996,-29.297,-43.945,-203.613
1692211329.750,-35.156,-24.902,-34.668,-48.828,20.508
1692211329.754,-34.180,-26.367,-31.250,-26.855,146.484
1692211329.757,-36.133,-25.879,-31.250,-9.277,-30.762
1692211329.761,-44.922,-30.273,-31.250,-25.391,-133.789
1692211329.765,-49.805,-33.691,-34.668,-61.523,64.453
1692211329.769,-51.758,-35.156,-31.738,-62.988,415.039
1692211329.773,-34.180,-31.738,-24.414,-33.691,92.773
1692211329.763,-19.531,-27.832,-24.414,-10.742,-119.141
1692211329.767,-24.414,-25.391,-26.367,-22.949,62.500
1692211329.771,-30.762,-29.297,-28.809,-53.711,-121.094
1692211329.775,-29.785,-36.621,-31.738,-64.941,-255.371
1692211329.779,-26.855,-33.691,-29.297,-40.039,-135.254
1692211329.783,-28.320,-34.668,-22.461,-9.766,33.203
1692211329.787,-27.832,-41.016,-25.391,-21.973,24.414
1692211329.790,-31.250,-42.969,-28.320,-46.875,-112.793
1692211329.794,-33.203,-40.527,-25.391,-59.570,-187.988
1692211329.798,-29.297,-34.180,-28.320,-41.016,190.918
1692211329.802,-24.414,-30.273,-27.344,-6.836,176.270
1692211329.806,-22.949,-30.762,-30.762,-10.254,-190.430
1692211329.819,-26.855,-33.691,-36.133,-31.738,-110.352
1692211329.823,-27.832,-37.109,-33.203,-49.316,-90.820
1692211329.827,-25.879,-39.551,-31.250,-43.945,-148.926
1692211329.831,-27.344,-36.133,-34.180,-16.602,-97.168
1692211329.835,-27.832,-33.203,-35.156,-8.301,199.707
1692211329.839,-33.691,-31.250,-39.062,-22.949,543.945
1692211329.843,-39.551,-24.414,-34.180,-42.480,165.039
1692211329.846,-37.109,-20.508,-29.785,-34.668,-279.297
1692211329.850,-33.203,-26.855,-32.715,-5.859,-72.754
1692211329.854,-32.227,-30.762,-28.320,-2.441,44.434
1692211329.858,-36.133,-31.738,-28.320,-35.156,-189.941
1692211329.862,-42.480,-35.645,-32.227,-59.570,-231.445
1692211329.866,-37.598,-33.691,-30.273,-45.898,-125.977
1692211329.870,-30.273,-27.832,-30.273,-14.160,-93.750
1692211329.874,-31.738,-24.902,-31.738,-7.812,-83.984
1692211329.878,-35.156,-23.926,-28.320,-26.855,-72.266
1692211329.882,-40.527,-26.367,-28.320,-47.852,-74.707
1692211329.886,-41.016,-27.832,-29.297,-47.852,-4.883
1692211329.890,-39.062,-31.738,-33.691,-31.250,22.949
1692211329.893,-32.227,-33.203,-34.668,-24.414,-38.574
1692211329.897,-33.691,-29.785,-31.738,-34.180,262.207
1692211329.901,-38.086,-22.461,-33.203,-58.594,229.492
1692211329.905,-33.203,-26.367,-38.086,-66.406,-214.355
1692211329.909,-31.738,-32.715,-38.574,-40.527,-130.371
1692211329.924,-26.367,-30.273,-29.785,-13.184,-13.672
1692211329.928,-32.227,-29.297,-26.855,-29.785,-100.586
1692211329.932,-42.969,-27.832,-31.738,-66.406,-88.379
1692211329.936,-44.434,-27.832,-33.203,-68.359,24.414
1692211329.940,-37.598,-29.297,-33.691,-37.109,-13.184
1692211329.944,-33.691,-32.227,-33.203,-18.555,28.320
1692211329.948,-31.250,-32.715,-35.156,-25.879,83.984
1692211329.951,-31.250,-30.273,-33.203,-48.828,101.562
1692211329.955,-35.645,-27.344,-25.879,-56.641,378.906
1692211329.959,-34.668,-27.832,-29.785,-38.574,168.457
1692211329.963,-34.180,-32.227,-36.621,-23.438,-218.262
1692211329.967,-36.133,-33.203,-30.273,-34.180,-194.824
1692211329.955,-34.668,-31.738,-30.762,-61.523,-210.449
1692211329.959,-32.227,-27.344,-37.598,-74.707,-270.508
1692211329.963,-32.715,-26.367,-37.598,-50.293,-203.613
1692211329.967,-24.902,-27.832,-34.180,-19.531,-114.746
1692211329.971,-20.508,-28.320,-31.250,-19.043,-120.605
1692211329.975,-30.273,-31.738,-35.645,-43.945,-170.898
1692211329.979,-43.457,-32.715,-37.109,-61.035,-81.055
1692211329.982,-44.922,-31.250,-34.668,-45.898,80.566
1692211329.986,-35.156,-30.762,-28.320,-13.672,-32.715
1692211329.990,-29.297,-32.715,-24.902,-12.695,-175.781
1692211329.994,-37.109,-31.250,-26.855,-37.109,-53.223
1692211329.998,-46.875,-29.297,-28.320,-60.059,377.930
1692211329.999,-41.504,-28.809,-27.344,-51.758,203.613
1692211330.003,-25.879,-27.344,-23.926,-13.672,-173.340
1692211330.007,-27.344,-29.297,-24.902,-4.395,161.621
1692211330.011,-35.645,-27.832,-26.855,-21.973,224.609
1692211330.015,-37.109,-26.855,-26.855,-45.410,-162.598
1692211330.019,-35.645,-25.391,-30.762,-41.016,-183.105
1692211330.023,-32.227,-27.344,-32.227,-15.625,93.750
1692211330.026,-36.621,-33.691,-33.203,-16.602,282.715
1692211330.030,-41.016,-28.320,-32.715,-38.574,-11.719
1692211330.034,-38.086,-25.879,-30.762,-53.223,-220.703
1692211330.038,-38.086,-30.762,-30.762,-55.664,-197.266
1692211330.042,-34.668,-34.180,-32.715,-39.062,-146.973
1692211330.048,-27.832,-29.297,-32.715,-13.672,-171.387
1692211330.052,-26.367,-25.879,-34.180,-28.809,-83.496
1692211330.056,-29.785,-24.414,-35.156,-59.570,19.043
1692211330.060,-15.137,-21.484,-33.691,-49.805,-94.238
1692211330.064,-3.418,-20.508,-33.203,-18.555,-161.133
1692211330.068,-11.719,-20.508,-31.250,-2.441,-17.578
1692211330.072,-23.438,-20.020,-32.227,-14.160,264.648
1692211330.075,-27.832,-18.066,-31.738,-38.574,100.098
1692211330.079,-36.621,-22.461,-22.949,-47.852,-219.238
1692211330.083,-44.434,-23.926,-21.484,-25.391,-98.145
1692211330.087,-34.668,-21.484,-23.438,-14.160,-39.062
1692211330.091,-28.809,-21.484,-20.996,-28.809,-156.250
1692211330.090,-36.621,-22.461,-24.902,-43.457,-205.566
1692211330.094,-36.133,-24.902,-28.320,-47.363,-48.828
1692211330.098,-29.785,-22.949,-26.367,-25.391,109.375
1692211330.102,-29.785,-26.367,-26.367,-1.465,48.828
1692211330.106,-33.203,-29.785,-25.391,-6.836,-14.160
1692211330.110,-35.645,-28.809,-29.297,-29.297,195.312
1692211330.114,-43.945,-24.902,-28.320,-38.086,504.395
1692211330.117,-41.992,-23.926,-27.344,-34.180,250.488
1692211330.121,-29.785,-23.926,-29.297,-21.484,-143.066
1692211330.125,-27.344,-19.531,-29.785,-17.578,-117.676
1692211330.129,-28.320,-21.484,-30.273,-42.969,-121.582
1692211330.133,-22.461,-23.926,-29.297,-59.082,-260.254
1692211330.152,-18.555,-28.320,-28.320,-32.715,-242.676
1692211330.156,-22.949,-30.273,-25.879,-2.930,-106.445
1692211330.160,-20.508,-29.297,-24.902,-9.766,-78.125
1692211330.164,-24.902,-30.273,-29.297,-33.203,-177.734
1692211330.168,-31.738,-28.809,-28.809,-53.711,-141.113
1692211330.172,-31.250,-28.809,-29.297,-37.109,-8.301
1692211330.176,-32.715,-26.855,-36.621,-9.766,31.250
1692211330.179,-38.574,-28.809,-37.598,-15.137,20.020
1692211330.183,-40.039,-29.785,-33.203,-38.086,-78.125
1692211330.187,-41.016,-26.367,-39.062,-49.805,202.637
1692211330.191,-40.039,-22.461,-39.551,-40.527,151.367
1692211330.195,-35.645,-24.414,-34.180,-24.902,-151.855
1692211330.194,-35.645,-29.785,-26.855,-8.301,-43.945
1692211330.198,-34.180,-29.785,-24.902,-21.484,-73.730
1692211330.202,-36.621,-28.809,-29.297,-47.363,-111.816
1692211330.206,-40.039,-24.414,-26.367,-42.969,-145.508
1692211330.210,-38.086,-26.367,-21.973,-21.973,-31.250
1692211330.214,-31.250,-27.344,-23.438,-15.137,137.695
1692211330.218,-25.391,-25.879,-31.250,-34.180,28.320
1692211330.221,-35.156,-27.832,-32.715,-54.688,-128.418
1692211330.225,-36.621,-22.949,-33.691,-49.316,-30.273
1692211330.229,-32.227,-25.879,-33.691,-23.438,388.672
1692211330.233,-30.762,-25.391,-34.180,-8.789,220.215
1692211330.237,-26.855,-23.926,-32.227,-29.785,-186.035
1692211330.239,-31.738,-25.391,-23.438,-55.664,-227.539
1692211330.243,-29.785,-22.461,-22.949,-55.176,-208.496
1692211330.247,-24.414,-21.973,-27.344,-33.691,-121.582
1692211330.251,-26.367,-24.414,-27.344,-20.508,-88.867
1692211330.255,-24.902,-26.367,-23.926,-31.250,-75.195
1692211330.259,-23.438,-28.320,-20.996,-51.270,5.371
1692211330.263,-19.531,-31.250,-21.484,-45.898,8.789
1692211330.266,-19.043,-23.926,-33.691,-31.250,12.695
1692211330.270,-24.414,-20.508,-41.504,-19.043,228.516
1692211330.274,-24.414,-20.020,-35.645,-27.344,114.746
1692211330.278,-26.367,-17.090,-37.598,-52.246,-223.633
1692211330.282,-26.855,-20.508,-38.574,-62.988,-71.289
1692211330.284,-28.320,-24.902,-40.527,-49.805,7.324
1692211330.288,-27.832,-29.297,-39.551,-13.672,-125.000
1692211330.292,-26.855,-28.320,-32.715,-8.789,-111.816
1692211330.296,-37.109,-26.367,-35.645,-45.410,32.227
1692211330.300,-36.621,-34.180,-34.180,-62.500,40.527
1692211330.304,-29.785,-38.574,-29.785,-43.945,-43.457
1692211330.308,-31.738,-33.203,-33.203,-21.484,-20.508
1692211330.311,-40.527,-34.180,-37.598,-17.090,112.305
1692211330.315,-48.828,-33.203,-37.598,-40.039,225.098
1692211330.319,-51.758,-32.227,-36.133,-60.547,-150.391
1692211330.323,-49.805,-37.598,-35.645,-50.781,-246.094
1692211330.327,-43.457,-36.621,-35.156,-34.180,-99.609
1692211330.331,-35.156,-34.180,-32.227,-25.391,-121.582
1692211330.335,-40.527,-37.598,-31.250,-45.410,-143.066
1692211330.339,-49.316,-37.598,-37.109,-70.312,-62.500
1692211330.343,-41.016,-34.180,-32.715,-55.664,7.812
1692211330.347,-33.203,-28.809,-26.855,-21.484,8.789
1692211330.351,-39.062,-33.203,-27.832,-20.996,-47.852
1692211330.355,-47.852,-41.992,-28.809,-45.898,-3.906
1692211330.358,-47.363,-36.133,-28.809,-56.152,200.195
1692211330.362,-39.062,-28.320,-20.996,-35.645,80.078
1692211330.366,-30.762,-30.273,-17.090,-7.324,-157.227
1692211330.370,-20.020,-28.809,-25.879,3.418,-77.148
1692211330.374,-18.555,-25.391,-29.297,-18.555,-55.664
1692211330.374,-22.949,-27.344,-33.691,-44.922,-166.504
1692211330.378,-22.461,-19.531,-32.227,-38.574,-236.816
1692211330.382,-18.555,-17.578,-28.809,-18.066,77.637
1692211330.386,-20.996,-25.391,-34.668,-9.277,243.164
1692211330.390,-20.508,-18.066,-30.273,-25.879,-18.555
1692211330.394,-27.344,-19.531,-26.367,-56.152,-121.094
1692211330.398,-31.250,-24.902,-25.879,-54.199,46.387
1692211330.401,-25.391,-21.484,-29.297,-22.949,397.949
1692211330.405,-19.531,-20.508,-35.645,-13.184,163.086
1692211330.409,-22.949,-26.855,-36.133,-26.855,-164.062
1692211330.413,-34.668,-33.203,-33.203,-49.316,-150.879
1692211330.417,-26.367,-26.367,-32.227,-52.734,-198.730
1692211330.421,-27.832,-23.438,-32.715,-27.832,-192.871
1692211330.425,-40.039,-28.809,-33.203,-10.742,-88.867
1692211330.429,-43.457,-29.785,-34.180,-27.344,-43.945
1692211330.433,-47.852,-30.273,-34.668,-53.223,-117.676
1692211330.437,-44.434,-28.809,-36.133,-54.688,-163.574
1692211330.441,-36.621,-29.785,-36.621,-36.133,-58.594
1692211330.445,-36.133,-29.297,-35.156,-18.066,261.719
1692211330.448,-40.039,-26.367,-30.273,-23.438,168.457
1692211330.452,-40.039,-28.809,-32.715,-50.293,-156.250
1692211330.456,-44.434,-30.273,-34.180,-62.988,-95.703
1692211330.460,-47.363,-29.297,-27.832,-35.645,75.684
1692211330.464,-41.992,-31.738,-30.273,-7.324,-22.949
1692211330.465,-45.410,-37.109,-32.715,-26.367,-122.070
1692211330.469,-53.223,-32.715,-27.344,-50.781,-91.309
1692211330.473,-41.504,-27.832,-28.809,-51.758,-7.324
1692211330.477,-33.691,-33.203,-34.180,-41.504,-78.613
1692211330.481,-31.250,-37.598,-36.133,-22.461,-224.609
1692211330.485,-20.508,-36.133,-33.203,-8.789,40.039
1692211330.489,-26.855,-31.738,-27.344,-30.762,431.152
1692211330.492,-39.551,-29.785,-32.715,-58.594,113.281
1692211330.496,-28.809,-26.367,-32.715,-46.875,-257.812
1692211330.500,-33.203,-25.879,-32.227,-18.555,73.730
1692211330.504,-40.527,-26.367,-36.621,-10.742,166.016
1692211330.508,-39.062,-28.320,-29.297,-32.715,-150.391
1692211330.524,-47.852,-32.715,-30.273,-54.688,-194.824
1692211330.528,-38.574,-29.297,-30.762,-45.898,-136.230
1692211330.532,-31.250,-25.391,-27.344,-13.672,-104.980
1692211330.536,-36.621,-26.367,-26.367,-1.953,-125.000
1692211330.540,-35.645,-27.832,-23.438,-22.949,-76.660
1692211330.544,-37.109,-28.320,-20.508,-48.340,39.551
1692211330.548,-43.457,-23.926,-24.902,-45.410,-18.555
1692211330.551,-45.410,-20.996,-31.738,-25.879,-103.516
1692211330.555,-34.668,-15.137,-27.832,-17.578,-40.039
1692211330.559,-33.691,-14.648,-27.832,-29.785,150.879
1692211330.563,-41.504,-21.484,-30.273,-53.711,1.953
1692211330.567,-43.945,-18.555,-27.344,-46.387,-167.480
1692211330.569,-41.016,-16.113,-25.391,-19.043,20.508
1692211330.573,-36.621,-20.996,-29.297,-13.672,92.285
1692211330.577,-42.969,-26.855,-29.297,-40.527,-34.668
1692211330.581,-50.293,-28.809,-27.832,-58.105,-148.926
1692211330.585,-40.039,-23.926,-28.809,-43.945,-11.719
1692211330.589,-30.762,-21.484,-25.879,-22.461,157.715
1692211330.593,-25.879,-28.320,-29.785,-7.812,23.926
1692211330.596,-21.973,-31.250,-30.273,-21.484,-144.043
1692211330.600,-21.484,-25.391,-25.879,-43.457,-34.180
1692211330.604,-16.113,-20.996,-20.020,-40.039,156.738
1692211330.608,-16.602,-23.926,-22.949,-18.555,-137.207
1692211330.612,-22.461,-26.855,-33.203,-3.418,-217.773
1692211330.631,-28.320,-29.297,-32.715,-7.812,-130.371
1692211330.635,-40.039,-27.832,-31.250,-37.598,-171.387
1692211330.639,-34.180,-25.391,-30.273,-57.129,-170.410
1692211330.643,-15.625,-21.484,-25.391,-30.762,-115.234
1692211330.647,-12.207,-19.531,-21.973,4.395,41.992
1692211330.651,-17.578,-25.879,-22.461,-0.977,93.750
1692211330.655,-20.020,-28.809,-29.297,-34.180,-87.402
1692211330.658,-20.020,-28.809,-26.367,-53.223,-143.555
1692211330.662,-17.090,-28.809,-23.438,-32.715,139.648
1692211330.666,-19.043,-21.484,-29.785,-6.836,148.438
1692211330.670,-26.367,-19.043,-28.320,-11.230,-111.328
1692211330.674,-31.738,-22.949,-31.250,-34.180,-81.543
1692211330.659,-33.203,-23.438,-35.645,-48.340,-96.191
1692211330.663,-34.180,-23.438,-36.133,-33.203,-146.973
1692211330.667,-37.598,-25.391,-36.133,-15.137,-39.551
1692211330.671,-41.016,-31.250,-35.645,-14.648,200.684
1692211330.675,-36.621,-30.273,-35.156,-33.691,189.453
1692211330.679,-33.691,-23.926,-37.109,-50.781,-120.117
1692211330.683,-29.785,-22.949,-35.156,-36.133,-85.449
1692211330.686,-22.461,-21.973,-28.320,-6.836,94.238
1692211330.690,-22.949,-26.367,-30.273,-5.859,15.625
1692211330.694,-24.902,-33.203,-34.180,-44.434,-93.750
1692211330.698,-26.855,-34.668,-31.738,-71.777,-210.938
1692211330.702,-21.973,-33.691,-27.832,-46.875,40.039
1692211330.705,-20.020,-30.273,-23.926,-12.695,325.195
1692211330.709,-13.672,-29.785,-20.996,-1.465,-48.828
1692211330.713,-13.184,-28.809,-21.484,-21.484,-214.844
1692211330.717,-15.625,-24.414,-28.809,-44.922,-166.016
1692211330.721,-3.418,-14.648,-32.715,-28.320,-191.895
1692211330.725,-7.324,-23.438,-23.438,-3.418,-118.652
1692211330.729,-30.273,-38.574,-22.461,-18.555,32.227
1692211330.732,-34.180,-32.715,-27.344,-38.086,135.254
1692211330.736,-17.578,-26.855,-20.508,-42.969,-4.883
1692211330.740,-17.090,-32.227,-20.020,-46.387,-189.941
1692211330.744,-20.508,-36.133,-20.996,-20.508,-87.402
1692211330.748,-23.926,-33.203,-21.973,4.395,206.543
1692211330.749,-24.902,-31.738,-27.832,-12.207,35.645
1692211330.753,-19.043,-30.273,-28.320,-33.203,-273.438
1692211330.757,-22.461,-23.926,-26.855,-40.527,-33.691
1692211330.761,-33.691,-22.949,-21.484,-38.086,87.402
1692211330.765,-29.785,-22.949,-20.508,-17.578,-131.348
1692211330.769,-27.832,-26.367,-24.414,-16.602,-53.223
1692211330.773,-39.551,-32.715,-20.020,-43.457,250.488
1692211330.776,-43.945,-29.297,-23.926,-56.641,258.789
1692211330.780,-34.668,-25.879,-32.715,-37.598,-123.047
1692211330.784,-24.902,-26.855,-32.715,-12.207,-179.688
1692211330.788,-28.320,-25.391,-32.227,-17.090,5.859
1692211330.792,-23.926,-27.344,-27.832,-35.645,-45.410
1692211330.796,-16.602,-29.785,-24.902,-35.645,-208.496
1692211330.800,-13.184,-33.203,-28.809,-11.230,-138.184
1692211330.804,-11.719,-34.180,-23.438,11.230,-49.805
1692211330.808,-15.137,-24.902,-21.973,3.418,-92.773
1692211330.812,-23.438,-22.949,-27.832,-24.414,-145.508
1692211330.816,-21.484,-25.879,-31.250,-39.551,-29.785
1692211330.820,-19.531,-19.531,-30.273,-31.250,221.191
1692211330.823,-17.578,-20.508,-29.785,-13.184,63.477
1692211330.827,-11.230,-25.879,-25.879,-9.766,-186.035
1692211330.831,-18.555,-27.344,-28.320,-30.273,-79.102
1692211330.835,-25.879,-29.297,-29.297,-46.387,-42.969
1692211330.839,-29.297,-33.203,-23.926,-34.668,-138.672
1692211330.841,-32.227,-34.668,-25.879,-11.230,-83.008
1692211330.845,-40.039,-33.691,-33.203,-11.230,85.938
1692211330.849,-42.969,-24.414,-33.203,-37.109,123.535
1692211330.853,-41.992,-19.531,-31.738,-61.035,-82.031
1692211330.857,-35.156,-26.855,-32.715,-54.688,-251.953
1692211330.861,-32.227,-29.785,-24.902,-29.297,72.754
1692211330.865,-40.039,-31.738,-31.250,-29.297,385.742
1692211330.868,-39.062,-29.785,-41.016,-51.758,-21.484
1692211330.872,-35.645,-23.926,-39.551,-67.871,-246.094
1692211330.876,-38.086,-25.879,-40.039,-57.129,-89.844
1692211330.880,-32.715,-26.367,-36.621,-23.926,-31.738
1692211330.884,-15.625,-20.996,-32.715,-2.441,-118.164
1692211330.900,-2.441,-23.438,-33.691,-6.836,-139.160
1692211330.904,-2.441,-22.949,-27.344,-19.531,-106.445
1692211330.908,-20.996,-18.555,-26.367,-40.039,-80.566
1692211330.912,-28.809,-21.973,-34.180,-25.391,-98.145
1692211330.916,-26.367,-27.344,-36.621,-11.719,-64.453
1692211330.920,-40.039,-27.832,-33.691,-32.715,263.672
1692211330.924,-43.945,-26.367,-31.250,-51.270,181.641
1692211330.927,-38.574,-29.785,-32.227,-51.270,-208.008
1692211330.931,-35.645,-31.738,-30.762,-23.438,-113.770
1692211330.935,-30.273,-32.227,-27.832,-4.883,79.590
1692211330.939,-35.156,-28.320,-27.832,-24.414,-90.332
1692211330.943,-43.457,-24.902,-29.297,-51.758,-225.586
1692211330.944,-43.945,-35.156,-28.809,-55.176,-42.969
1692211330.948,-34.668,-38.086,-28.809,-34.180,72.266
1692211330.952,-28.809,-28.809,-27.344,-7.812,-5.859
1692211330.956,-32.715,-28.320,-26.367,-13.184,-48.828
1692211330.960,-33.691,-31.250,-26.367,-41.016,33.203
1692211330.964,-25.879,-27.344,-27.344,-43.457,124.023
1692211330.968,-25.879,-23.438,-29.297,-16.602,0.000
1692211330.971,-24.414,-21.973,-28.320,-1.465,-55.176
1692211330.975,-17.578,-23.926,-24.414,-11.230,65.430
1692211330.979,-21.484,-25.879,-28.809,-32.715,223.145
1692211330.983,-25.391,-23.438,-31.738,-49.805,-92.773
1692211330.987,-20.020,-20.508,-25.879,-30.273,-201.172
1692211330.990,-17.578,-22.949,-27.344,-11.230,-73.730
1692211330.994,-18.555,-27.344,-30.762,-20.996,-47.852
1692211330.998,-23.438,-28.809,-30.273,-40.039,-137.695
1692211331.002,-32.227,-27.344,-27.832,-54.199,-169.922
1692211331.006,-30.762,-25.879,-24.902,-50.293,-138.184
1692211331.010,-25.391,-24.902,-28.809,-31.738,4.883
1692211331.014,-37.598,-24.902,-33.203,-34.180,72.754
1692211331.017,-39.551,-20.020,-26.855,-48.340,-22.949
1692211331.021,-16.113,-9.766,-36.133,-47.852,289.551
1692211331.025,-11.230,-16.602,-37.598,-32.227,240.723
1692211331.029,-24.414,-36.621,-19.531,-7.812,-147.949
1692211331.033,-38.574,-41.992,-13.672,-6.836,-91.309
1692211331.034,-42.969,-32.715,-20.996,-31.738,-54.199
1692211331.038,-41.016,-32.227,-28.320,-47.363,-143.555
1692211331.042,-43.457,-36.133,-24.902,-39.551,-190.918
1692211331.046,-44.434,-35.156,-20.996,-23.926,27.344
1692211331.050,-41.504,-35.156,-19.043,-18.555,134.277
1692211331.054,-44.434,-34.180,-17.090,-32.715,-62.012
1692211331.058,-42.480,-36.133,-20.020,-49.316,-84.961
1692211331.061,-40.039,-39.062,-24.902,-49.316,149.414
1692211331.065,-46.387,-38.086,-21.484,-28.320,260.742
1692211331.069,-46.875,-34.668,-13.672,-7.324,-18.555
1692211331.073,-42.969,-36.621,-16.602,-20.020,-71.777
1692211331.077,-38.086,-39.062,-22.949,-40.527,13.184
1692211331.094,-35.645,-34.668,-22.461,-41.992,-45.410
1692211331.098,-27.832,-31.250,-20.996,-12.695,-135.742
1692211331.102,-20.508,-28.809,-19.043,9.766,-90.820
1692211331.106,-28.809,-26.855,-20.020,-6.836,-59.570
1692211331.110,-35.645,-25.879,-24.902,-35.645,-109.375
1692211331.114,-29.785,-25.879,-28.809,-40.039,-67.383
1692211331.118,-31.250,-27.344,-29.785,-17.578,-31.250
1692211331.121,-31.250,-30.273,-24.902,3.418,191.406
1692211331.125,-30.762,-36.133,-28.320,-6.348,90.332
1692211331.129,-34.668,-36.133,-29.785,-33.691,-216.309
1692211331.133,-24.902,-27.344,-24.414,-43.457,-156.738
1692211331.137,-15.625,-22.949,-28.320,-21.484,-115.723
1692211331.126,-17.090,-22.949,-29.297,-0.488,-116.699
1692211331.130,-24.902,-20.508,-26.855,-6.348,-176.270
1692211331.134,-32.715,-23.926,-25.391,-34.668,5.371
1692211331.138,-30.762,-30.762,-28.809,-49.316,270.508
1692211331.142,-25.391,-27.344,-33.203,-30.273,-62.500
1692211331.146,-31.738,-27.832,-34.668,-8.789,-174.805
1692211331.150,-35.156,-28.320,-32.715,-18.066,105.469
1692211331.153,-34.180,-27.344,-33.203,-43.945,31.738
1692211331.157,-45.410,-31.250,-38.574,-55.664,-222.656
1692211331.161,-34.180,-29.785,-34.180,-39.062,-270.508
1692211331.165,-21.973,-24.902,-30.762,-7.324,47.363
1692211331.169,-25.879,-22.949,-33.691,-5.371,233.887
1692211331.171,-22.949,-20.996,-32.227,-31.250,-102.051
1692211331.175,-19.043,-18.066,-27.344,-38.086,-197.754
1692211331.179,-16.113,-24.414,-30.273,-28.320,-161.621
1692211331.183,-11.719,-25.879,-31.250,-13.672,-100.098
1692211331.187,-17.090,-21.484,-30.762,-10.742,-87.891
1692211331.191,-27.832,-20.020,-32.715,-25.391,-26.855
1692211331.195,-24.902,-16.113,-29.297,-39.062,399.414
1692211331.198,-20.020,-14.648,-32.715,-38.086,391.602
1692211331.202,-18.555,-17.090,-34.180,-15.137,-131.348
1692211331.206,-20.508,-20.996,-35.156,-8.301,-138.184
1692211331.210,-16.602,-20.020,-36.621,-23.438,-68.848
1692211331.214,-28.809,-17.090,-31.250,-43.457,-155.762
1692211331.215,-35.156,-20.020,-31.738,-37.598,-194.824
1692211331.219,-26.367,-24.414,-30.762,-9.277,-122.070
1692211331.223,-30.273,-21.973,-28.320,2.441,-11.230
1692211331.227,-28.809,-17.090,-28.809,-10.742,-32.715
1692211331.231,-34.180,-19.531,-29.297,-39.062,-117.676
1692211331.235,-29.785,-24.414,-32.227,-48.340,71.289
1692211331.239,-29.297,-26.367,-31.738,-29.297,484.375
1692211331.242,-32.227,-19.531,-29.297,-12.207,279.785
1692211331.246,-28.809,-20.996,-24.414,-30.762,-118.164
1692211331.250,-33.691,-25.391,-18.066,-59.082,-50.781
1692211331.254,-39.062,-24.414,-20.996,-63.477,-40.527
1692211331.258,-36.133,-24.902,-23.438,-34.180,-211.426
1692211331.274,-34.180,-26.855,-25.391,-16.113,-183.594
1692211331.278,-38.574,-31.738,-31.250,-30.762,-128.418
1692211331.282,-44.434,-34.668,-28.809,-56.641,-159.180
1692211331.286,-44.922,-31.738,-24.902,-57.617,-191.895
1692211331.290,-40.039,-32.227,-29.297,-29.785,-106.934
1692211331.294,-43.457,-32.715,-27.344,-18.555,34.180
1692211331.298,-46.875,-29.297,-24.414,-32.227,72.754
1692211331.301,-43.457,-29.785,-27.832,-53.223,-29.785
1692211331.305,-40.527,-29.785,-26.855,-46.875,-56.641
1692211331.309,-35.156,-27.344,-26.367,-19.531,240.723
1692211331.313,-29.297,-27.344,-26.855,-11.230,175.781
1692211331.317,-18.066,-32.227,-25.391,-25.391,-150.879
1692211331.319,-21.484,-33.203,-24.414,-41.992,-122.559
1692211331.323,-32.715,-26.367,-27.344,-50.781,-136.719
1692211331.327,-31.250,-29.785,-29.297,-33.203,-111.816
1692211331.331,-23.926,-31.250,-28.320,-4.883,-29.785
1692211331.335,-16.602,-32.715,-30.762,-3.906,83.496
1692211331.339,-19.043,-41.992,-26.855,-21.973,181.641
1692211331.343,-22.949,-33.691,-22.461,-36.621,36.133
1692211331.346,-18.066,-17.090,-28.320,-30.762,-123.535
1692211331.350,-15.625,-13.672,-32.227,-15.137,46.875
1692211331.354,-25.391,-9.277,-27.832,-19.531,229.980
1692211331.358,-37.109,-3.906,-29.297,-56.152,-62.500
1692211331.362,-43.945,-12.207,-36.621,-80.566,-196.777
1692211331.364,-37.598,-19.531,-38.086,-59.082,-101.562
1692211331.368,-37.109,-18.066,-41.016,-33.203,-95.215
1692211331.372,-36.621,-14.160,-42.969,-29.297,-141.113
1692211331.376,-46.387,-15.137,-36.621,-48.340,-81.543
1692211331.380,-58.105,-15.625,-33.203,-72.266,-61.523
1692211331.384,-55.664,-20.508,-31.738,-56.152,-12.695
1692211331.388,-49.805,-20.996,-29.785,-21.484,22.461
1692211331.391,-35.645,-15.625,-27.832,-4.395,7.324
1692211331.395,-32.227,-14.160,-28.320,-17.090,165.527
1692211331.399,-40.527,-14.648,-35.156,-47.852,75.684
1692211331.403,-33.691,-17.090,-39.062,-51.758,-220.703
1692211331.407,-25.879,-22.461,-43.457,-34.668,-164.551
1692211331.411,-29.785,-24.902,-39.062,-23.438,-51.758
1692211331.415,-31.738,-26.367,-37.598,-37.109,-51.270
1692211331.419,-34.668,-29.785,-37.598,-57.617,-103.027
1692211331.423,-39.062,-28.809,-34.668,-53.711,12.695
1692211331.427,-33.691,-26.367,-38.086,-26.367,194.336
1692211331.431,-33.203,-24.902,-31.738,-16.113,96.191
1692211331.435,-37.109,-22.949,-26.855,-38.574,-66.406
1692211331.438,-35.156,-26.367,-29.297,-51.270,70.312
1692211331.442,-34.668,-28.809,-27.832,-52.246,155.762
1692211331.446,-41.504,-30.762,-30.273,-40.039,-155.273
1692211331.450,-36.133,-30.762,-27.832,-19.531,-203.125
1692211331.454,-39.551,-26.367,-25.391,-23.926,-105.957
1692211331.456,-46.875,-27.832,-32.227,-45.898,-183.105
1692211331.460,-49.316,-34.180,-39.062,-62.500,-189.453
1692211331.464,-41.992,-37.598,-36.621,-40.527,-67.383
1692211331.468,-31.738,-33.691,-36.621,-20.508,17.090
1692211331.472,-35.645,-26.367,-34.668,-34.668,-32.715
1692211331.476,-39.551,-23.926,-32.227,-55.664,-69.336
1692211331.480,-37.598,-25.879,-35.645,-62.988,-47.852
1692211331.483,-41.504,-27.344,-39.062,-42.480,259.766
1692211331.487,-41.992,-29.785,-37.598,-16.602,285.645
1692211331.491,-29.785,-24.902,-31.250,-13.672,-110.352
1692211331.495,-23.926,-23.926,-29.297,-32.227,-104.980
1692211331.499,-24.902,-27.344,-32.227,-43.945,-99.609
1692211331.499,-30.762,-25.879,-32.715,-30.762,-188.477
1692211331.503,-30.762,-24.414,-31.738,-11.719,-177.734
1692211331.507,-29.297,-25.879,-38.574,-10.254,10.254
1692211331.511,-41.016,-26.367,-38.086,-41.016,74.219
1692211331.515,-50.293,-26.367,-31.250,-65.430,-139.648
1692211331.519,-47.852,-29.785,-28.809,-48.828,-130.371
1692211331.523,-40.039,-28.320,-28.809,-23.438,155.273
1692211331.526,-42.969,-23.438,-25.391,-19.043,552.246
1692211331.530,-43.945,-16.113,-26.855,-40.039,252.441
1692211331.534,-37.598,-14.160,-28.320,-51.270,-258.301
1692211331.538,-41.016,-18.066,-25.879,-44.434,-230.469
1692211331.542,-34.668,-21.484,-26.855,-18.555,-145.996
1692211331.546,-25.879,-22.949,-25.391,-3.906,-130.371
1692211331.550,-32.227,-23.926,-27.344,-25.879,-87.402
1692211331.554,-36.621,-24.902,-30.762,-46.875,-90.820
1692211331.558,-34.668,-23.926,-30.273,-44.922,-125.000
1692211331.562,-38.086,-24.902,-25.391,-26.367,-132.324
1692211331.566,-29.785,-23.438,-20.996,-3.906,-23.926
1692211331.570,-32.227,-23.926,-23.438,-16.113,265.137
1692211331.573,-44.434,-24.902,-28.809,-51.270,76.172
1692211331.577,-34.180,-24.414,-33.203,-56.641,-143.555
1692211331.581,-30.762,-28.320,-37.109,-30.273,-6.348
1692211331.585,-32.227,-30.273,-34.180,-18.066,39.062
1692211331.589,-37.109,-27.832,-28.809,-36.133,-104.980
1692211331.589,-41.016,-28.809,-30.762,-57.617,-178.223
1692211331.593,-35.156,-23.926,-30.273,-57.129,-166.504
1692211331.597,-31.250,-20.996,-32.715,-36.133,-92.773
1692211331.601,-33.691,-20.508,-39.551,-24.902,-31.250
1692211331.605,-38.086,-16.602,-39.551,-37.598,-145.508
1692211331.609,-42.480,-23.926,-36.621,-64.941,10.254
1692211331.613,-46.875,-29.785,-40.527,-72.266,382.812
1692211331.616,-50.781,-31.250,-40.039,-49.805,135.742
1692211331.620,-47.852,-33.203,-29.785,-25.391,-176.270
1692211331.624,-37.598,-25.391,-23.438,-30.273,-93.262
1692211331.628,-34.180,-20.996,-26.367,-58.105,-98.145
1692211331.632,-33.203,-23.438,-22.949,-66.406,-167.969
1692211331.638,-26.855,-26.367,-22.461,-31.250,-181.152
1692211331.642,-30.762,-32.227,-31.738,-4.395,37.109
1692211331.646,-38.086,-37.109,-30.273,-15.137,62.012
1692211331.650,-35.645,-36.621,-26.855,-28.809,-190.430
1692211331.654,-33.203,-30.762,-29.785,-33.691,-189.941
1692211331.658,-29.785,-28.320,-26.367,-20.996,-12.207
1692211331.662,-28.809,-31.250,-30.273,-2.930,30.762
1692211331.665,-30.762,-32.715,-30.762,-12.207,-72.266
1692211331.669,-30.762,-36.621,-28.320,-33.691,-77.148
1692211331.673,-39.062,-34.668,-33.691,-53.711,73.730
1692211331.677,-42.969,-34.180,-35.645,-49.805,10.254
1692211331.681,-34.180,-37.598,-31.250,-19.531,-131.348
1692211331.696,-24.414,-36.133,-28.320,-14.648,-62.500
1692211331.700,-28.320,-32.227,-31.738,-38.086,42.480
1692211331.704,-32.715,-32.227,-29.785,-54.688,8.301
1692211331.708,-27.832,-31.738,-25.879,-51.270,-89.844
1692211331.712,-25.391,-25.879,-26.855,-27.832,59.570
1692211331.716,-26.855,-24.414,-30.273,-14.160,415.039
1692211331.720,-29.297,-20.508,-35.156,-33.203,234.863
1692211331.723,-35.645,-20.996,-34.180,-60.547,-131.348
1692211331.727,-31.250,-18.066,-31.250,-45.410,-57.129
1692211331.731,-23.438,-13.672,-30.273,-17.090,5.859
1692211331.735,-26.367,-15.137,-28.320,-15.625,-182.129
1692211331.739,-19.043,-19.043,-26.367,-19.043,-161.133
1692211331.739,-19.043,-20.508,-25.879,-37.109,-148.926
1692211331.743,-25.879,-18.066,-24.414,-48.340,-174.316
1692211331.747,-18.066,-16.602,-24.902,-22.461,-192.383
1692211331.751,-14.160,-22.949,-23.438,-4.395,-99.121
1692211331.755,-25.879,-27.832,-21.973,-23.438,5.859
1692211331.759,-41.016,-27.832,-20.508,-48.340,-35.156
1692211331.763,-38.086,-27.344,-21.973,-53.711,-39.062
1692211331.766,-32.715,-26.855,-31.738,-31.738,-102.539
1692211331.770,-32.715,-28.809,-36.133,-11.719,220.703
1692211331.774,-31.738,-27.832,-36.133,-27.832,292.969
1692211331.778,-37.109,-29.785,-32.227,-46.875,-130.371
1692211331.782,-24.414,-41.016,-22.461,-26.855,-112.305
1692211331.784,2.441,-24.414,-30.273,1.465,-66.406
1692211331.788,-4.395,-5.371,-43.945,0.000,-117.188
1692211331.792,-25.391,-13.184,-48.828,-27.344,-82.031
1692211331.796,-27.832,-21.973,-44.922,-54.688,58.594
1692211331.800,-23.926,-24.414,-42.969,-64.453,100.098
1692211331.804,-30.273,-19.531,-43.457,-51.270,-18.066
1692211331.808,-26.367,-19.043,-41.016,-32.227,-108.398
1692211331.811,-26.367,-16.602,-40.527,-26.367,142.578
1692211331.815,-41.992,-12.695,-42.969,-48.828,358.887
1692211331.819,-44.922,-15.137,-43.457,-74.707,-23.926
1692211331.823,-42.969,-23.438,-39.062,-56.152,-210.449
1692211331.827,-37.109,-31.738,-40.039,-27.344,-100.098
1692211331.830,-34.668,-29.297,-38.086,-39.062,-90.820
1692211331.834,-36.133,-25.879,-34.180,-65.918,-179.688
1692211331.838,-34.668,-23.438,-30.273,-71.777,-193.359
1692211331.842,-30.273,-23.438,-33.691,-58.105,-116.211
1692211331.846,-31.250,-25.391,-40.527,-37.598,-56.641
1692211331.850,-29.785,-20.508,-36.621,-32.227,-42.480
1692211331.854,-28.320,-17.090,-32.715,-51.758,-8.301
1692211331.857,-32.715,-19.043,-35.156,-70.312,253.906
1692211331.861,-30.762,-21.484,-29.785,-49.805,202.637
1692211331.865,-19.531,-21.973,-26.367,-11.719,-105.957
1692211331.869,-19.531,-24.902,-30.273,-2.930,-103.027
1692211331.873,-23.926,-27.832,-30.273,-29.297,-26.855
1692211331.874,-24.414,-26.367,-25.391,-61.523,-161.133
1692211331.878,-21.973,-24.414,-27.344,-50.781,-275.391
1692211331.882,-18.555,-21.484,-28.320,-20.996,33.203
1692211331.886,-22.949,-20.508,-24.414,-14.160,172.852
1692211331.890,-25.879,-18.555,-28.809,-39.551,-136.230
1692211331.894,-34.180,-19.531,-27.832,-56.641,-162.598
1692211331.898,-38.086,-22.461,-28.320,-46.875,178.711
1692211331.901,-35.645,-21.973,-26.855,-21.484,343.262
1692211331.905,-36.621,-20.020,-23.438,-5.371,-86.426
1692211331.909,-36.133,-17.578,-24.902,-13.672,-252.930
1692211331.913,-31.738,-18.066,-25.879,-45.898,-153.809
1692211331.917,-35.645,-19.531,-29.785,-62.012,-68.848
1692211331.922,-34.668,-15.137,-34.668,-38.086,-122.070
1692211331.926,-30.762,-15.137,-34.180,-28.320,-175.781
1692211331.930,-34.668,-25.391,-32.715,-39.062,-0.488
1692211331.934,-32.227,-21.973,-31.250,-59.570,-21.484
1692211331.938,-26.367,-14.648,-26.367,-61.035,-215.332
1692211331.942,-25.391,-15.625,-22.461,-40.039,-64.941
1692211331.946,-25.879,-17.090,-22.461,-20.996,336.914
1692211331.949,-19.531,-14.648,-22.949,-17.578,219.727
1692211331.953,-27.832,-22.461,-21.484,-44.922,-228.516
1692211331.957,-41.504,-30.273,-25.879,-65.918,-232.910
1692211331.961,-37.598,-27.832,-27.832,-43.945,-131.348
1692211331.965,-40.527,-29.785,-24.414,-16.602,-118.164
1692211331.966,-41.504,-27.344,-26.855,-26.855,-103.516
1692211331.970,-42.969,-27.344,-29.297,-50.781,76.660
1692211331.974,-43.945,-25.391,-23.438,-54.199,163.574
1692211331.978,-36.621,-22.949,-26.367,-34.180,-13.184
1692211331.982,-27.344,-23.926,-29.297,-1.953,-103.516
1692211331.986,-21.484,-20.508,-24.414,0.488,97.656
1692211331.990,-27.832,-22.461,-26.855,-20.996,518.066
1692211331.993,-30.762,-28.809,-31.250,-36.621,255.859
1692211331.997,-28.320,-26.367,-28.809,-26.367,-205.078
1692211332.001,-29.297,-22.949,-22.949,1.953,-128.418
1692211332.005,-27.832,-23.438,-20.508,-3.906,-81.543
1692211332.009,-29.297,-22.949,-22.461,-33.203,-154.785
1692211332.024,-32.227,-22.461,-24.902,-41.992,-163.574
1692211332.028,-30.762,-18.066,-21.973,-27.344,-114.746
1692211332.032,-20.996,-17.090,-20.996,-9.277,-86.914
1692211332.036,-22.949,-24.414,-24.414,-17.090,-125.000
1692211332.040,-32.227,-29.297,-29.785,-38.574,-69.824
1692211332.044,-30.273,-24.414,-31.738,-49.316,164.062
1692211332.048,-25.391,-23.926,-27.832,-41.016,151.367
1692211332.051,-18.066,-25.879,-25.391,-14.160,-87.891
1692211332.055,-22.461,-24.414,-26.855,-3.906,-74.219
1692211332.059,-34.180,-28.809,-36.621,-27.832,100.098
1692211332.063,-42.969,-29.297,-39.551,-55.664,-21.484
1692211332.067,-38.086,-25.879,-34.180,-46.875,-191.895
1692211332.069,-32.715,-24.414,-35.156,-23.438,-89.844
1692211332.073,-30.273,-23.438,-35.156,-20.996,-43.945
1692211332.077,-31.250,-23.438,-32.227,-43.457,-59.082
1692211332.081,-35.645,-26.367,-34.180,-63.477,-124.023
1692211332.085,-32.715,-26.367,-34.668,-48.340,-5.859
1692211332.089,-29.297,-27.344,-33.203,-20.508,139.160
1692211332.093,-32.715,-31.250,-37.598,-13.184,20.508
1692211332.096,-33.203,-32.715,-35.645,-26.367,4.883
1692211332.100,-32.715,-30.762,-26.855,-47.363,67.871
1692211332.104,-38.574,-19.531,-24.414,-54.688,226.562
1692211332.108,-36.133,-15.137,-25.879,-36.133,-9.277
1692211332.112,-31.738,-20.996,-27.832,-21.973,-144.531
1692211332.114,-31.250,-22.949,-28.809,-31.250,-97.656
1692211332.118,-37.598,-25.391,-32.227,-51.270,-214.844
1692211332.122,-43.945,-28.809,-36.133,-57.129,-246.582
1692211332.126,-36.621,-23.926,-35.156,-33.691,-167.969
1692211332.130,-28.809,-23.926,-25.879,-11.719,-122.559
1692211332.134,-30.273,-24.414,-24.414,-23.926,21.973
1692211332.138,-36.621,-18.555,-29.297,-53.711,45.898
1692211332.141,-43.945,-22.949,-30.762,-65.918,-130.859
1692211332.145,-45.410,-30.273,-35.156,-44.434,120.117
1692211332.149,-39.062,-30.762,-39.062,-28.809,202.148
1692211332.153,-37.109,-30.762,-36.621,-44.922,-97.656
1692211332.157,-40.527,-28.809,-30.762,-58.594,-72.754
1692211332.159,-43.457,-29.785,-29.785,-63.477,-9.277
1692211332.163,-42.480,-29.297,-31.738,-50.781,-150.879
1692211332.167,-36.133,-22.461,-30.762,-23.438,-81.543
1692211332.171,-33.203,-22.461,-30.273,-19.043,147.949
1692211332.175,-28.809,-23.438,-31.250,-42.969,145.020
1692211332.179,-29.297,-25.391,-28.320,-62.012,-22.461
1692211332.183,-34.668,-28.809,-31.250,-51.758,-35.156
1692211332.186,-34.668,-27.832,-29.297,-18.555,137.695
1692211332.190,-31.738,-21.484,-23.926,-14.160,162.598
1692211332.194,-32.715,-22.949,-24.414,-42.969,-164.551
1692211332.198,-43.945,-33.203,-21.973,-61.523,-233.398
1692211332.202,-46.387,-36.621,-20.996,-46.387,-74.707
1692211332.206,-42.969,-36.133,-26.367,-20.020,-28.809
1692211332.210,-39.551,-33.203,-28.809,-26.367,-92.285
1692211332.214,-39.062,-30.273,-34.180,-46.875,-90.332
1692211332.218,-41.016,-28.809,-38.574,-56.152,-32.715
1692211332.222,-39.062,-30.762,-33.203,-47.363,-79.590
1692211332.226,-38.086,-31.250,-28.809,-26.367,-35.645
1692211332.230,-32.227,-28.809,-25.879,-12.695,86.914
1692211332.233,-34.180,-31.250,-26.367,-25.879,207.520
1692211332.237,-38.574,-30.273,-34.668,-55.664,66.895
1692211332.241,-31.250,-21.973,-35.645,-50.781,-244.141
1692211332.245,-27.832,-20.508,-33.203,-23.438,-169.922
1692211332.249,-29.785,-23.438,-32.715,-17.090,-52.246
1692211332.251,-30.273,-20.508,-28.809,-28.809,-142.578
1692211332.255,-33.691,-22.461,-29.785,-44.434,-236.328
1692211332.259,-37.109,-25.391,-29.785,-33.691,33.691
1692211332.263,-36.133,-21.484,-21.973,0.488,172.363
1692211332.267,-32.227,-24.414,-18.555,0.977,-88.379
1692211332.271,-31.738,-29.785,-27.344,-19.531,-59.570
1692211332.275,-36.621,-33.691,-24.902,-39.551,166.016
1692211332.278,-36.621,-27.832,-24.414,-45.410,421.875
1692211332.282,-17.578,-14.160,-33.203,-19.043,107.910
1692211332.286,-7.324,-21.484,-29.297,8.301,-265.625
1692211332.290,-24.414,-32.227,-16.602,-11.230,-163.086
1692211332.294,-57.129,-32.715,-14.648,-61.523,-145.996
1692211332.296,-59.082,-36.621,-18.066,-72.266,-237.305
1692211332.300,-38.574,-35.156,-14.160,-42.969,-201.660
1692211332.304,-31.738,-33.691,-13.672,-25.879,-101.074
1692211332.308,-44.922,-36.133,-15.625,-30.273,-117.676
1692211332.312,-55.664,-36.133,-20.508,-48.340,-104.980
1692211332.316,-56.641,-35.645,-29.297,-50.781,-77.148
1692211332.320,-58.594,-41.504,-23.926,-40.039,262.207
1692211332.323,-53.711,-41.504,-15.137,-27.832,294.434
1692211332.327,-55.176,-40.039,-13.184,-28.320,-186.035
1692211332.331,-64.941,-40.527,-16.602,-47.363,-161.621
1692211332.335,-68.359,-40.527,-21.484,-61.523,39.062
1692211332.339,-67.871,-42.969,-18.066,-43.945,-74.707
1692211332.340,-62.500,-46.387,-14.160,-15.625,-193.848
1692211332.344,-53.711,-44.922,-18.555,-8.789,-96.191
1692211332.348,-40.039,-46.387,-17.090,-20.020,38.574
1692211332.352,-38.574,-43.945,-11.719,-37.109,10.742
1692211332.356,-35.645,-34.180,-16.113,-24.414,-149.414
1692211332.360,-36.133,-34.668,-18.066,-1.953,104.980
1692211332.364,-42.480,-32.715,-20.508,-2.930,516.602
1692211332.367,-43.457,-29.785,-23.926,-22.949,192.383
1692211332.371,-47.852,-30.762,-22.461,-37.598,-215.820
1692211332.375,-51.270,-26.855,-23.926,-35.156,-27.832
1692211332.379,-51.270,-29.297,-29.297,-24.414,55.664
1692211332.383,-43.945,-32.227,-28.320,-21.484,-165.527
1692211332.399,-46.387,-32.715,-29.785,-49.805,-171.387
1692211332.403,-50.781,-33.691,-32.715,-75.684,-136.719
1692211332.407,-52.246,-35.645,-31.738,-70.312,-147.461
1692211332.411,-49.316,-36.133,-31.738,-40.039,-161.133
1692211332.415,-38.574,-35.645,-33.691,-23.438,-104.492
1692211332.419,-34.668,-34.668,-35.156,-46.387,-8.301
1692211332.423,-36.133,-31.738,-36.133,-62.988,-25.879
1692211332.426,-38.086,-35.156,-35.645,-57.617,-97.168
1692211332.430,-33.691,-33.203,-34.668,-31.738,-82.520
1692211332.434,-23.438,-30.762,-30.762,-9.277,227.051
1692211332.438,-23.926,-31.250,-33.203,-23.926,143.555
1692211332.442,-28.809,-35.156,-39.062,-58.105,-195.801
1692211332.445,-28.809,-38.574,-39.551,-62.012,-136.230
1692211332.449,-28.320,-36.133,-36.621,-33.691,-84.473
1692211332.453,-28.809,-36.133,-32.715,-11.230,-48.828
1692211332.457,-21.484,-34.668,-28.320,-8.301,-67.383
1692211332.461,-25.391,-32.227,-25.879,-28.809,10.254
1692211332.465,-22.461,-27.344,-27.832,-32.227,207.520
1692211332.469,-21.973,-28.809,-29.297,-16.113,60.059
1692211332.472,-24.414,-28.809,-27.832,0.977,-71.289
1692211332.476,-19.531,-26.855,-24.902,-3.418,67.871
1692211332.480,-25.879,-28.320,-24.902,-31.738,158.691
1692211332.484,-28.809,-24.902,-32.227,-40.039,-194.824
1692211332.488,-24.902,-23.926,-33.203,-12.207,-226.074
1692211332.489,-21.484,-16.602,-28.320,16.113,29.785
1692211332.493,-19.043,-17.578,-31.738,4.395,-17.578
1692211332.497,-21.484,-25.391,-32.227,-22.461,-183.105
1692211332.501,-28.809,-26.855,-29.785,-37.109,-167.969
1692211332.505,-28.320,-22.949,-35.156,-26.855,-38.574
1692211332.509,-8.301,-18.066,-39.551,-4.883,49.316
1692211332.513,1.953,-17.090,-35.156,4.395,69.824
1692211332.516,-19.531,-24.902,-25.391,-26.855,-84.473
1692211332.520,-45.898,-32.715,-19.043,-65.430,97.656
1692211332.524,-41.504,-29.785,-24.902,-50.293,122.070
1692211332.528,-36.133,-34.180,-25.391,-21.973,-219.238
1692211332.532,-44.922,-38.086,-26.367,-25.391,-71.777
1692211332.536,-42.969,-37.109,-33.691,-58.105,-19.531
1692211332.540,-48.828,-39.551,-29.785,-76.172,-158.203
1692211332.544,-49.805,-41.504,-23.926,-60.547,-189.453
1692211332.548,-36.133,-36.621,-21.484,-25.391,22.461
1692211332.552,-28.809,-31.738,-20.996,-7.324,283.203
1692211332.556,-29.785,-31.250,-24.902,-30.273,69.336
1692211332.560,-32.715,-31.250,-22.461,-53.711,-138.184
1692211332.563,-34.180,-33.203,-22.949,-43.945,57.129
1692211332.567,-33.691,-33.203,-22.949,-11.230,230.469
1692211332.571,-35.156,-33.203,-25.391,-6.348,-39.062
1692211332.575,-34.668,-35.645,-31.250,-34.668,-196.777
1692211332.579,-38.086,-34.180,-30.762,-57.617,-117.676
1692211332.581,-40.527,-33.203,-30.762,-58.594,-129.395
1692211332.585,-38.574,-33.691,-29.297,-34.668,-204.590
1692211332.589,-40.039,-32.227,-24.902,-15.625,-138.672
1692211332.593,-38.574,-30.273,-26.367,-24.414,-74.219
1692211332.597,-39.551,-30.762,-29.785,-44.434,-101.562
1692211332.601,-36.133,-28.809,-29.297,-45.898,-66.406
1692211332.605,-33.691,-27.344,-30.273,-25.879,20.996
1692211332.608,-26.367,-31.250,-30.762,-3.418,347.168
1692211332.612,-24.414,-30.273,-32.227,-14.648,320.312
1692211332.616,-28.809,-25.391,-38.086,-40.527,-157.715
1692211332.620,-19.531,-22.949,-41.504,-32.715,-182.129
1692211332.624,-14.648,-24.414,-32.715,-9.277,-69.824
1692211332.624,-18.555,-22.949,-27.832,8.789,-127.930
1692211332.628,-27.832,-24.902,-25.879,-3.418,-162.598
1692211332.632,-35.645,-25.391,-25.879,-38.086,-42.480
1692211332.636,-32.715,-22.461,-31.250,-46.387,2.930
1692211332.640,-24.902,-24.902,-30.273,-31.738,-91.797
1692211332.644,-26.367,-31.250,-29.785,-14.648,-48.828
1692211332.648,-31.250,-31.738,-31.738,-10.742,144.043
1692211332.651,-37.109,-30.273,-31.250,-28.320,481.934
1692211332.655,-38.574,-28.809,-24.902,-37.109,209.961
1692211332.659,-27.832,-24.414,-21.973,-19.043,-240.234
1692211332.663,-30.273,-20.508,-28.809,-6.348,-171.387
1692211332.667,-39.551,-24.414,-32.227,-22.461,-140.137
1692211332.671,-41.504,-23.438,-27.344,-55.664,-210.938
1692211332.675,-43.457,-23.438,-29.785,-72.754,-199.707
1692211332.679,-38.574,-25.391,-30.273,-56.641,-127.930
1692211332.683,-27.832,-20.996,-24.902,-29.785,-111.328
1692211332.687,-33.691,-24.902,-27.344,-30.762,-116.699
1692211332.691,-42.480,-25.879,-24.414,-53.223,-49.316
1692211332.695,-32.715,-27.344,-31.738,-57.617,214.844
1692211332.698,-21.484,-32.227,-36.133,-40.039,90.332
1692211332.702,-26.367,-31.250,-31.250,-18.555,-177.734
1692211332.706,-37.598,-26.855,-29.297,-24.414,-20.508
1692211332.710,-41.504,-23.926,-30.273,-44.922,81.055
1692211332.714,-38.574,-28.320,-31.738,-62.988,-115.234
1692211332.714,-40.527,-30.762,-35.645,-63.477,-214.844
1692211332.718,-42.480,-29.785,-36.621,-30.762,-39.062
1692211332.722,-45.410,-31.250,-31.250,-19.531,113.281
1692211332.726,-41.504,-28.320,-35.156,-27.832,-19.043
1692211332.730,-36.133,-30.273,-41.016,-40.039,-166.504
1692211332.734,-41.992,-32.715,-31.738,-39.062,123.535
1692211332.738,-37.598,-29.785,-26.855,-7.812,527.344
1692211332.741,-32.715,-29.785,-27.344,-3.418,162.109
1692211332.745,-34.180,-30.273,-26.367,-22.949,-234.375
1692211332.749,-41.016,-29.297,-28.320,-38.086,-183.594
1692211332.753,-42.480,-29.297,-28.809,-51.758,-126.465
1692211332.757,-39.062,-30.273,-29.297,-31.250,-154.785
1692211332.762,-40.039,-30.762,-28.320,-8.301,11.230
1692211332.766,-43.945,-25.391,-26.367,-33.203,143.555
1692211332.770,-44.922,-24.902,-26.367,-61.523,62.500
1692211332.774,-38.086,-25.879,-26.855,-55.176,-86.914
1692211332.778,-27.344,-22.461,-30.762,-26.367,-106.445
1692211332.782,-24.414,-25.879,-32.715,0.000,40.527
1692211332.786,-28.809,-32.227,-34.668,-15.625,64.453
1692211332.789,-39.062,-35.156,-32.715,-55.664,-78.125
1692211332.793,-37.109,-37.598,-29.297,-66.895,-148.438
1692211332.797,-32.715,-34.668,-38.086,-39.062,72.754
1692211332.801,-35.156,-28.809,-41.016,-24.414,54.199
1692211332.805,-35.156,-28.809,-33.203,-40.039,-163.086
1692211332.819,-35.645,-26.855,-28.320,-59.570,-121.094
1692211332.823,-37.109,-24.414,-31.250,-67.871,-61.523
1692211332.827,-29.785,-21.973,-28.320,-40.527,-75.684
1692211332.831,-18.066,-23.438,-24.902,-15.137,-87.402
1692211332.835,-19.531,-30.273,-26.855,-15.625,2.930
1692211332.839,-30.273,-32.227,-29.785,-41.504,321.289
1692211332.843,-26.367,-23.438,-26.367,-56.152,117.188
1692211332.846,-22.949,-19.531,-24.902,-29.785,-281.738
1692211332.850,-23.926,-23.926,-27.344,-5.371,-48.828
1692211332.854,-29.785,-24.414,-26.855,-6.348,49.316
1692211332.858,-35.156,-21.484,-23.926,-33.691,-207.520
1692211332.862,-37.109,-22.949,-20.508,-60.059,-226.074
1692211332.864,-33.203,-24.902,-19.531,-45.898,-169.434
1692211332.868,-23.438,-25.879,-24.414,-17.090,-132.324
1692211332.872,-22.461,-26.367,-23.438,-5.859,-158.203
1692211332.876,-22.949,-22.949,-19.531,-16.113,-141.113
1692211332.880,-19.043,-18.555,-21.973,-36.621,-64.453
1692211332.884,-13.672,-18.555,-27.344,-32.227,-10.254
1692211332.888,-9.766,-18.555,-29.297,-11.230,16.602
1692211332.891,-16.113,-23.926,-21.484,-3.906,82.031
1692211332.895,-41.504,-33.691,-21.484,-36.133,337.402
1692211332.899,-52.246,-34.668,-26.367,-62.500,229.492
1692211332.903,-45.898,-30.273,-25.879,-45.410,-195.312
1692211332.907,-35.156,-28.320,-25.879,-15.137,-114.258
1692211332.909,-28.320,-29.785,-28.320,-1.953,-36.621
1692211332.913,-34.180,-34.668,-33.203,-25.879,-164.551
1692211332.917,-44.434,-38.086,-33.203,-57.129,-162.598
1692211332.921,-47.363,-34.180,-33.203,-56.152,93.750
1692211332.925,-46.875,-28.320,-36.621,-36.621,167.969
1692211332.929,-46.387,-30.762,-37.109,-18.066,58.105
1692211332.933,-43.945,-31.250,-34.180,-23.926,-50.293
1692211332.936,-44.434,-28.809,-33.203,-46.387,44.922
1692211332.940,-50.293,-34.180,-32.715,-47.852,344.727
1692211332.944,-43.945,-36.133,-33.203,-28.320,19.531
1692211332.948,-38.574,-36.621,-34.180,-18.066,-243.652
1692211332.952,-41.504,-39.062,-31.250,-33.691,-158.691
1692211332.955,-42.969,-37.598,-26.855,-51.758,-198.730
1692211332.959,-42.969,-33.691,-26.855,-51.270,-254.395
1692211332.963,-34.180,-36.133,-30.762,-22.949,-156.250
1692211332.967,-32.227,-32.715,-29.297,-0.488,-26.367
1692211332.971,-38.086,-31.250,-30.273,-18.066,-10.254
1692211332.975,-44.922,-39.062,-36.621,-48.340,4.883
1692211332.979,-43.945,-34.668,-33.203,-52.246,37.598
1692211332.982,-32.715,-29.785,-24.902,-27.344,236.816
1692211332.986,-29.785,-26.367,-28.320,-11.230,199.707
1692211332.990,-33.691,-23.438,-31.738,-22.461,-62.988
1692211332.994,-39.062,-27.832,-34.668,-55.176,-27.832
1692211332.998,-38.574,-28.809,-34.668,-60.059,8.789
1692211332.999,-28.809,-24.902,-29.297,-33.691,-149.902
1692211333.003,-31.738,-23.926,-33.203,-16.113,-194.824
1692211333.007,-34.180,-27.832,-38.574,-18.066,35.156
1692211333.011,-33.203,-28.320,-34.668,-47.852,98.145
1692211333.015,-35.645,-24.902,-30.762,-63.477,-168.457
1692211333.019,-31.250,-22.461,-34.180,-38.574,-137.695
1692211333.023,-30.762,-23.926,-39.551,-9.277,142.090
1692211333.026,-34.668,-22.949,-36.133,-6.348,248.535
1692211333.030,-39.551,-28.320,-31.738,-34.668,-101.074
1692211333.034,-44.922,-30.273,-33.691,-60.059,-281.250
1692211333.038,-50.293,-28.320,-34.668,-66.406,-144.043
1692211333.042,-46.387,-31.250,-29.785,-45.410,-72.266
1692211333.048,-46.387,-29.785,-29.785,-31.250,-81.543
1692211333.052,-51.758,-24.902,-30.273,-46.387,-89.844
1692211333.056,-47.363,-22.949,-26.367,-66.895,-17.578
1692211333.060,-40.527,-26.367,-23.926,-54.688,-27.344
1692211333.064,-36.133,-31.738,-22.461,-28.320,-91.797
1692211333.068,-36.621,-30.762,-22.461,-18.066,6.348
1692211333.072,-34.668,-29.785,-22.461,-22.949,274.414
1692211333.075,-31.738,-30.762,-25.879,-49.805,117.676
1692211333.079,-27.832,-22.949,-25.879,-47.852,-190.918
1692211333.083,-23.438,-22.949,-27.344,-16.113,-73.242
1692211333.087,-29.785,-29.785,-31.250,-8.301,10.254
1692211333.091,-36.133,-24.902,-26.367,-30.273,-98.145
1692211333.090,-39.551,-25.391,-25.879,-57.129,-187.012
1692211333.094,-48.340,-28.809,-23.926,-54.688,-111.816
1692211333.098,-47.363,-29.785,-19.043,-32.227,5.371
1692211333.102,-37.598,-26.855,-20.020,-20.020,104.492
1692211333.106,-34.180,-23.926,-26.367,-31.738,72.266
1692211333.110,-36.133,-27.344,-28.809,-62.012,78.125
1692211333.114,-28.320,-26.367,-27.832,-61.523,464.844
1692211333.117,-22.949,-28.809,-28.809,-35.645,354.980
1692211333.121,-20.996,-30.273,-27.832,-6.348,-140.137
1692211333.125,-21.973,-25.391,-25.879,-9.766,-228.027
1692211333.129,-30.273,-26.367,-26.855,-42.480,-207.031
1692211333.133,-33.203,-29.785,-29.785,-49.805,-276.855
1692211333.136,-34.180,-31.738,-35.156,-26.855,-255.371
1692211333.140,-33.691,-33.691,-37.109,-10.742,-129.395
1692211333.144,-37.109,-35.645,-34.668,-31.738,-125.000
1692211333.148,-42.480,-37.598,-35.156,-58.594,-194.336
1692211333.152,-37.598,-39.062,-34.668,-63.965,-160.645
1692211333.156,-33.203,-37.598,-38.086,-44.922,3.418
1692211333.160,-27.832,-33.203,-39.551,-23.926,117.188
1692211333.163,-25.879,-33.691,-34.668,-16.113,92.773
1692211333.167,-24.902,-35.645,-33.203,-28.320,-63.477
1692211333.171,-20.996,-35.645,-34.668,-44.434,137.695
1692211333.175,-22.949,-28.809,-33.203,-36.133,164.062
1692211333.179,-20.996,-24.902,-28.809,-1.465,-173.828
1692211333.194,-22.461,-31.250,-27.832,0.977,-52.734
1692211333.198,-29.785,-35.156,-28.320,-30.762,-33.691
1692211333.202,-33.203,-33.691,-25.879,-49.805,-156.738
1692211333.206,-25.879,-25.391,-25.879,-37.109,-89.844
1692211333.210,-15.137,-20.996,-22.461,-6.836,119.141
1692211333.214,-17.578,-24.414,-20.996,-6.836,327.637
1692211333.218,-23.926,-22.949,-35.156,-38.574,73.242
1692211333.221,-22.949,-28.320,-36.621,-55.664,-224.121
1692211333.225,-25.879,-30.273,-26.367,-40.039,-40.039
1692211333.229,-29.297,-27.832,-26.367,-21.973,217.285
1692211333.233,-28.809,-29.297,-26.367,-24.902,-41.016
1692211333.237,-36.621,-28.320,-27.832,-51.758,-194.336
1692211333.239,-38.574,-29.297,-33.203,-68.848,-172.852
1692211333.243,-30.762,-30.273,-33.691,-56.641,-196.777
1692211333.247,-30.762,-27.832,-32.227,-39.551,-175.781
1692211333.251,-29.785,-26.855,-30.273,-25.879,-82.031
1692211333.255,-24.902,-24.902,-32.715,-35.156,-26.367
1692211333.259,-21.973,-22.461,-33.691,-52.246,-11.719
1692211333.263,-21.484,-23.926,-32.715,-53.223,17.578
1692211333.266,-21.484,-28.320,-29.785,-26.855,-26.367
1692211333.270,-24.902,-27.344,-29.785,-4.883,216.309
1692211333.274,-35.645,-31.738,-32.227,-25.879,139.160
1692211333.278,-40.039,-33.691,-29.297,-52.246,-146.973
1692211333.282,-42.969,-31.250,-31.250,-53.223,-23.438
1692211333.284,-38.086,-28.809,-33.203,-36.621,-0.488
1692211333.288,-34.668,-27.832,-32.715,-29.785,-137.695
1692211333.292,-33.691,-28.320,-28.320,-37.109,-76.660
1692211333.296,-28.809,-27.832,-31.738,-52.734,123.047
1692211333.300,-33.203,-32.227,-37.598,-61.035,80.566
1692211333.304,-36.133,-39.062,-28.809,-28.320,-73.730
1692211333.308,-19.043,-42.480,-20.020,17.090,-159.668
1692211333.311,-2.930,-32.227,-26.855,3.418,15.625
1692211333.315,-23.926,-10.254,-43.457,-48.828,175.781
1692211333.319,-33.203,-7.324,-49.316,-68.359,-163.574
1692211333.323,-19.043,-14.160,-45.898,-46.875,-231.934
1692211333.327,-27.344,-12.207,-41.504,-31.738,-118.652
1692211333.345,-21.973,-7.324,-43.457,-45.410,-112.793
1692211333.349,-24.414,-6.836,-39.062,-71.777,-85.449
1692211333.353,-31.738,-7.324,-31.250,-68.848,-105.469
1692211333.357,-23.438,-8.789,-28.809,-37.598,-62.012
1692211333.361,-24.902,-9.277,-30.273,-17.578,-29.785
1692211333.365,-27.832,-17.090,-36.133,-24.414,-10.254
1692211333.369,-34.180,-26.855,-31.738,-47.852,0.000
1692211333.372,-31.738,-20.996,-27.344,-62.988,181.152
1692211333.376,-25.879,-16.113,-33.203,-50.781,109.375
1692211333.380,-22.461,-20.508,-33.691,-22.461,-153.809
1692211333.384,-22.461,-25.879,-34.180,-21.484,-61.523
1692211333.388,-33.203,-27.832,-39.062,-48.340,-81.055
1692211333.374,-37.598,-25.879,-39.062,-62.988,-164.062
1692211333.378,-31.738,-23.926,-34.668,-51.270,-189.941
1692211333.382,-24.902,-21.973,-39.062,-30.273,16.113
1692211333.386,-29.785,-23.926,-43.457,-31.250,126.465
1692211333.390,-32.227,-25.391,-37.109,-55.664,-39.062
1692211333.394,-33.691,-28.809,-35.156,-73.730,-79.102
1692211333.398,-35.645,-32.227,-34.180,-58.105,90.332
1692211333.401,-30.273,-32.227,-35.645,-24.414,169.922
1692211333.405,-31.738,-30.273,-36.621,-13.184,-16.113
1692211333.409,-31.738,-28.809,-34.180,-32.227,-99.121
1692211333.413,-28.809,-31.738,-29.785,-61.035,110.840
1692211333.417,-25.391,-25.879,-30.273,-47.852,261.230
1692211333.422,-32.715,-24.902,-29.785,-11.230,-61.035
1692211333.426,-37.598,-30.273,-24.414,-0.488,-132.324
1692211333.430,-37.598,-27.344,-25.391,-29.297,-86.426
1692211333.434,-38.574,-24.414,-25.391,-50.781,-160.156
1692211333.438,-35.156,-22.949,-26.367,-47.363,-210.449
1692211333.442,-24.902,-16.113,-26.367,-23.438,-127.441
1692211333.446,-17.578,-15.137,-19.531,-2.930,142.578
1692211333.449,-21.973,-21.484,-21.973,-20.996,224.121
1692211333.453,-25.879,-20.508,-30.273,-44.434,-81.055
1692211333.457,-34.668,-24.414,-29.297,-44.434,-183.105
1692211333.461,-31.738,-28.809,-24.902,-29.785,82.520
1692211333.465,-25.879,-22.461,-23.438,-15.625,36.133
1692211333.479,-28.320,-24.414,-28.320,-19.043,-154.297
1692211333.483,-31.250,-29.297,-33.203,-44.434,-152.344
1692211333.487,-31.250,-24.414,-29.785,-59.082,-62.012
1692211333.491,-22.461,-20.996,-31.250,-30.762,-22.461
1692211333.495,-20.020,-23.926,-31.250,-2.441,-155.762
1692211333.499,-25.879,-29.785,-27.344,-13.672,14.648
1692211333.503,-28.809,-29.297,-29.785,-41.992,424.316
1692211333.506,-29.297,-24.902,-21.484,-49.805,137.207
1692211333.510,-31.738,-25.391,-16.602,-24.414,-155.762
1692211333.514,-24.902,-24.902,-22.949,4.883,51.758
1692211333.518,-19.531,-32.227,-23.438,1.465,4.883
1692211333.522,-32.227,-35.645,-26.855,-37.598,-163.086
1692211333.511,-40.527,-26.855,-30.273,-55.176,-209.473
1692211333.515,-28.320,-22.461,-30.762,-26.855,-113.281
1692211333.519,-23.926,-23.926,-34.668,-10.254,-20.508
1692211333.523,-28.809,-27.832,-32.715,-21.973,-87.891
1692211333.527,-26.367,-32.227,-29.785,-39.062,-109.375
1692211333.531,-31.738,-34.668,-34.668,-51.758,8.301
1692211333.535,-30.273,-27.344,-32.227,-45.410,9.766
1692211333.538,-23.438,-23.926,-27.344,-20.020,-128.418
1692211333.542,-26.367,-28.809,-30.273,-13.672,-135.254
1692211333.546,-23.438,-31.250,-26.367,-25.391,155.762
1692211333.550,-17.090,-27.344,-21.484,-31.738,79.590
1692211333.554,-28.320,-22.949,-31.738,-36.133,-111.328
1692211333.584,-42.969,-20.996,-39.551,-26.855,36.133
1692211333.588,-50.293,-16.113,-36.133,-27.832,65.430
1692211333.592,-57.129,-18.555,-31.250,-51.270,-56.152
1692211333.596,-63.965,-25.391,-31.250,-62.988,-173.340
1692211333.600,-63.477,-24.414,-29.297,-52.734,-72.266
1692211333.604,-64.453,-27.832,-24.902,-37.109,223.145
1692211333.608,-54.199,-28.320,-26.855,-25.879,79.102
1692211333.611,-39.062,-26.367,-27.344,-33.203,-201.660
1692211333.615,-41.992,-28.809,-28.320,-58.105,-35.645
1692211333.619,-44.434,-27.344,-29.297,-56.641,97.656
1692211333.623,-39.062,-21.484,-27.344,-28.809,-128.418
1692211333.627,-31.738,-23.438,-31.250,-12.695,-182.617
1692211333.615,-33.691,-27.344,-31.250,-26.367,8.789
1692211333.619,-39.062,-24.414,-29.785,-51.758,34.180
1692211333.623,-32.715,-21.484,-33.203,-57.129,-129.883
1692211333.627,-27.344,-26.367,-33.203,-31.250,-152.344
1692211333.631,-27.344,-28.320,-34.180,-15.625,27.344
1692211333.635,-26.367,-27.344,-37.598,-38.086,129.883
1692211333.639,-27.344,-25.391,-38.086,-58.105,-81.055
1692211333.642,-30.762,-27.832,-35.645,-61.035,-142.090
1692211333.646,-30.273,-31.250,-35.645,-42.969,-22.461
1692211333.650,-31.250,-31.250,-39.062,-26.855,-49.805
1692211333.654,-36.133,-29.785,-35.645,-39.062,-122.559
1692211333.658,-40.039,-29.297,-31.250,-59.570,-48.828
1692211333.659,-39.062,-21.973,-30.762,-56.641,215.332
1692211333.663,-35.645,-20.020,-34.668,-28.809,86.914
1692211333.667,-40.039,-31.250,-35.645,-18.066,-118.164
1692211333.671,-40.039,-37.109,-34.180,-29.785,51.758
1692211333.675,-34.180,-39.062,-36.133,-49.316,166.504
1692211333.679,-32.715,-36.621,-32.227,-54.688,-32.715
1692211333.683,-34.668,-40.527,-30.762,-37.598,-170.410
1692211333.686,-38.086,-41.992,-33.691,-23.438,49.316
1692211333.690,-39.551,-36.133,-33.203,-22.949,262.695
1692211333.694,-43.945,-33.691,-33.203,-47.363,-62.012
1692211333.698,-48.828,-36.621,-30.273,-70.801,-238.281
1692211333.702,-47.363,-33.203,-29.297,-53.711,-125.488
1692211333.705,-48.340,-37.109,-41.016,-26.855,-97.656
1692211333.709,-47.363,-40.039,-40.527,-18.555,-188.965
1692211333.713,-46.875,-36.621,-32.715,-36.621,-213.867
1692211333.717,-50.781,-41.504,-35.645,-60.059,-156.738
1692211333.721,-46.387,-44.434,-35.645,-51.758,-138.184
1692211333.725,-36.133,-41.504,-30.762,-21.973,-65.918
1692211333.729,-23.926,-35.156,-27.832,-9.766,-3.906
1692211333.732,-33.203,-26.367,-29.785,-38.574,312.012
1692211333.736,-46.387,-22.949,-35.156,-68.848,317.871
1692211333.740,-41.992,-29.297,-35.645,-65.918,-187.012
1692211333.744,-42.969,-32.715,-31.250,-41.016,-146.484
1692211333.748,-42.969,-30.273,-32.227,-27.344,-26.855
1692211333.749,-41.016,-24.902,-28.809,-48.828,-138.672
1692211333.753,-39.062,-22.949,-26.367,-62.012,-206.055
1692211333.757,-29.785,-28.320,-32.715,-41.504,28.809
1692211333.761,-34.180,-33.203,-32.715,-23.926,153.320
1692211333.765,-46.387,-35.156,-28.320,-24.414,-50.781
1692211333.769,-39.062,-33.203,-27.832,-37.109,-119.629
1692211333.773,-40.039,-37.598,-31.738,-59.082,73.730
1692211333.776,-50.293,-42.480,-33.203,-58.105,285.156
1692211333.780,-46.387,-40.527,-30.273,-25.391,-49.805
1692211333.784,-32.227,-35.156,-26.855,-3.906,-166.504
1692211333.788,-32.715,-28.320,-26.367,-28.809,21.973
1692211333.792,-39.062,-26.367,-27.344,-55.664,-53.711
1692211333.796,-30.762,-23.438,-27.344,-47.363,-171.875
1692211333.800,-27.344,-25.879,-27.344,-21.973,-84.473
1692211333.804,-31.738,-34.180,-28.320,-9.277,-29.785
1692211333.808,-35.645,-34.668,-26.855,-23.438,-76.172
1692211333.812,-38.086,-30.762,-25.879,-49.316,-110.352
1692211333.816,-47.852,-27.832,-22.461,-58.594,-71.289
1692211333.820,-52.734,-31.250,-21.973,-38.574,153.809
1692211333.823,-43.945,-30.273,-26.367,-21.484,111.328
1692211333.827,-35.645,-31.738,-30.762,-27.832,-89.355
1692211333.831,-37.598,-31.738,-30.762,-51.758,-23.438
1692211333.835,-33.203,-25.879,-30.762,-63.965,-41.016
1692211333.839,-25.879,-23.438,-32.715,-43.457,-90.820
1692211333.840,-29.785,-23.926,-32.227,-29.297,-77.637
1692211333.844,-33.691,-22.949,-32.715,-28.320,-30.273
1692211333.848,-35.156,-22.949,-35.645,-41.504,101.562
1692211333.852,-31.250,-21.484,-35.645,-60.059,-25.879
1692211333.856,-30.762,-20.996,-33.203,-41.992,-165.039
1692211333.860,-34.180,-26.367,-31.738,-6.836,114.258
1692211333.864,-32.715,-29.785,-31.250,-13.184,494.629
1692211333.867,-33.203,-26.367,-29.297,-43.945,183.594
1692211333.871,-27.832,-26.367,-23.438,-56.641,-213.867
1692211333.875,-28.320,-34.180,-25.879,-38.574,-96.191
1692211333.879,-35.156,-36.621,-34.180,-11.719,-61.035
1692211333.883,-31.250,-32.227,-34.180,-16.113,-147.949
1692211333.888,-25.879,-27.344,-29.297,-41.016,-202.148
1692211333.892,-29.785,-27.832,-33.203,-46.875,-141.602
1692211333.896,-35.156,-32.227,-34.668,-37.598,-48.340
1692211333.900,-27.344,-27.344,-29.297,-20.020,-111.816
1692211333.904,-27.832,-21.973,-31.738,-8.301,-129.883
1692211333.908,-28.809,-28.320,-31.738,-24.902,220.215
1692211333.912,-30.273,-34.180,-29.297,-48.828,203.613
1692211333.915,-30.762,-26.855,-31.738,-45.898,-195.801
1692211333.919,-17.578,-25.391,-27.832,-17.578,-146.973
1692211333.923,-17.578,-27.344,-24.414,-8.301,-29.785
1692211333.927,-23.438,-27.832,-27.344,-26.855,-96.191
1692211333.931,-19.531,-30.762,-26.367,-48.828,-182.617
1692211333.944,-21.973,-30.273,-22.949,-48.340,-117.188
1692211333.948,-21.484,-23.926,-24.902,-20.020,-59.570
1692211333.952,-21.973,-23.926,-26.855,-6.836,-61.523
1692211333.956,-33.203,-29.297,-25.879,-24.414,-49.805
1692211333.960,-36.133,-29.785,-28.320,-40.527,37.598
1692211333.964,-39.062,-24.414,-33.203,-43.457,278.809
1692211333.968,-36.133,-20.020,-30.273,-21.973,133.789
1692211333.971,-32.715,-25.391,-32.227,-4.883,-143.066
1692211333.975,-33.203,-30.273,-34.668,-19.531,4.883
1692211333.979,-37.109,-31.738,-28.320,-51.758,115.234
1692211333.983,-40.527,-27.832,-25.879,-57.129,-174.316
1692211333.987,-32.715,-24.902,-20.996,-25.391,-226.562
1692211333.989,-30.762,-27.344,-22.461,-9.277,-55.664
1692211333.993,-29.785,-27.832,-32.715,-25.391,-44.922
1692211333.997,-34.668,-28.320,-36.621,-46.387,-179.688
1692211334.001,-41.992,-31.738,-37.598,-54.199,-184.082
1692211334.005,-38.086,-35.156,-37.109,-32.227,-127.441
1692211334.009,-32.227,-35.645,-36.133,-9.277,30.273
1692211334.013,-26.367,-29.297,-35.156,-15.625,92.285
1692211334.016,-18.555,-28.320,-32.715,-30.273,-97.168
1692211334.020,-25.391,-34.668,-25.879,-44.922,147.949
1692211334.024,-31.738,-32.227,-22.949,-35.645,221.680
1692211334.028,-20.996,-29.297,-19.531,-7.812,-127.441
1692211334.032,-16.602,-29.297,-20.996,-2.930,-91.309
1692211334.034,-25.391,-25.879,-28.809,-32.715,-104.004
1692211334.038,-28.320,-24.902,-28.809,-57.617,-212.891
1692211334.042,-34.668,-30.762,-34.668,-51.270,-150.391
1692211334.046,-42.969,-30.273,-34.180,-28.320,53.223
1692211334.050,-47.363,-28.809,-30.273,-26.855,118.652
1692211334.054,-49.805,-30.273,-33.203,-57.617,-23.438
1692211334.058,-42.480,-28.320,-27.344,-64.453,-84.473
1692211334.061,-36.133,-26.367,-23.926,-38.086,62.500
1692211334.065,-33.203,-26.367,-31.250,-10.742,234.375
1692211334.069,-30.273,-27.344,-31.250,-9.277,41.992
1692211334.073,-33.203,-31.250,-23.926,-31.250,-94.727
1692211334.077,-44.434,-33.691,-25.879,-54.688,-13.672
1692211334.079,-51.758,-36.133,-36.621,-54.688,-26.855
1692211334.083,-44.434,-38.086,-38.086,-33.203,-143.555
1692211334.087,-37.598,-30.273,-31.250,-19.043,-107.910
1692211334.091,-39.551,-27.344,-30.273,-30.762,-77.637
1692211334.095,-41.504,-34.668,-28.320,-52.734,-111.328
1692211334.099,-38.574,-33.691,-28.320,-48.340,-84.473
1692211334.103,-25.879,-26.855,-32.227,-12.207,-0.977
1692211334.106,-21.973,-25.879,-29.297,5.859,246.582
1692211334.110,-29.785,-26.367,-26.855,-13.184,148.438
1692211334.114,-35.156,-25.391,-29.785,-40.039,-225.098
1692211334.118,-35.156,-22.461,-27.344,-38.086,-153.809
1692211334.122,-24.414,-21.484,-25.391,-13.184,-59.570
1692211334.125,-18.555,-21.484,-22.949,-0.977,-81.055
1692211334.129,-32.715,-28.320,-25.879,-18.555,-155.273
1692211334.133,-54.688,-31.738,-32.715,-57.617,-17.090
1692211334.137,-62.012,-28.320,-37.598,-71.289,253.418
1692211334.141,-53.223,-29.785,-40.527,-48.828,43.945
1692211334.145,-45.410,-29.297,-36.133,-29.785,-96.191
1692211334.149,-52.246,-30.762,-32.227,-37.598,103.027
1692211334.152,-63.965,-30.273,-31.738,-64.941,208.008
1692211334.156,-66.406,-35.156,-33.203,-76.660,-87.891
1692211334.160,-62.012,-34.668,-26.367,-51.758,-233.887
1692211334.164,-62.988,-29.785,-26.855,-40.527,-104.980
1692211334.168,-72.754,-30.762,-32.227,-54.688,-114.746
1692211334.173,-75.195,-34.180,-28.809,-71.289,-179.199
1692211334.177,-74.707,-40.039,-24.414,-87.891,-177.734
1692211334.181,-78.125,-40.527,-26.855,-79.590,-43.457
1692211334.185,-79.102,-41.504,-26.367,-58.105,-11.719
1692211334.189,-75.684,-41.016,-26.367,-55.176,-109.863
1692211334.193,-70.312,-38.086,-25.879,-73.730,-90.820
1692211334.197,-65.430,-40.039,-23.926,-78.613,241.699
1692211334.200,-51.270,-32.227,-27.344,-50.781,251.953
1692211334.204,-41.016,-24.414,-29.297,-30.273,-138.184
1692211334.208,-40.039,-27.832,-26.855,-29.785,-104.004
1692211334.212,-37.598,-27.832,-18.555,-43.945,-57.617
1692211334.216,-38.086,-26.855,-20.020,-63.965,-146.484
1692211334.215,-33.691,-28.320,-30.273,-52.246,-207.520
1692211334.219,-29.785,-24.902,-29.297,-23.438,-122.559
1692211334.223,-27.832,-23.926,-29.297,-15.137,38.086
1692211334.227,-27.344,-25.879,-33.691,-31.738,-26.855
1692211334.231,-24.902,-22.949,-37.598,-47.363,-162.109
1692211334.235,-18.066,-21.484,-42.480,-38.574,50.293
1692211334.239,-14.648,-26.855,-40.039,-7.324,551.270
1692211334.242,-12.207,-26.855,-37.598,-0.977,325.195
1692211334.246,-9.766,-18.066,-38.086,-12.695,-172.363
1692211334.250,-12.207,-20.020,-35.156,-36.621,-102.051
1692211334.254,-9.766,-22.461,-38.086,-41.504,-109.863
1692211334.258,-6.836,-20.020,-37.598,-8.789,-218.262
1692211334.261,-11.230,-28.809,-33.691,4.395,-160.156
1692211334.265,-23.438,-35.156,-33.691,-16.602,7.324
1692211334.269,-20.508,-27.344,-38.086,-36.621,-30.762
1692211334.273,-8.789,-23.926,-37.109,-31.250,-168.457
1692211334.277,-6.348,-21.973,-29.785,-0.977,-112.793
1692211334.281,-6.836,-22.461,-27.344,12.207,45.410
1692211334.285,-8.789,-23.926,-34.668,-9.277,65.918
1692211334.288,-20.508,-27.344,-36.133,-34.668,38.574
1692211334.292,-32.227,-34.668,-30.762,-43.945,-71.289
1692211334.296,-33.691,-32.227,-27.344,-23.926,173.340
1692211334.300,-34.180,-29.297,-26.855,-7.324,225.098
1692211334.304,-33.203,-29.785,-30.762,-19.531,-191.406
1692211334.319,-39.551,-35.645,-27.832,-38.574,-143.066
1692211334.323,-41.016,-40.039,-26.367,-46.875,-95.215
1692211334.327,-32.227,-31.250,-25.879,-20.508,-38.086
1692211334.331,-26.367,-25.879,-24.902,3.418,-16.602
1692211334.335,-23.438,-24.902,-24.902,-1.465,-20.020
1692211334.339,-26.855,-23.926,-27.344,-31.250,151.367
1692211334.343,-30.762,-23.926,-28.809,-50.293,-1.465
1692211334.346,-28.809,-25.391,-28.320,-28.809,-189.941
1692211334.350,-31.738,-28.809,-28.809,-13.184,-14.160
1692211334.354,-39.551,-34.180,-31.738,-22.949,100.586
1692211334.358,-40.527,-33.203,-31.250,-48.828,-78.613
1692211334.362,-39.062,-30.762,-34.180,-60.547,-169.434
1692211334.367,-39.062,-30.762,-37.109,-43.945,-27.344
1692211334.371,-38.086,-28.809,-31.738,-22.461,23.438
1692211334.375,-32.715,-30.762,-34.180,-14.648,-122.559
1692211334.379,-27.832,-29.297,-33.691,-30.273,-144.531
1692211334.383,-30.273,-22.461,-29.785,-48.340,-157.227
1692211334.387,-30.273,-17.090,-32.227,-34.668,-115.723
1692211334.391,-22.949,-19.531,-34.668,-2.441,-21.973
1692211334.394,-24.414,-21.484,-31.250,-0.488,-54.199
1692211334.398,-28.320,-21.484,-31.738,-27.344,121.582
1692211334.402,-31.250,-23.926,-34.668,-49.805,113.770
1692211334.406,-31.250,-25.391,-33.691,-42.480,-219.238
1692211334.410,-25.879,-31.738,-37.109,-20.020,-126.953
1692211334.410,-21.973,-33.203,-42.480,-5.859,119.141
1692211334.414,-9.766,-31.738,-40.527,-5.371,-5.371
1692211334.418,-2.441,-32.715,-31.738,-13.184,-117.676
1692211334.422,-24.414,-24.414,-32.227,-28.320,51.270
1692211334.426,-32.715,-18.555,-30.762,-8.789,187.988
1692211334.430,-17.578,-26.367,-23.926,17.578,108.398
1692211334.434,-13.672,-29.297,-20.508,-7.324,-32.227
1692211334.437,-18.066,-30.762,-21.973,-27.832,-11.230
1692211334.441,-18.066,-36.621,-22.949,-11.719,305.664
1692211334.445,-14.648,-32.227,-23.438,6.348,197.754
1692211334.449,-10.742,-34.180,-24.414,7.812,-197.266
1692211334.453,-13.184,-38.086,-28.320,-9.766,-201.660
1692211334.455,-21.973,-38.086,-37.109,-34.668,-171.387
1692211334.459,-30.762,-38.086,-34.668,-39.551,-232.422
1692211334.463,-29.785,-35.645,-28.809,-15.625,-153.320
1692211334.467,-22.461,-33.203,-27.344,5.859,45.410
1692211334.471,-30.762,-33.203,-30.762,-13.184,-41.992
1692211334.475,-38.086,-33.691,-34.180,-42.480,-149.902
1692211334.479,-33.203,-28.809,-28.320,-34.180,-86.426
1692211334.482,-29.297,-26.367,-28.320,0.977,186.035
1692211334.486,-21.484,-27.344,-32.227,10.742,239.258
1692211334.490,-20.508,-24.902,-34.180,-9.766,-169.922
1692211334.494,-29.785,-25.391,-33.203,-37.109,-225.586
1692211334.498,-29.785,-29.785,-33.691,-43.945,-145.996
1692211334.499,-28.809,-29.785,-31.738,-12.695,-172.852
1692211334.503,-23.438,-27.832,-27.344,11.719,-170.898
1692211334.507,-22.461,-29.785,-28.809,-5.371,15.137
1692211334.511,-32.715,-33.203,-30.273,-36.621,159.668
1692211334.515,-32.227,-29.297,-29.785,-49.805,-102.539
1692211334.519,-26.855,-28.809,-30.762,-42.480,-103.027
1692211334.523,-21.484,-27.344,-31.250,-15.137,216.309
1692211334.526,-24.414,-27.344,-31.250,-6.836,614.746
1692211334.530,-33.203,-32.715,-35.156,-35.645,303.223
1692211334.534,-32.715,-33.691,-36.133,-56.641,-210.449
1692211334.538,-31.250,-28.809,-30.273,-42.480,-204.102
1692211334.542,-29.785,-26.367,-32.715,-17.578,-154.297
1692211334.546,-28.320,-23.438,-34.180,-17.090,-193.359
1692211334.550,-34.180,-30.273,-27.832,-41.016,-228.027
1692211334.554,-36.133,-30.762,-25.879,-55.664,-172.852
1692211334.558,-37.598,-24.414,-25.391,-36.133,-125.488
1692211334.562,-35.645,-28.320,-28.320,-11.719,-91.309
1692211334.566,-38.086,-28.809,-24.902,-16.113,-20.020
1692211334.570,-42.480,-26.367,-20.508,-36.133,255.859
1692211334.573,-36.621,-21.484,-22.461,-48.340,203.125
1692211334.577,-28.320,-15.625,-25.391,-38.574,-153.809
1692211334.581,-20.996,-18.555,-28.320,-10.254,-128.906
1692211334.585,-12.207,-18.555,-25.879,2.930,-11.719
1692211334.589,-10.254,-19.531,-23.926,-7.812,-128.418
1692211334.604,-13.184,-24.902,-25.391,-30.273,-206.543
1692211334.608,-25.391,-28.320,-30.762,-34.668,-118.652
1692211334.612,-23.438,-27.344,-26.855,-6.836,-2.930
1692211334.616,-18.555,-23.438,-21.484,0.977,-34.668
1692211334.620,-24.414,-25.879,-28.320,-20.508,-161.621
1692211334.624,-29.297,-30.273,-23.438,-43.457,30.762
1692211334.628,-28.809,-28.320,-25.879,-37.109,425.781
1692211334.631,-20.508,-22.461,-27.344,-7.812,138.672
1692211334.635,-14.160,-21.973,-26.855,-5.859,-215.820
1692211334.639,-19.531,-26.367,-31.250,-25.879,-90.332
1692211334.643,-30.762,-31.250,-35.645,-47.852,7.812
1692211334.647,-30.273,-32.227,-37.109,-50.293,-118.652
1692211334.652,-23.926,-36.133,-33.203,-27.344,-217.773
1692211334.656,-20.996,-33.691,-34.668,-5.371,-44.434
1692211334.660,-24.414,-29.785,-35.645,-14.648,16.113
1692211334.664,-30.273,-30.762,-34.180,-44.434,-152.832
1692211334.668,-24.902,-25.391,-29.297,-47.852,-132.812
1692211334.672,-18.555,-25.879,-23.926,-22.949,33.691
1692211334.676,-19.043,-29.297,-20.508,-4.883,51.758
1692211334.679,-18.555,-28.320,-18.066,-1.465,-29.785
1692211334.683,-19.043,-27.344,-19.531,-19.531,-107.422
1692211334.687,-27.344,-29.785,-31.250,-34.180,182.129
1692211334.691,-35.156,-30.762,-32.715,-18.555,211.914
1692211334.695,-27.832,-24.902,-23.438,-3.418,-143.555
1692211334.713,-31.738,-30.273,-29.297,-11.230,-39.551
1692211334.717,-42.480,-36.133,-31.738,-42.480,20.020
1692211334.721,-37.598,-35.156,-30.762,-54.199,-110.352
1692211334.725,-29.297,-38.574,-32.227,-31.738,-102.539
1692211334.729,-27.832,-40.527,-28.809,-10.742,21.973
1692211334.733,-30.762,-35.645,-27.344,-15.137,155.762
1692211334.737,-35.156,-32.227,-24.414,-38.574,6.348
1692211334.740,-32.715,-28.320,-25.879,-51.270,-156.250
1692211334.744,-26.855,-24.414,-26.855,-33.203,-24.902
1692211334.748,-32.715,-28.809,-26.367,-5.371,435.547
1692211334.752,-38.086,-29.785,-25.879,-2.930,236.328
1692211334.756,-39.551,-28.320,-28.320,-29.297,-205.566
1692211334.739,-41.016,-28.320,-32.227,-55.176,-181.152
1692211334.743,-35.156,-24.414,-33.691,-44.922,-178.711
1692211334.747,-30.273,-28.320,-33.203,-16.113,-181.152
1692211334.751,-34.180,-31.738,-37.598,-14.648,-121.094
1692211334.755,-38.086,-26.855,-41.992,-40.039,-58.594
1692211334.759,-40.039,-24.902,-39.062,-62.500,-35.156
1692211334.763,-38.574,-23.438,-41.016,-53.711,-68.848
1692211334.766,-35.645,-30.762,-35.645,-21.973,-86.914
1692211334.770,-31.738,-34.180,-32.227,-9.766,-36.621
1692211334.774,-28.809,-24.902,-36.133,-24.414,-32.227
1692211334.778,-36.621,-22.949,-33.203,-54.199,-103.027
1692211334.782,-40.039,-23.438,-35.156,-60.547,-119.141
1692211334.815,-39.551,-23.926,-38.086,-39.551,303.711
1692211334.819,-36.621,-28.809,-37.598,-30.273,285.645
1692211334.823,-36.621,-29.785,-37.109,-42.480,-96.191
1692211334.827,-42.969,-30.273,-38.574,-61.523,3.906
1692211334.831,-34.180,-30.762,-39.551,-53.223,38.086
1692211334.835,-27.344,-30.762,-39.551,-30.273,-93.750
1692211334.839,-26.855,-31.738,-38.086,-27.344,-128.906
1692211334.842,-28.809,-33.691,-28.320,-36.621,93.262
1692211334.846,-32.715,-31.250,-23.438,-41.016,345.215
1692211334.850,-33.691,-33.203,-26.855,-40.527,14.160
1692211334.854,-33.691,-38.574,-21.484,-19.531,-281.738
1692211334.858,-31.250,-41.504,-20.996,-4.395,-182.617
1692211334.829,-32.227,-35.156,-28.320,-14.648,-144.531
1692211334.833,-38.574,-29.297,-28.809,-43.457,-218.750
1692211334.837,-30.762,-25.879,-29.297,-50.781,-212.402
1692211334.841,-26.367,-18.555,-33.691,-25.391,-149.414
1692211334.845,-24.902,-21.484,-32.715,-16.602,-136.719
1692211334.849,-18.066,-25.879,-25.879,-23.438,-60.547
1692211334.853,-20.996,-24.414,-27.344,-38.086,-2.930
1692211334.856,-23.438,-20.996,-27.832,-49.805,-2.441
1692211334.860,-24.414,-24.902,-27.832,-33.203,-30.273
1692211334.864,-17.090,-22.949,-23.926,-8.301,-133.301
1692211334.868,-14.648,-17.090,-23.926,-11.719,-90.332
1692211334.872,-17.578,-19.043,-30.762,-39.551,66.406
1692211334.905,-23.926,-19.531,-27.344,-54.688,-62.988
1692211334.909,-26.367,-22.461,-26.367,-43.457,-213.379
1692211334.913,-17.578,-24.902,-29.297,-17.090,-31.250
1692211334.917,-9.766,-26.367,-33.203,-8.301,519.531
1692211334.921,-20.996,-29.785,-37.109,-29.785,463.867
1692211334.925,-35.645,-31.738,-35.156,-50.781,-38.574
1692211334.929,-32.715,-31.250,-30.762,-47.852,42.480
1692211334.932,-31.250,-26.855,-29.785,-23.438,181.641
1692211334.936,-38.086,-24.414,-34.668,-16.113,-105.469
1692211334.940,-46.875,-29.297,-37.598,-40.039,-225.098
1692211334.944,-50.293,-32.715,-31.250,-56.152,-104.492
1692211334.948,-49.316,-32.227,-25.391,-51.270,-74.707
1692211334.919,-43.457,-31.250,-22.461,-28.809,-204.590
1692211334.923,-40.527,-28.320,-23.926,-22.949,-188.965
1692211334.927,-45.898,-26.855,-23.438,-47.852,-58.105
1692211334.931,-48.340,-29.297,-21.484,-64.941,-83.008
1692211334.935,-49.316,-33.691,-28.320,-56.641,-200.684
1692211334.939,-55.664,-38.574,-31.250,-33.691,-53.223
1692211334.943,-54.199,-35.645,-31.250,-23.438,158.691
1692211334.946,-45.410,-27.832,-28.809,-34.668,-2.441
1692211334.950,-47.852,-28.320,-31.738,-62.500,-212.891
1692211334.954,-44.922,-28.809,-34.668,-74.219,-151.855
1692211334.958,-40.039,-26.855,-34.180,-49.316,24.414
1692211334.962,-37.109,-25.391,-34.180,-27.832,-31.250
1692211334.980,-38.086,-30.762,-33.691,-43.945,-164.062
1692211334.984,-38.086,-34.180,-30.273,-67.871,-86.426
1692211334.988,-29.785,-25.391,-27.832,-54.199,374.512
1692211334.992,-30.762,-22.949,-29.785,-31.250,440.918
1692211334.996,-27.344,-25.879,-27.832,-18.066,6.836
1692211335.000,-18.555,-23.926,-27.832,-14.648,76.660
1692211335.004,-19.531,-22.949,-33.691,-37.598,65.918
1692211335.007,-26.855,-25.391,-33.691,-60.547,-167.969
1692211335.011,-25.879,-25.879,-31.250,-31.250,-250.488
1692211335.015,-19.531,-22.461,-31.250,-1.465,-13.672
1692211335.019,-21.484,-20.508,-31.250,-17.090,111.328
1692211335.023,-21.973,-23.438,-32.715,-47.852,-169.434
1692211335.011,-21.973,-25.391,-35.645,-54.199,-212.891
1692211335.015,-22.461,-24.902,-31.738,-20.996,-107.422
1692211335.019,-27.832,-28.809,-23.926,1.465,-98.145
1692211335.023,-41.992,-37.598,-21.484,-7.812,-88.867
1692211335.027,-51.758,-37.598,-17.090,-36.621,-114.258
1692211335.031,-60.059,-35.156,-18.555,-57.617,-30.273
1692211335.035,-54.688,-34.668,-27.344,-40.527,28.809
1692211335.038,-37.109,-30.273,-30.762,-11.719,-109.375
1692211335.042,-43.945,-32.227,-34.668,-13.184,-147.949
1692211335.046,-47.852,-33.691,-28.320,-32.715,189.941
1692211335.050,-42.969,-29.785,-26.855,-51.270,224.609
1692211335.054,-47.363,-27.344,-29.785,-55.664,-171.387
1692211335.069,-45.898,-29.785,-30.273,-30.762,-81.055
1692211335.073,-47.363,-36.133,-35.645,-27.344,6.836
1692211335.077,-49.805,-36.133,-31.738,-49.316,-29.785
1692211335.081,-54.199,-30.762,-29.785,-66.406,-103.516
1692211335.085,-51.758,-30.762,-30.273,-59.082,-34.180
1692211335.089,-43.457,-32.227,-23.438,-28.809,262.207
1692211335.093,-37.598,-28.809,-27.344,-20.020,167.969
1692211335.096,-32.715,-31.738,-39.062,-38.574,-9.766
1692211335.100,-33.203,-37.109,-37.109,-49.316,77.637
1692211335.104,-30.273,-39.551,-34.180,-44.922,216.309
1692211335.108,-21.973,-31.738,-38.086,-18.555,-34.668
1692211335.112,-18.066,-25.391,-37.109,4.395,-195.312
1692211335.114,-22.949,-26.855,-36.133,-20.996,-143.066
1692211335.118,-26.855,-25.391,-37.598,-56.641,-126.465
1692211335.122,-23.438,-22.949,-38.574,-53.223,-184.082
1692211335.126,-23.438,-24.414,-36.621,-25.391,-165.039
1692211335.130,-31.738,-22.461,-34.180,-17.578,-77.637
1692211335.134,-34.668,-21.973,-32.715,-40.039,-16.113
1692211335.138,-35.645,-31.250,-33.203,-66.895,-64.941
1692211335.141,-30.762,-35.156,-35.645,-63.965,-166.016
1692211335.145,-22.461,-28.320,-39.551,-37.598,246.094
1692211335.149,-21.973,-21.484,-40.527,-11.719,339.844
1692211335.153,-16.602,-20.508,-35.645,-14.648,-187.500
1692211335.157,-18.066,-21.484,-31.738,-41.992,-199.219
1692211335.159,-20.508,-20.996,-26.855,-50.293,-119.629
1692211335.163,-20.508,-20.508,-19.043,-28.809,-158.691
1692211335.167,-23.926,-20.020,-20.996,-10.742,-111.816
1692211335.171,-31.738,-23.438,-28.809,-25.879,41.504
1692211335.175,-39.551,-31.250,-25.391,-49.805,90.820
1692211335.179,-38.574,-32.715,-24.414,-54.199,-21.484
1692211335.183,-29.785,-31.738,-27.832,-35.156,-132.324
1692211335.186,-25.879,-32.715,-21.973,-20.996,-26.367
1692211335.190,-28.809,-33.203,-29.785,-30.273,153.320
1692211335.194,-30.762,-31.250,-37.109,-46.875,-103.027
1692211335.198,-33.691,-27.344,-27.344,-53.223,-237.793
1692211335.202,-41.016,-30.762,-26.367,-39.062,-35.156
1692211335.204,-37.109,-25.879,-28.320,-14.648,32.715
1692211335.208,-24.414,-19.531,-27.344,-5.371,-128.906
1692211335.212,-20.996,-27.832,-26.367,-25.391,-161.621
1692211335.216,-24.414,-27.832,-20.508,-48.340,-88.867
1692211335.220,-28.809,-28.320,-15.137,-34.668,-88.379
1692211335.224,-31.250,-35.156,-21.484,-17.578,-114.746
1692211335.228,-35.156,-35.156,-31.738,-17.090,-41.992
1692211335.231,-38.086,-31.738,-32.227,-26.855,230.957
1692211335.235,-41.016,-26.367,-30.762,-39.551,146.484
1692211335.239,-36.621,-23.438,-34.668,-36.133,-204.590
1692211335.243,-34.180,-23.438,-34.180,-13.184,-123.535
1692211335.247,-33.203,-25.391,-31.738,-6.348,-1.465
1692211335.250,-31.250,-32.715,-29.297,-27.832,-83.984
1692211335.254,-31.250,-33.691,-32.715,-50.781,-205.078
1692211335.258,-35.645,-30.762,-36.133,-43.945,-26.367
1692211335.262,-42.480,-30.762,-39.551,-23.438,279.785
1692211335.266,-40.039,-29.297,-36.621,-19.043,94.238
1692211335.270,-38.086,-26.855,-27.344,-32.715,-20.508
1692211335.274,-48.340,-27.344,-27.832,-51.270,196.777
1692211335.277,-41.504,-30.273,-26.855,-38.086,255.859
1692211335.281,-25.391,-27.832,-31.738,-17.578,-69.824
1692211335.285,-27.344,-23.926,-32.715,-10.254,-174.316
1692211335.289,-29.297,-21.973,-28.809,-21.484,-81.543
1692211335.293,-29.297,-22.949,-31.250,-42.969,-117.188
1692211335.296,-28.320,-25.391,-33.203,-42.969,-222.168
1692211335.300,-22.461,-29.297,-31.738,-18.555,-224.121
1692211335.304,-27.344,-31.250,-32.227,-1.953,-100.098
1692211335.308,-33.203,-29.785,-32.715,-22.461,-87.402
1692211335.312,-36.621,-33.691,-23.438,-55.664,-140.137
1692211335.316,-38.574,-35.645,-23.926,-55.176,-133.301
1692211335.320,-36.133,-33.203,-33.203,-24.414,245.605
1692211335.323,-31.250,-30.762,-33.203,-3.418,408.691
1692211335.327,-33.203,-30.762,-29.297,-23.438,-25.879
1692211335.331,-41.504,-29.785,-26.367,-48.828,-152.344
1692211335.335,-40.039,-23.438,-33.691,-56.152,-132.324
1692211335.339,-38.086,-25.391,-36.133,-38.574,-151.855
1692211335.354,-35.156,-30.273,-32.715,-10.742,-137.695
1692211335.358,-38.086,-30.762,-33.691,-14.648,-109.375
1692211335.362,-44.434,-31.250,-29.785,-42.480,-88.379
1692211335.366,-50.781,-28.320,-27.832,-55.664,-88.867
1692211335.370,-52.246,-28.320,-33.691,-40.527,-115.234
1692211335.374,-47.852,-33.203,-32.715,-20.020,16.113
1692211335.378,-52.734,-33.203,-36.621,-23.438,467.773
1692211335.381,-51.270,-32.715,-36.621,-38.086,355.469
1692211335.385,-42.480,-28.809,-29.785,-43.457,-186.523
1692211335.389,-36.133,-28.809,-30.762,-34.668,-83.984
1692211335.393,-32.715,-32.715,-34.180,-20.996,24.414
1692211335.397,-32.227,-33.203,-36.621,-25.879,-129.395
1692211335.400,-42.969,-28.809,-30.273,-59.570,-209.961
1692211335.404,-44.434,-26.367,-26.855,-71.289,-181.641
1692211335.408,-29.785,-27.344,-34.180,-51.270,-140.137
1692211335.412,-27.832,-23.438,-35.156,-20.996,-162.109
1692211335.416,-31.250,-20.508,-32.715,-15.137,-100.098
1692211335.420,-32.715,-20.996,-31.738,-35.156,81.055
1692211335.424,-33.203,-26.855,-33.203,-46.387,60.547
1692211335.427,-31.250,-28.809,-33.691,-39.062,-129.395
1692211335.431,-26.855,-25.879,-31.250,-10.254,-134.277
1692211335.435,-25.879,-24.414,-29.785,4.395,295.898
1692211335.439,-33.691,-25.391,-33.691,-22.949,309.570
1692211335.443,-35.156,-28.809,-34.668,-50.781,-174.316
1692211335.444,-30.273,-27.832,-32.715,-44.434,-151.367
1692211335.448,-24.414,-29.297,-37.598,-21.484,-58.594
1692211335.452,-29.297,-32.227,-40.527,-18.066,-61.035
1692211335.456,-38.574,-32.227,-35.156,-36.621,-89.355
1692211335.460,-37.109,-33.691,-34.668,-60.059,-48.340
1692211335.464,-31.738,-31.250,-34.668,-59.570,40.527
1692211335.468,-29.785,-24.902,-38.086,-39.551,13.672
1692211335.471,-22.949,-20.508,-36.133,-20.508,-55.664
1692211335.475,-21.973,-24.902,-30.273,-24.414,-7.812
1692211335.479,-35.156,-32.715,-30.273,-49.805,263.184
1692211335.483,-43.945,-29.297,-26.855,-45.410,-1.953
1692211335.487,-39.551,-26.855,-28.809,-22.949,-142.090
1692211335.489,-35.156,-28.320,-26.855,-6.836,20.996
1692211335.493,-41.992,-27.832,-20.020,-13.672,-92.773
1692211335.497,-41.016,-25.879,-21.973,-40.039,-243.164
1692211335.501,-30.273,-24.414,-27.344,-47.363,-278.320
1692211335.505,-18.555,-21.973,-32.227,-15.137,-208.008
1692211335.509,-13.184,-20.508,-24.414,11.719,-27.344
1692211335.513,-30.762,-27.832,-21.973,-16.113,55.664
1692211335.516,-40.039,-36.621,-23.438,-54.199,-120.117
1692211335.520,-34.180,-32.227,-20.020,-61.523,70.801
1692211335.524,-40.039,-28.320,-23.926,-41.016,107.910
1692211335.528,-34.668,-34.180,-31.738,-20.020,-210.449
1692211335.532,-25.879,-32.227,-32.715,-18.066,-100.586
1692211335.564,-31.738,-31.250,-31.738,-52.246,-48.828
1692211335.568,-39.551,-36.133,-34.180,-70.312,-220.215
1692211335.572,-42.480,-32.715,-34.668,-49.316,-219.727
1692211335.576,-32.715,-28.320,-28.320,-26.367,72.266
1692211335.580,-16.602,-20.996,-24.414,-13.672,280.762
1692211335.584,-16.113,-16.602,-23.438,-34.668,107.910
1692211335.588,-18.555,-19.531,-22.949,-52.734,-138.672
1692211335.591,-14.648,-20.996,-21.484,-31.738,-38.086
1692211335.595,-14.648,-22.461,-21.973,4.395,39.062
1692211335.599,-16.113,-24.414,-26.367,-3.418,-163.574
1692211335.603,-23.438,-23.926,-27.344,-27.344,-217.773
1692211335.607,-23.926,-26.367,-26.367,-39.062,-15.625
1692211335.594,-27.344,-29.297,-27.832,-40.527,95.215
1692211335.598,-31.738,-27.344,-29.297,-25.391,-97.656
1692211335.602,-28.320,-28.809,-29.297,-16.602,-119.629
1692211335.606,-32.227,-29.297,-29.297,-30.273,-88.867
1692211335.610,-37.109,-24.414,-29.785,-48.340,-123.047
1692211335.614,-31.738,-22.949,-31.250,-35.645,-120.117
