timestamps,TP9,AF7,AF8,TP10,Right AUX
1688494176.830,-45.410,-55.176,-30.762,-42.480,-148.438
1688494176.834,-64.941,-63.965,-64.453,-61.035,-55.176
1688494176.838,-45.410,-43.945,-54.199,-38.086,292.969
1688494176.842,-7.812,-23.926,-15.625,-1.465,28.320
1688494176.846,-48.340,-64.941,-28.809,-38.574,-210.938
1688494176.850,-68.359,-79.590,-31.738,-59.570,46.387
1688494176.854,-40.039,-48.828,1.465,-31.738,87.402
1688494176.857,-23.926,-24.902,7.324,-15.137,-72.754
1688494176.861,-20.020,-26.367,-13.184,-11.719,-205.078
1688494176.865,-33.691,-47.852,-26.855,-10.742,38.574
1688494176.869,-26.855,-48.828,-28.809,-11.230,157.227
1688494176.873,-11.230,-35.645,-12.207,1.465,-110.352
1688494176.875,-20.996,-46.875,0.977,-5.859,-211.426
1688494176.879,-25.879,-53.223,0.977,-18.555,105.469
1688494176.883,-24.902,-45.410,-3.906,-28.320,155.273
1688494176.887,-27.832,-47.363,-1.465,-31.250,-232.910
1688494176.891,-50.293,-53.711,-6.836,-34.668,-169.922
1688494176.895,-48.828,-45.898,-12.695,-33.203,56.641
1688494176.899,-27.832,-37.598,-9.766,-15.137,77.148
1688494176.902,-37.598,-41.992,-14.648,-14.648,-165.039
1688494176.906,-48.340,-55.664,-25.391,-18.066,-158.691
1688494176.910,-28.809,-41.016,-10.254,-8.789,149.902
1688494176.914,-17.090,-18.555,6.836,-6.836,31.250
1688494176.918,-30.273,-35.156,-6.836,-34.180,-192.871
1688494176.920,-36.133,-50.293,-23.438,-47.363,-119.141
1688494176.924,-31.738,-45.410,-35.156,-39.062,-48.828
1688494176.928,-40.527,-49.316,-34.180,-36.133,-118.164
1688494176.932,-48.340,-57.617,-26.367,-45.410,-103.027
1688494176.936,-33.691,-55.176,-20.020,-36.133,135.742
1688494176.940,-26.367,-50.293,-13.184,-21.973,122.070
1688494176.944,-28.809,-39.551,-13.184,-15.137,-30.762
1688494176.947,-12.207,-29.785,-8.301,-0.488,-70.801
1688494176.951,-16.113,-45.410,-12.695,-4.883,88.379
1688494176.955,-37.109,-64.453,-26.855,-20.996,193.359
1688494176.959,-37.598,-44.922,-17.090,-24.414,-43.945
1688494176.963,-36.621,-36.133,-14.648,-20.996,-111.328
1688494176.964,-34.180,-42.480,-23.926,-22.461,22.461
1688494176.968,-35.645,-46.387,-25.391,-30.273,14.648
1688494176.972,-33.203,-57.617,-21.484,-32.227,-142.578
1688494176.976,-41.016,-65.918,-25.391,-30.762,-141.113
1688494176.980,-52.246,-64.941,-28.320,-25.391,-115.234
1688494176.984,-31.250,-56.152,-18.066,-15.625,5.371
1688494176.988,-22.461,-49.316,-12.207,-21.484,-3.418
1688494176.991,-16.602,-37.109,-5.859,-11.719,57.617
1688494176.995,3.906,-35.156,2.930,4.883,155.273
1688494176.999,-0.977,-41.504,-3.418,-6.348,-111.328
1688494177.003,-45.410,-53.223,-32.227,-35.645,-227.539
1688494177.007,-63.477,-65.430,-43.945,-50.781,-47.852
1688494177.009,-44.922,-54.688,-27.344,-42.480,228.516
1688494177.013,-39.062,-37.598,-23.926,-35.645,16.602
1688494177.017,-27.344,-31.250,-16.113,-27.344,-197.266
1688494177.021,-21.973,-35.645,-10.254,-29.785,-8.301
1688494177.025,-15.137,-42.480,-14.160,-20.508,13.672
1688494177.029,-10.742,-51.758,-8.301,-9.277,-66.895
1688494177.033,-30.762,-52.246,-16.602,-43.945,-125.488
1688494177.036,-41.504,-41.504,-20.508,-50.293,64.941
1688494177.040,-19.531,-32.227,-9.277,-21.973,186.035
1688494177.044,-27.832,-45.898,-17.578,-43.457,-132.812
1688494177.048,-36.621,-49.805,-26.855,-43.457,-111.328
1688494177.052,-23.438,-38.086,-26.367,-17.090,22.461
1688494177.054,-33.203,-47.852,-31.250,-33.691,-131.348
1688494177.058,-43.945,-53.223,-41.016,-52.246,-207.520
1688494177.062,-38.086,-45.410,-29.785,-46.387,-95.215
1688494177.066,-28.809,-41.992,-19.531,-38.574,229.492
1688494177.070,-17.090,-42.969,-10.254,-24.414,231.934
1688494177.074,-30.273,-47.852,-10.742,-21.973,-74.707
1688494177.078,-33.691,-43.945,-16.602,-21.484,-56.152
1688494177.081,-8.789,-31.250,-8.301,-6.348,204.102
1688494177.085,-25.879,-48.340,-18.066,-21.484,101.562
1688494177.089,-39.062,-52.734,-11.230,-28.809,-196.289
1688494177.093,-29.297,-39.551,-1.953,-20.020,-174.805
1688494177.097,-29.297,-50.293,-6.836,-19.531,-72.754
1688494177.114,-34.180,-59.570,-19.043,-28.320,-79.102
1688494177.118,-33.691,-47.852,-20.996,-24.414,-190.430
1688494177.122,-38.086,-39.551,-14.648,-16.602,-74.707
1688494177.126,-33.203,-36.133,-7.812,-10.254,20.996
1688494177.130,-19.043,-35.156,1.953,10.742,-138.672
1688494177.134,-25.879,-51.758,-6.348,-0.977,-165.039
1688494177.138,-41.016,-68.848,-29.297,-32.715,181.641
1688494177.141,-41.504,-65.918,-41.504,-37.109,271.484
1688494177.145,-39.551,-53.711,-29.785,-25.391,-180.176
1688494177.149,-34.668,-36.621,-26.855,-18.066,-270.996
1688494177.153,-24.414,-33.203,-34.668,-7.812,-38.086
1688494177.157,-27.832,-41.992,-26.855,-16.113,62.012
1688494177.145,-44.434,-45.898,-6.348,-34.180,-135.742
1688494177.149,-53.223,-48.828,-9.277,-42.969,-181.641
1688494177.153,-37.109,-50.781,-21.484,-32.227,94.238
1688494177.157,-28.809,-48.340,-16.602,-2.930,58.594
1688494177.161,-24.414,-41.992,-10.254,7.324,-176.758
1688494177.165,-26.367,-41.992,-11.230,-15.137,1.465
1688494177.169,-30.762,-47.363,-19.531,-24.414,169.434
1688494177.172,-24.414,-47.852,-20.508,-11.230,0.000
1688494177.176,-11.719,-38.086,-18.066,5.859,-159.180
1688494177.180,0.488,-41.016,-24.414,10.742,-29.785
1688494177.184,-8.301,-49.805,-20.996,9.766,217.285
1688494177.188,-12.207,-39.551,-20.508,14.648,7.324
1688494177.189,-6.348,-30.762,-20.020,11.230,-212.891
1688494177.193,-9.766,-32.715,-5.371,3.906,-136.230
1688494177.197,-4.883,-39.062,0.488,-0.488,-90.332
1688494177.201,-8.301,-43.945,-5.371,-4.395,-103.516
1688494177.205,-25.879,-41.016,-22.461,-19.043,-160.156
1688494177.209,-23.926,-45.410,-34.180,-22.949,117.676
1688494177.213,-26.855,-54.688,-28.809,-23.926,379.883
1688494177.216,-20.020,-43.945,-21.973,-24.414,39.062
1688494177.220,-5.371,-26.855,-21.973,-10.254,-183.594
1688494177.224,-19.531,-34.668,-17.090,-10.254,-173.828
1688494177.228,-20.508,-39.062,-2.441,-19.531,-104.980
1688494177.232,-26.855,-44.922,-18.066,-31.738,-29.297
1688494177.249,-34.668,-57.617,-34.668,-21.484,-116.211
1688494177.253,-33.203,-48.828,-24.414,-6.836,83.008
1688494177.257,-49.805,-38.086,-21.484,-23.926,120.117
1688494177.261,-59.570,-42.969,-13.184,-35.156,-252.930
1688494177.265,-50.293,-46.387,-8.301,-39.062,-160.645
1688494177.269,-31.738,-39.551,-7.812,-33.691,90.332
1688494177.273,-35.156,-51.758,-10.254,-34.668,3.906
1688494177.276,-30.273,-45.410,-10.742,-25.391,-72.754
1688494177.280,-12.207,-30.762,-11.719,-14.160,-49.316
1688494177.284,-35.645,-47.852,-31.738,-28.320,166.016
1688494177.288,-45.898,-54.688,-32.227,-26.367,76.172
1688494177.292,-42.969,-41.504,-24.902,-22.949,-205.566
1688494177.295,-41.016,-35.156,-23.926,-20.508,-143.066
1688494177.299,-35.156,-37.109,-20.996,-20.020,-135.254
1688494177.303,-28.809,-37.109,-17.090,-17.090,-176.758
1688494177.307,-31.250,-41.504,-19.531,-14.160,-163.086
1688494177.311,-23.926,-42.480,-7.812,2.441,-72.754
1688494177.315,-18.066,-44.434,-5.371,4.395,10.742
1688494177.319,-22.461,-38.086,-20.996,2.441,16.602
1688494177.322,-9.277,-28.320,-18.066,6.348,-108.398
1688494177.326,-17.578,-37.109,-17.578,-13.672,62.012
1688494177.330,-25.879,-35.156,-21.484,-24.902,265.625
1688494177.334,-38.086,-49.805,-20.508,-41.016,-1.465
1688494177.338,-59.570,-68.359,-11.719,-56.641,-142.090
1688494177.340,-64.941,-64.941,-10.254,-58.594,107.422
1688494177.344,-59.570,-53.711,-13.672,-42.480,165.039
1688494177.348,-45.898,-44.922,-16.602,-21.484,-100.098
1688494177.352,-23.438,-40.527,-14.648,-18.066,-92.285
1688494177.356,-20.020,-35.156,-13.672,-18.066,-130.859
1688494177.360,-36.133,-45.410,-12.207,-30.762,-123.535
1688494177.364,-40.527,-48.340,-4.883,-32.715,-39.551
1688494177.367,-48.340,-37.598,-11.230,-22.949,35.645
1688494177.371,-46.875,-38.086,-24.414,-24.902,36.133
1688494177.375,-42.480,-40.527,-20.996,-24.902,-137.207
1688494177.379,-41.504,-40.039,-4.883,-12.695,-243.164
1688494177.383,-30.762,-45.410,-0.488,-12.207,13.184
1688494177.385,-32.715,-46.875,-8.789,-22.461,418.457
1688494177.389,-22.461,-37.598,-12.207,-6.836,115.723
1688494177.393,-11.230,-37.109,-16.113,2.441,-174.805
1688494177.397,-14.648,-37.598,-17.090,5.371,-123.047
1688494177.401,-14.648,-35.156,-14.648,0.000,-121.094
1688494177.405,-17.090,-46.875,-23.438,-22.949,-34.180
1688494177.409,-12.207,-46.875,-25.391,-26.367,30.762
1688494177.412,-25.391,-37.109,-25.391,-19.531,187.500
1688494177.416,-40.039,-41.992,-27.832,-21.973,97.656
1688494177.420,-23.438,-43.945,-23.926,-19.043,-195.312
1688494177.424,-0.488,-30.762,-15.625,0.977,-153.320
1688494177.428,-23.926,-35.645,-18.066,1.465,201.172
1688494177.430,-51.270,-43.945,-16.113,-22.949,241.211
1688494177.434,-47.852,-43.945,-9.766,-32.715,-207.031
1688494177.438,-60.059,-58.105,-13.672,-34.668,-211.426
1688494177.442,-58.105,-56.641,-10.254,-31.250,-59.570
1688494177.446,-47.363,-39.062,-16.602,-26.367,-130.859
1688494177.450,-39.062,-32.227,-14.160,-29.297,-47.363
1688494177.454,-27.344,-30.762,-5.859,-31.738,23.438
1688494177.457,-40.527,-40.527,-13.672,-27.344,224.121
1688494177.461,-35.156,-41.016,-15.137,-16.602,201.660
1688494177.465,-19.043,-30.273,-15.625,-12.207,-203.125
1688494177.469,-38.086,-49.805,-32.227,-37.109,-188.477
1688494177.473,-41.016,-57.617,-34.668,-45.410,-147.461
1688494177.474,-24.414,-46.875,-28.809,-21.973,-233.887
1688494177.478,-27.832,-53.223,-30.273,-18.555,-250.000
1688494177.482,-30.273,-45.410,-25.879,-20.508,-131.348
1688494177.486,-31.738,-41.016,-25.879,-29.297,-94.238
1688494177.490,-26.855,-36.133,-3.906,-33.203,-117.188
1688494177.494,-24.414,-28.320,1.953,-27.344,-52.246
1688494177.498,-39.551,-50.781,-32.227,-44.922,183.594
1688494177.501,-39.062,-52.734,-30.762,-36.133,375.977
1688494177.505,-39.551,-44.434,-21.973,-12.695,60.547
1688494177.509,-48.340,-50.293,-31.250,-22.461,-166.504
1688494177.513,-49.316,-60.059,-30.762,-36.621,-32.715
1688494177.517,-35.645,-50.293,-19.043,-32.227,16.113
1688494177.520,-25.879,-38.086,-15.625,-31.738,-132.812
1688494177.524,-31.250,-41.992,-20.020,-36.621,-137.207
1688494177.528,-17.578,-48.828,-10.742,-25.391,60.547
1688494177.532,-15.137,-46.875,-8.301,-2.441,-2.930
1688494177.536,-25.391,-46.875,-21.973,-6.348,-194.824
1688494177.540,-27.344,-61.035,-36.621,-20.020,-8.301
1688494177.544,-21.484,-53.711,-28.320,-21.973,278.809
1688494177.547,-32.715,-45.898,-27.832,-37.109,128.906
1688494177.551,-59.082,-49.805,-37.109,-54.199,-175.293
1688494177.555,-49.316,-41.016,-18.555,-38.574,-137.207
1688494177.559,-36.621,-42.480,-16.602,-35.645,147.461
1688494177.563,-26.855,-36.133,-12.207,-40.527,19.043
1688494177.566,-24.902,-33.691,-10.742,-28.809,-223.145
1688494177.570,-32.715,-41.992,-14.648,-29.297,-189.453
1688494177.574,-38.086,-38.086,-7.324,-36.133,-143.555
1688494177.578,-28.320,-31.738,-8.789,-27.832,-154.297
1688494177.582,-33.691,-42.480,-20.020,-33.203,-156.738
1688494177.586,-54.199,-58.105,-25.391,-38.086,60.547
1688494177.590,-37.598,-47.363,-14.160,-25.391,101.074
1688494177.593,-23.438,-34.180,-21.973,-26.855,-107.910
1688494177.597,-25.391,-31.738,-43.457,-24.902,-207.031
1688494177.601,-37.109,-40.039,-53.223,-32.715,100.098
1688494177.605,-43.945,-39.551,-34.668,-40.527,321.777
1688494177.609,-31.250,-36.133,-10.254,-29.297,-62.500
1688494177.624,-19.531,-34.180,6.836,-19.531,-210.449
1688494177.628,-15.625,-32.715,0.488,-23.926,-12.695
1688494177.632,-30.762,-52.734,-19.043,-28.320,5.859
1688494177.636,-28.320,-56.641,-17.090,-29.297,-137.695
1688494177.640,-24.414,-45.410,-16.602,-28.809,-187.988
1688494177.644,-41.992,-46.387,-26.855,-32.715,242.676
1688494177.648,-41.992,-45.410,-23.926,-31.250,385.254
1688494177.651,-26.855,-44.434,-20.020,-22.949,-113.281
1688494177.655,-16.113,-52.246,-15.625,-21.484,-132.324
1688494177.659,-25.391,-52.734,-18.555,-22.461,-41.992
1688494177.663,-24.902,-32.227,-31.738,-17.578,-163.086
1688494177.667,-16.602,-29.297,-30.762,-17.090,-193.359
1688494177.669,-30.762,-47.363,-29.297,-31.250,89.844
1688494177.673,-34.668,-42.969,-14.160,-26.367,239.746
1688494177.677,-37.598,-38.574,-7.324,-28.320,-118.652
1688494177.681,-41.504,-55.176,-20.508,-41.992,-304.688
1688494177.685,-26.367,-54.688,-21.973,-29.785,-193.848
1688494177.689,-20.996,-46.387,-18.066,-21.484,-40.527
1688494177.693,-30.273,-43.945,-14.648,-25.879,-71.777
1688494177.696,-41.992,-39.062,-12.695,-32.227,-188.477
1688494177.700,-47.363,-41.016,-16.113,-30.273,38.086
1688494177.704,-40.039,-44.434,-18.066,-20.996,188.477
1688494177.708,-38.574,-46.387,-24.414,-30.762,-42.969
1688494177.712,-39.551,-45.410,-21.973,-33.203,-101.562
1688494177.715,-34.180,-41.504,-21.973,-23.438,107.910
1688494177.719,-37.109,-44.434,-35.156,-43.945,75.195
1688494177.723,-36.621,-38.574,-34.668,-45.410,-190.918
1688494177.727,-35.645,-39.551,-30.762,-29.297,-97.656
1688494177.731,-31.250,-42.969,-25.879,-33.203,-27.832
1688494177.735,-23.926,-44.434,-25.879,-38.086,0.977
1688494177.739,-24.902,-44.434,-29.785,-35.156,-74.707
1688494177.742,-28.809,-41.992,-31.738,-37.109,-145.020
1688494177.746,-27.344,-44.922,-30.762,-30.762,134.277
1688494177.750,-28.320,-46.387,-29.785,-23.926,31.738
1688494177.754,-23.926,-37.109,-13.672,-21.484,-218.750
1688494177.758,-8.301,-31.738,-15.625,-26.367,-125.488
1688494177.804,17.578,-25.879,-20.508,-0.488,-102.051
1688494177.808,16.113,-21.973,-3.906,18.555,-127.441
1688494177.812,-35.156,-38.574,-1.953,-26.367,-139.160
1688494177.816,-60.059,-55.176,-11.230,-55.176,-96.191
1688494177.820,-68.359,-58.594,-10.742,-64.941,-101.562
1688494177.824,-93.262,-56.152,-3.418,-78.125,-123.047
1688494177.828,-100.586,-60.059,4.883,-78.613,-65.430
1688494177.831,-92.773,-62.500,16.113,-79.590,267.578
1688494177.835,-113.770,-67.383,21.973,-101.562,407.715
1688494177.839,-125.488,-70.312,23.926,-109.375,-93.750
1688494177.843,-125.977,-72.754,30.762,-108.398,-216.309
1688494177.847,-141.113,-76.172,33.691,-118.652,13.672
1688494177.809,-139.648,-76.660,41.016,-118.652,-32.715
1688494177.813,-149.414,-74.707,41.016,-110.352,-154.785
1688494177.817,-159.180,-74.219,37.109,-109.375,-116.699
1688494177.821,-159.180,-76.172,37.598,-110.352,-43.945
1688494177.825,-153.809,-79.590,41.504,-107.910,-19.043
1688494177.829,-140.625,-78.613,43.457,-100.098,52.246
1688494177.833,-124.512,-78.613,41.016,-92.285,86.426
1688494177.836,-121.582,-86.426,32.715,-90.332,191.895
1688494177.840,-126.953,-85.938,22.461,-91.309,68.359
1688494177.844,-96.191,-73.242,26.855,-76.660,-227.051
1688494177.848,-81.055,-64.941,28.320,-68.848,-79.590
1688494177.852,-80.566,-63.965,18.066,-66.895,169.434
1688494177.865,-74.707,-63.965,14.160,-65.918,-89.355
1688494177.869,-60.059,-62.500,16.113,-31.738,-268.555
1688494177.873,-44.434,-60.059,12.207,-15.625,-95.215
1688494177.877,-43.457,-57.129,-4.395,-47.363,10.742
1688494177.881,-46.387,-61.523,-14.160,-30.273,-53.711
1688494177.885,-35.156,-56.641,-12.695,-3.906,-44.922
1688494177.889,-21.973,-50.781,-9.277,-8.301,171.387
1688494177.892,-9.277,-53.223,-4.395,2.930,447.754
1688494177.896,-6.348,-40.527,-6.836,16.113,277.344
1688494177.900,-15.137,-33.691,-18.555,6.348,-117.188
1688494177.904,-13.672,-41.016,-29.785,-0.488,-78.125
1688494177.908,-6.836,-42.480,-26.367,4.395,-65.430
1688494177.894,3.418,-37.598,-23.438,17.090,-215.820
1688494177.898,7.812,-34.180,-36.621,21.973,-198.730
1688494177.902,10.742,-36.621,-37.109,8.301,58.105
1688494177.906,1.465,-28.809,-21.973,3.418,3.906
1688494177.910,-8.789,-21.973,-19.043,-4.395,-226.562
1688494177.914,-2.441,-30.273,-18.555,-8.789,-52.246
1688494177.918,-1.953,-31.738,-20.020,-3.906,55.664
1688494177.921,-0.977,-28.320,-27.832,-6.348,-103.516
1688494177.925,-4.395,-30.273,-28.809,7.324,-262.207
1688494177.929,-19.043,-37.598,-34.668,1.953,-135.254
1688494177.933,-11.719,-33.691,-36.133,-4.395,77.637
1688494177.937,-2.930,-22.949,-32.715,5.859,-11.230
1688494177.942,-3.906,-27.832,-38.574,8.301,-113.770
1688494177.946,-10.254,-25.391,-40.039,18.555,59.570
1688494177.950,-13.672,-15.137,-32.715,13.672,154.297
1688494177.954,-17.090,-18.066,-35.156,-5.371,-131.836
1688494177.958,-18.555,-20.020,-33.691,-5.371,-200.195
1688494177.962,-5.859,-13.672,-26.367,8.301,-7.324
1688494177.966,-4.883,-16.602,-30.273,-2.930,53.711
1688494177.969,-20.020,-23.438,-39.062,-28.809,-66.406
1688494177.973,-19.531,-25.879,-42.480,-23.438,-188.965
1688494177.977,-15.625,-19.531,-32.715,-12.695,50.781
1688494177.981,-17.090,-13.672,-22.461,-12.695,228.516
1688494177.985,-15.625,-13.184,-18.066,-8.789,-58.594
1688494178.014,-23.926,-14.648,-21.973,-6.836,-209.473
1688494178.018,-21.973,-13.672,-24.902,-15.625,-193.848
1688494178.022,-19.043,-8.301,-23.926,-19.531,-171.387
1688494178.026,-20.020,-7.324,-24.902,-10.742,-97.168
1688494178.030,-20.020,-8.301,-27.832,-15.625,-120.605
1688494178.034,-9.277,-4.883,-32.715,-21.484,234.863
1688494178.038,-9.277,-0.488,-35.645,-19.043,332.520
1688494178.041,-14.648,-1.465,-31.738,-3.418,-147.461
1688494178.045,-12.695,0.488,-36.621,1.953,-121.094
1688494178.049,-6.348,11.230,-37.109,-3.418,-13.672
1688494178.053,4.883,13.672,-31.250,1.465,-201.660
1688494178.057,2.930,4.395,-29.785,1.465,-190.430
1688494178.044,-7.812,-5.371,-20.020,-17.090,-68.359
1688494178.048,-8.301,-5.371,-14.648,-19.531,-53.711
1688494178.052,-11.230,-6.348,-25.391,-17.090,-71.289
1688494178.056,-27.832,-9.277,-32.715,-25.391,-124.023
1688494178.060,-46.387,-7.324,-35.156,-47.363,-45.898
1688494178.064,-46.387,-7.812,-38.574,-60.059,67.383
1688494178.068,-33.691,-3.906,-33.203,-54.199,17.578
1688494178.071,-27.344,-6.348,-31.250,-44.434,-27.832
1688494178.075,-23.438,-11.230,-34.180,-36.133,2.441
1688494178.079,-16.113,-7.324,-31.738,-36.133,-43.457
1688494178.083,-5.371,3.418,-22.949,-26.367,-67.383
1688494178.087,-28.320,3.906,-27.344,-23.926,-36.621
1688494178.089,-37.598,-4.395,-25.879,-13.184,139.160
1688494178.093,-32.227,-6.348,-17.578,-0.977,433.594
1688494178.097,-19.531,-2.441,-19.043,-3.906,97.656
1688494178.101,-4.883,-2.930,-20.020,-2.930,-174.805
1688494178.105,-5.859,-9.277,-21.973,6.836,-75.195
1688494178.109,-11.230,-15.137,-22.949,-4.883,-46.387
1688494178.113,-21.484,-20.996,-29.785,-36.133,-118.164
1688494178.116,-30.273,-12.695,-31.738,-40.527,-143.066
1688494178.120,-33.203,0.000,-28.320,-17.090,250.488
1688494178.124,-27.832,-0.488,-25.391,-3.906,172.363
1688494178.128,-36.621,-11.230,-29.297,-24.414,-207.520
1688494178.132,-43.457,-18.555,-28.809,-30.762,-147.461
1688494178.134,-43.457,-14.648,-28.809,-22.949,-154.297
1688494178.138,-42.480,-6.348,-28.320,-16.602,-209.473
1688494178.142,-32.227,-4.395,-21.484,-21.484,-196.289
1688494178.146,-16.602,0.977,-9.766,-17.578,-101.074
1688494178.150,-34.180,-3.418,-25.879,-24.414,-65.918
1688494178.154,-48.340,-20.020,-41.504,-38.086,-45.410
1688494178.158,-45.898,-20.508,-39.551,-35.645,-57.617
1688494178.161,-35.645,-11.719,-48.340,-38.574,109.375
1688494178.165,-25.391,-8.301,-43.457,-30.273,215.332
1688494178.169,-33.203,-5.371,-30.762,-22.949,-85.449
1688494178.173,-39.062,-4.395,-27.344,-45.410,-170.410
1688494178.177,-35.645,-2.441,-17.578,-39.062,187.500
1688494178.179,-41.992,-3.418,-10.742,-27.344,207.031
1688494178.183,-29.785,-13.184,-8.301,-23.438,-151.855
1688494178.187,-15.625,-13.184,-11.230,-14.160,-161.133
1688494178.191,-42.480,-16.602,-20.020,-25.879,-60.059
1688494178.195,-51.270,-19.531,-23.926,-32.715,-89.844
1688494178.199,-34.668,-8.789,-27.344,-14.160,-127.441
1688494178.203,-27.832,-4.395,-34.180,-1.465,14.648
1688494178.206,-24.902,-15.137,-25.391,-1.953,145.996
1688494178.210,-27.344,-27.832,-12.695,-7.324,27.344
1688494178.214,-37.109,-22.949,-13.184,-15.625,-166.504
1688494178.218,-34.180,-15.137,-22.949,-19.043,-69.824
1688494178.222,-26.367,-14.160,-21.973,-30.273,60.547
1688494178.226,-21.484,-10.254,-5.371,-25.879,-87.891
1688494178.230,-21.484,-12.207,-12.695,-21.973,-173.828
1688494178.234,-24.414,-13.672,-27.344,-28.320,-41.016
1688494178.238,-20.996,-7.812,-25.879,-29.785,53.711
1688494178.242,-18.066,-8.789,-21.973,-7.812,-110.840
1688494178.246,-28.320,-18.066,-30.273,-10.254,-132.812
1688494178.250,-42.480,-24.414,-30.273,-32.227,192.383
1688494178.253,-25.879,-18.066,-15.137,-33.691,222.168
1688494178.257,-16.113,-18.066,-19.043,-36.621,-140.625
1688494178.261,-40.039,-29.297,-34.180,-32.715,-214.355
1688494178.265,-31.250,-27.344,-27.344,-30.762,77.148
1688494178.269,-18.066,-23.438,-20.508,-31.738,130.859
1688494178.269,-33.203,-24.414,-23.926,-35.156,-167.969
1688494178.273,-33.203,-28.809,-31.250,-21.973,-136.719
1688494178.277,-14.648,-29.297,-35.645,-20.020,-42.480
1688494178.281,-11.719,-26.855,-44.922,-33.691,12.695
1688494178.285,-14.648,-20.996,-48.340,-27.832,-50.293
1688494178.289,-22.461,-14.648,-27.832,-15.625,-91.797
1688494178.293,-23.926,-16.602,-13.184,-15.137,254.883
1688494178.296,-19.043,-18.066,-19.043,-30.273,276.367
1688494178.300,-40.527,-22.949,-23.926,-53.223,-180.176
1688494178.304,-47.363,-27.344,-17.090,-44.922,-213.867
1688494178.308,-41.016,-20.508,-12.207,-26.855,-131.348
1688494178.312,-35.156,-25.879,-23.438,-42.969,-212.891
1688494178.314,-22.461,-28.809,-36.133,-32.227,-191.406
1688494178.318,-22.949,-17.090,-25.391,-17.090,-46.387
1688494178.322,-32.227,-26.367,-20.020,-37.598,-41.016
1688494178.326,-45.898,-41.016,-29.785,-48.828,-119.141
1688494178.330,-41.016,-27.344,-23.926,-26.855,-119.629
1688494178.334,-29.297,-19.531,-25.879,-18.066,-24.902
1688494178.338,-32.227,-40.527,-37.109,-29.785,66.895
1688494178.341,-29.297,-39.551,-39.062,-26.855,73.242
1688494178.345,-27.344,-22.461,-40.527,-12.695,-86.426
1688494178.349,-28.809,-15.625,-28.809,-17.578,113.281
1688494178.353,-30.762,-12.695,-19.043,-30.762,330.078
1688494178.357,-42.969,-12.695,-23.438,-20.020,-62.988
1688494178.374,-37.598,-16.602,-34.180,-20.020,-204.590
1688494178.378,-28.320,-23.926,-39.062,-27.832,98.145
1688494178.382,-34.180,-29.297,-32.715,-21.973,157.715
1688494178.386,-33.203,-31.250,-22.461,-27.344,-217.773
1688494178.390,-19.043,-36.133,-18.555,-21.484,-129.395
1688494178.394,-16.602,-35.156,-22.949,-15.625,66.406
1688494178.398,-34.180,-28.320,-19.043,-25.879,27.344
1688494178.401,-55.664,-27.832,-8.789,-44.922,-104.492
1688494178.405,-52.734,-33.691,-7.812,-44.434,-95.215
1688494178.409,-34.180,-26.367,-16.113,-32.227,288.086
1688494178.413,-22.949,-11.719,-17.090,-23.438,169.434
1688494178.417,-27.832,-10.742,-15.137,-32.715,-179.199
1688494178.419,-27.344,-14.648,-15.137,-42.969,-138.184
1688494178.423,-20.996,-19.043,-13.672,-41.016,-145.508
1688494178.427,-23.926,-23.926,-20.996,-25.879,-189.453
1688494178.431,-35.156,-30.273,-37.598,-32.715,-193.848
1688494178.435,-39.062,-33.691,-42.969,-38.574,-113.281
1688494178.439,-40.527,-37.598,-32.715,-32.715,-5.859
1688494178.443,-36.621,-35.156,-26.855,-35.156,-55.664
1688494178.446,-18.066,-27.344,-23.926,-32.227,-148.926
1688494178.450,-19.531,-28.809,-21.973,-27.832,49.316
1688494178.454,-40.527,-41.992,-34.180,-43.457,203.125
1688494178.458,-39.062,-35.645,-38.086,-36.133,-45.410
1688494178.462,-39.062,-25.879,-31.250,-23.926,-145.508
1688494178.464,-48.828,-29.297,-23.926,-32.227,148.438
1688494178.468,-49.316,-23.926,-19.043,-32.715,157.715
1688494178.472,-38.574,-24.902,-23.438,-26.367,-212.891
1688494178.476,-35.156,-31.738,-21.973,-18.555,-231.445
1688494178.480,-36.133,-30.762,-19.531,-30.273,-176.270
1688494178.484,-41.504,-31.250,-27.832,-47.852,-82.031
1688494178.488,-46.875,-33.691,-30.762,-51.758,-22.461
1688494178.491,-42.969,-29.785,-18.555,-52.734,-21.973
1688494178.495,-37.598,-28.320,-19.531,-40.039,163.086
1688494178.499,-31.250,-30.762,-20.996,-35.645,52.246
1688494178.503,-22.949,-30.273,-17.090,-25.879,-167.480
1688494178.507,-20.996,-19.531,-19.531,-8.789,-85.449
1688494178.540,-25.391,-13.672,-17.090,-15.137,-50.781
1688494178.544,0.000,-11.230,-10.742,6.836,-110.352
1688494178.548,-13.184,-38.086,-27.832,0.977,-188.965
1688494178.552,-69.336,-56.152,-38.086,-59.570,-27.344
1688494178.556,-71.777,-40.527,-30.762,-78.125,122.559
1688494178.560,-53.223,-31.738,-26.367,-47.852,7.324
1688494178.564,-56.152,-34.668,-28.320,-37.109,-44.922
1688494178.567,-64.453,-38.574,-35.156,-46.875,184.570
1688494178.571,-49.805,-29.785,-34.668,-38.574,254.395
1688494178.575,-43.945,-27.832,-34.668,-31.738,-82.031
1688494178.579,-41.992,-25.391,-43.945,-33.203,-114.258
1688494178.583,-34.180,-20.996,-46.387,-27.344,133.789
1688494178.554,-45.898,-25.879,-30.273,-28.809,37.109
1688494178.558,-40.039,-32.715,-10.254,-34.668,-222.656
1688494178.562,-37.109,-42.969,-15.625,-44.434,-197.266
1688494178.566,-44.434,-45.410,-22.461,-61.523,-78.125
1688494178.570,-47.852,-35.156,-20.996,-63.477,-77.148
1688494178.574,-35.156,-23.438,-20.996,-29.785,-130.371
1688494178.578,-24.902,-20.996,-21.973,-20.020,-12.207
1688494178.581,-37.598,-25.879,-18.555,-32.715,113.770
1688494178.585,-37.598,-32.227,-15.137,-36.133,-35.645
1688494178.589,-25.391,-32.715,-18.555,-34.668,-233.887
1688494178.593,-31.738,-39.062,-30.273,-24.414,-119.629
1688494178.597,-32.227,-40.527,-37.598,-20.996,-38.086
1688494178.599,-13.184,-26.855,-29.297,-20.996,-135.254
1688494178.603,-11.230,-24.414,-19.043,-29.785,-145.020
1688494178.607,-20.020,-32.227,-27.832,-28.809,38.086
1688494178.611,-26.855,-28.809,-32.715,-18.066,265.137
1688494178.615,-28.320,-36.621,-40.527,-27.344,9.277
1688494178.619,-26.367,-42.969,-43.945,-31.250,-96.680
1688494178.623,-27.832,-37.109,-24.414,-28.809,196.289
1688494178.626,-20.508,-38.086,-31.250,-41.016,412.109
1688494178.630,-35.156,-41.016,-37.109,-53.711,2.930
1688494178.634,-51.758,-41.992,-25.391,-55.176,-296.875
1688494178.638,-35.645,-26.855,-19.043,-39.062,70.801
1688494178.642,-34.180,-22.461,-30.762,-23.438,88.867
1688494178.659,-38.086,-35.156,-36.621,-37.109,-234.375
1688494178.663,-41.504,-38.086,-25.879,-46.875,-269.043
1688494178.667,-43.457,-32.227,-22.949,-46.387,-180.664
1688494178.671,-37.598,-33.691,-21.973,-41.504,-103.027
1688494178.675,-38.086,-41.992,-14.648,-37.598,-111.328
1688494178.679,-27.832,-38.574,-14.648,-20.996,-37.598
1688494178.683,-28.809,-33.691,-29.297,-31.250,179.688
1688494178.686,-39.551,-38.574,-38.574,-55.664,61.523
1688494178.690,-29.297,-30.762,-35.156,-36.621,-166.504
1688494178.694,-25.391,-24.902,-28.320,-20.508,-32.715
1688494178.698,-33.691,-32.227,-19.531,-26.367,84.473
1688494178.702,-37.598,-39.551,-13.184,-32.227,-83.496
1688494178.691,-34.180,-41.016,-15.137,-34.180,-205.078
1688494178.695,-32.715,-37.109,-20.020,-32.715,-142.090
1688494178.699,-28.320,-34.668,-23.438,-25.879,-110.840
1688494178.703,-11.719,-29.785,-17.578,-21.484,-105.957
1688494178.707,-20.020,-33.203,-13.672,-24.902,-103.516
1688494178.711,-30.762,-37.109,-13.672,-22.949,45.410
1688494178.715,-15.137,-30.762,-9.277,-10.254,144.531
1688494178.718,-20.996,-21.973,-8.301,-3.906,-42.969
1688494178.722,-26.855,-18.066,-16.602,-12.207,-184.570
1688494178.726,-28.320,-29.785,-33.203,-20.508,52.246
1688494178.730,-30.273,-40.039,-31.738,-29.785,280.273
1688494178.734,-27.832,-37.598,-26.367,-43.945,21.484
1688494178.749,-39.062,-41.504,-24.902,-46.387,-171.387
1688494178.753,-39.062,-40.039,-21.973,-47.852,96.191
1688494178.757,-34.180,-28.809,-24.414,-44.922,166.504
1688494178.761,-35.156,-25.879,-24.414,-41.992,-207.031
1688494178.765,-31.738,-27.344,-18.555,-34.180,-309.082
1688494178.769,-20.508,-30.273,-23.926,-33.203,188.965
1688494178.773,-25.879,-36.133,-30.762,-38.086,333.496
1688494178.776,-39.551,-38.574,-31.250,-44.434,-200.684
1688494178.780,-52.734,-38.574,-26.855,-48.340,-201.660
1688494178.784,-58.594,-33.203,-17.578,-49.805,-81.543
1688494178.788,-48.340,-27.832,-14.648,-40.527,-172.852
1688494178.792,-44.922,-35.645,-17.090,-24.902,-220.703
1688494178.796,-32.227,-42.969,-18.555,-24.414,-99.121
1688494178.800,-23.926,-36.133,-19.531,-25.391,33.203
1688494178.804,-38.086,-35.156,-35.645,-18.555,-25.391
1688494178.808,-33.691,-41.992,-41.992,-20.996,-112.793
1688494178.812,-14.648,-40.527,-23.926,-8.301,57.617
1688494178.816,-20.020,-47.363,-21.484,-3.906,180.176
1688494178.820,-23.926,-56.152,-21.973,-20.508,-1.465
1688494178.823,-16.113,-43.945,-12.207,-21.973,-139.648
1688494178.827,-16.113,-33.203,-9.766,-19.043,62.988
1688494178.831,-23.926,-32.715,-12.695,-18.066,249.023
1688494178.835,-29.297,-27.344,-12.207,-19.043,-0.977
1688494178.839,-25.391,-29.785,-20.996,-25.879,-137.695
1688494178.840,-12.695,-24.414,-29.297,-19.043,-34.180
1688494178.844,-6.348,-20.508,-26.855,-7.324,-20.508
1688494178.848,-10.254,-40.527,-27.344,-4.395,-155.762
1688494178.852,-26.367,-48.828,-24.414,-12.207,-127.441
1688494178.856,-50.781,-47.852,-23.438,-23.926,-75.684
1688494178.860,-52.246,-53.711,-29.785,-35.156,-35.156
1688494178.864,-33.691,-52.246,-32.227,-19.531,-6.348
1688494178.867,-37.598,-51.758,-29.297,-8.789,-60.547
1688494178.871,-62.012,-54.688,-21.973,-40.527,214.355
1688494178.875,-60.547,-42.480,-19.043,-43.945,204.590
1688494178.879,-53.223,-37.109,-27.344,-37.598,-196.289
1688494178.883,-60.547,-51.270,-32.227,-37.598,-68.848
1688494178.884,-42.969,-54.688,-40.527,-41.016,39.062
1688494178.888,-51.758,-48.828,-40.039,-48.340,-157.715
1688494178.892,-63.477,-43.945,-28.809,-55.664,-234.375
1688494178.896,-42.480,-36.133,-30.762,-58.105,-68.359
1688494178.900,-38.086,-39.062,-35.645,-45.898,74.707
1688494178.904,-24.902,-42.969,-22.949,-26.855,-12.695
1688494178.908,-22.461,-31.738,-21.484,-25.879,-64.941
1688494178.911,-34.180,-33.691,-34.668,-42.969,172.852
1688494178.915,-47.363,-39.062,-33.691,-43.945,396.973
1688494178.919,-46.387,-37.598,-27.832,-39.062,6.836
1688494178.923,-28.809,-47.852,-16.602,-28.809,-108.398
1688494178.927,-33.203,-55.176,-18.066,-16.602,168.457
1688494178.929,-26.855,-42.480,-23.926,-19.531,-2.930
1688494178.933,-22.949,-32.715,-22.461,-28.320,-290.039
1688494178.937,-28.320,-35.156,-25.391,-29.297,-248.047
1688494178.941,-29.297,-35.645,-26.367,-36.133,-168.945
1688494178.945,-27.344,-36.621,-27.344,-32.715,-203.125
1688494178.949,-29.297,-47.852,-24.414,-30.762,-187.988
1688494178.953,-30.762,-51.270,-18.555,-22.461,-55.176
1688494178.956,-21.973,-40.039,-25.391,-5.859,153.809
1688494178.960,-27.832,-35.645,-29.297,0.977,58.105
1688494178.964,-43.945,-41.504,-32.715,-20.020,-129.883
1688494178.968,-47.363,-44.434,-28.809,-34.668,-53.223
1688494178.972,-45.410,-47.363,-21.484,-39.551,18.066
1688494178.976,-41.992,-50.293,-24.902,-41.016,-127.930
1688494178.980,-40.039,-49.805,-30.273,-24.414,-188.965
1688494178.984,-38.086,-43.945,-25.879,-21.973,-77.148
1688494178.988,-30.762,-44.922,-27.832,-23.438,-79.590
1688494178.992,-18.555,-39.551,-25.391,-19.531,-149.902
1688494178.996,-9.277,-23.926,-15.625,-14.648,-127.930
1688494179.000,-26.367,-34.180,-25.879,-30.762,274.414
1688494179.003,-30.762,-46.875,-28.320,-42.969,437.500
1688494179.007,-28.320,-35.645,-16.113,-48.828,-23.926
1688494179.011,-33.203,-36.133,-11.719,-45.898,-186.523
1688494179.015,-36.133,-42.969,-23.438,-46.387,-1.465
1688494179.019,-35.645,-37.598,-35.156,-35.645,37.109
1688494179.020,-25.391,-36.621,-29.297,-16.113,-125.977
1688494179.024,-31.738,-43.457,-24.414,-23.926,-143.066
1688494179.028,-42.969,-44.434,-28.320,-39.062,-48.340
1688494179.032,-45.410,-44.434,-31.250,-31.738,-93.750
1688494179.036,-42.969,-47.363,-25.391,-20.508,-163.086
1688494179.040,-38.086,-43.457,-22.461,-5.859,-10.742
1688494179.044,-32.227,-40.527,-17.090,7.324,363.770
1688494179.047,-36.133,-33.691,-11.719,-2.930,239.258
1688494179.051,-48.828,-32.227,-21.484,-30.273,-231.934
1688494179.055,-48.828,-36.133,-32.227,-39.062,-118.164
1688494179.059,-40.039,-35.156,-32.715,-21.973,114.746
1688494179.063,-32.715,-38.086,-36.621,-22.949,-55.176
1688494179.095,-20.020,-42.969,-38.086,-14.160,-207.520
1688494179.099,-21.973,-45.410,-29.297,-9.277,-134.277
1688494179.103,-26.367,-33.203,-28.320,-20.508,-57.617
1688494179.107,-26.367,-20.508,-30.762,-20.996,-89.844
1688494179.111,-29.297,-30.273,-26.367,-41.504,-188.477
1688494179.115,-32.715,-29.785,-28.320,-49.316,68.848
1688494179.119,-26.367,-19.531,-35.156,-41.504,312.012
1688494179.122,-29.297,-30.273,-47.363,-53.223,-44.922
1688494179.126,-22.949,-40.039,-53.223,-47.852,-227.051
1688494179.130,-16.113,-37.109,-46.875,-35.156,-52.246
1688494179.134,-17.578,-31.738,-40.527,-39.551,32.715
1688494179.138,-17.578,-28.809,-38.574,-45.898,-117.676
1688494179.125,-24.902,-23.926,-39.062,-37.109,-216.797
1688494179.129,-19.043,-25.879,-40.527,-26.855,60.547
1688494179.133,-15.137,-33.203,-44.922,-21.484,124.512
1688494179.137,-5.859,-27.344,-40.039,-17.090,-145.508
1688494179.141,-0.977,-30.273,-36.621,-13.184,-114.746
1688494179.145,-20.020,-35.156,-34.180,0.000,-2.930
1688494179.149,-16.602,-35.156,-23.926,-1.465,31.250
1688494179.152,-24.902,-40.527,-29.297,-33.203,-52.734
1688494179.156,-37.109,-54.199,-32.715,-36.133,-76.172
1688494179.160,-30.762,-48.340,-26.367,-13.184,49.805
1688494179.164,-40.039,-35.645,-38.086,-8.789,-92.773
1688494179.168,-38.086,-35.156,-39.551,-19.531,-145.996
1688494179.169,-27.832,-29.785,-30.273,-20.508,45.410
1688494179.173,-23.926,-33.203,-31.738,-15.625,172.363
1688494179.177,-20.020,-34.180,-27.832,-23.926,-78.125
1688494179.181,-27.344,-29.785,-29.297,-15.625,-226.074
1688494179.185,-16.113,-19.531,-22.461,-2.441,-129.395
1688494179.189,-17.090,-13.184,-13.672,-16.602,-63.965
1688494179.193,-38.574,-28.809,-25.391,-41.504,-27.832
1688494179.196,-32.227,-37.598,-31.738,-48.828,9.766
1688494179.200,-23.926,-25.391,-20.996,-31.738,136.719
1688494179.204,-26.367,-22.949,-22.949,-31.738,296.387
1688494179.208,-27.832,-37.109,-38.086,-41.504,96.680
1688494179.212,-16.602,-34.180,-22.461,-24.902,-171.387
1688494179.215,-29.785,-32.227,-20.508,-24.902,33.691
1688494179.219,-40.039,-36.133,-40.039,-44.434,67.871
1688494179.223,-40.039,-33.203,-43.457,-34.180,-202.148
1688494179.227,-37.598,-40.527,-34.180,-19.043,-169.922
1688494179.231,-24.902,-41.992,-15.137,-21.973,-82.520
1688494179.235,-34.668,-40.527,-14.160,-34.180,-70.312
1688494179.239,-33.691,-40.527,-17.090,-46.387,-119.141
1688494179.242,-26.367,-40.039,-23.438,-43.457,-108.887
1688494179.246,-33.203,-42.969,-47.852,-23.438,146.973
1688494179.250,-33.203,-44.434,-48.828,-21.484,141.602
1688494179.254,-44.434,-47.363,-25.391,-35.645,-118.164
1688494179.258,-41.016,-51.758,-14.648,-39.551,-79.590
1688494179.260,-34.668,-53.223,-20.996,-38.086,26.367
1688494179.264,-40.039,-38.574,-19.531,-32.715,-70.801
1688494179.268,-30.762,-27.344,-17.578,-22.461,-181.152
1688494179.272,-34.668,-31.738,-15.625,-22.461,-147.461
1688494179.276,-47.363,-42.969,-14.648,-42.969,-100.586
1688494179.280,-39.551,-45.898,-26.367,-46.875,-86.914
1688494179.284,-12.207,-35.645,-23.438,-25.391,-40.527
1688494179.287,-5.371,-36.133,-27.832,-16.602,146.484
1688494179.291,-12.695,-49.805,-42.480,-20.508,173.828
1688494179.295,-30.273,-44.922,-31.250,-29.785,-161.621
1688494179.299,-54.199,-35.645,-27.344,-34.180,-150.879
1688494179.303,-47.363,-39.551,-37.109,-35.156,151.855
1688494179.305,-40.039,-43.945,-34.180,-37.598,136.230
1688494179.309,-45.410,-49.316,-18.066,-46.875,-102.051
1688494179.313,-51.758,-49.805,-21.973,-49.805,-144.531
1688494179.317,-53.711,-42.969,-32.715,-41.016,-70.801
1688494179.321,-41.016,-45.410,-21.973,-34.180,-82.520
1688494179.325,-29.297,-50.293,-16.602,-30.762,-92.773
1688494179.329,-26.855,-44.922,-20.508,-36.133,28.320
1688494179.332,-34.668,-42.969,-26.855,-41.016,295.410
1688494179.336,-48.340,-44.922,-42.480,-38.086,195.312
1688494179.340,-40.527,-39.551,-54.199,-27.344,-205.566
1688494179.344,-29.785,-39.062,-46.387,-29.785,-155.273
1688494179.348,-35.156,-44.922,-31.738,-33.203,-116.211
1688494179.364,-34.668,-42.969,-23.926,-15.625,-188.477
1688494179.368,-24.902,-37.598,-14.648,-8.789,-207.520
1688494179.372,-18.555,-36.621,-7.812,-22.461,21.484
1688494179.376,-18.555,-38.574,-14.648,-32.715,41.504
1688494179.380,-24.902,-36.133,-18.066,-36.133,-163.574
1688494179.384,-20.996,-24.902,-17.578,-40.039,-121.094
1688494179.388,-19.531,-25.879,-24.902,-35.156,78.613
1688494179.391,-18.555,-29.297,-28.809,-20.020,258.789
1688494179.395,-9.277,-30.273,-30.273,-15.137,11.230
1688494179.399,-8.301,-31.250,-26.855,-11.719,-147.949
1688494179.403,-19.043,-35.156,-19.531,-12.207,26.367
1688494179.407,-23.926,-42.480,-32.715,-25.391,24.902
1688494179.395,-15.137,-37.598,-35.156,-20.508,-184.082
1688494179.399,-10.254,-24.414,-21.484,-17.090,-186.035
1688494179.403,-15.137,-25.879,-25.391,-21.973,-29.297
1688494179.407,-28.320,-33.203,-29.297,-23.438,-76.172
1688494179.411,-34.668,-33.203,-30.762,-20.508,-196.777
1688494179.415,-23.926,-33.203,-35.156,-17.578,-51.270
1688494179.419,-28.809,-44.434,-31.738,-16.113,205.566
1688494179.422,-36.621,-50.781,-28.809,-21.484,192.871
1688494179.426,-38.574,-34.668,-15.137,-23.438,-78.125
1688494179.430,-51.758,-40.527,-17.578,-27.344,-151.855
1688494179.434,-57.129,-56.641,-38.574,-37.598,131.348
1688494179.438,-47.363,-56.152,-34.668,-31.250,59.082
1688494179.454,-41.016,-54.688,-20.996,-37.598,-168.945
1688494179.458,-46.875,-55.664,-21.484,-41.016,-77.637
1688494179.462,-43.457,-53.223,-29.297,-23.926,-105.469
1688494179.466,-39.551,-36.621,-35.156,-18.066,-183.105
1688494179.470,-40.527,-26.855,-40.039,-14.160,-176.270
1688494179.474,-22.949,-33.691,-24.902,-5.859,56.641
1688494179.478,-26.855,-37.598,-14.648,-16.602,157.227
1688494179.481,-38.574,-33.691,-10.254,-31.250,48.828
1688494179.485,-37.598,-34.668,-11.719,-36.621,-89.844
1688494179.489,-36.133,-35.156,-20.996,-28.320,-1.953
1688494179.493,-42.969,-35.645,-28.320,-20.508,501.465
1688494179.497,-35.156,-42.969,-30.762,-20.508,220.703
1688494179.500,-7.812,-39.551,-25.391,-12.207,-263.672
1688494179.504,-13.672,-37.109,-20.508,-14.160,-173.340
1688494179.508,-26.855,-41.992,-20.996,-18.555,-113.281
1688494179.512,-24.414,-41.016,-24.902,-18.066,-171.875
1688494179.516,-21.484,-34.180,-23.926,-18.555,-164.551
1688494179.520,-10.742,-31.250,-26.855,-6.836,-65.918
1688494179.524,-22.949,-40.527,-35.156,-2.930,-61.035
1688494179.527,-25.391,-35.645,-36.621,-11.230,-128.906
1688494179.531,-13.184,-16.602,-40.039,-25.879,-62.988
1688494179.535,-20.996,-20.508,-44.434,-31.738,198.242
1688494179.539,-32.227,-31.738,-33.691,-27.832,98.633
1688494179.543,-41.992,-29.785,-20.996,-38.086,-206.055
1688494179.545,-45.898,-33.691,-18.066,-37.109,-95.215
1688494179.549,-42.480,-33.691,-27.344,-39.551,-5.859
1688494179.553,-38.574,-28.809,-31.738,-49.805,-120.605
1688494179.557,-39.551,-32.227,-26.855,-33.203,-219.727
1688494179.561,-42.969,-37.109,-38.574,-31.250,-88.379
1688494179.565,-52.734,-37.109,-44.922,-36.621,106.445
1688494179.569,-46.875,-31.738,-30.273,-38.574,22.949
1688494179.572,-39.062,-25.391,-21.484,-43.945,-88.867
1688494179.576,-33.691,-32.227,-25.391,-33.691,104.980
1688494179.580,-46.875,-41.016,-29.297,-40.039,214.844
1688494179.584,-64.941,-35.645,-31.250,-58.594,-3.418
1688494179.588,-44.434,-34.180,-31.250,-49.805,-136.230
1688494179.605,-32.715,-41.992,-35.156,-44.434,186.035
1688494179.609,-32.227,-44.434,-42.969,-49.316,342.285
1688494179.613,-27.832,-32.715,-29.297,-27.832,-131.836
1688494179.617,-22.949,-21.973,-20.508,-13.184,-236.816
1688494179.621,-20.508,-21.973,-29.297,-20.508,-162.109
1688494179.625,-18.066,-30.762,-32.227,-17.578,-111.816
1688494179.629,-21.484,-37.109,-37.109,-16.602,-77.637
1688494179.632,-36.621,-36.621,-34.668,-36.133,-72.754
1688494179.636,-25.879,-30.273,-31.250,-37.109,110.352
1688494179.640,-39.062,-40.527,-33.203,-32.227,64.453
1688494179.644,-51.758,-45.410,-26.855,-39.551,-171.387
1688494179.648,-41.504,-44.434,-28.320,-40.527,-113.770
1688494179.634,-40.527,-45.410,-33.203,-42.480,-117.188
1688494179.638,-29.297,-27.344,-27.344,-17.578,-184.570
1688494179.642,-25.879,-19.531,-30.273,-7.812,-100.586
1688494179.646,-27.344,-27.832,-30.762,-30.273,39.062
1688494179.650,-43.457,-36.621,-18.555,-43.945,31.738
1688494179.654,-61.523,-45.898,-20.020,-52.734,-4.395
1688494179.658,-62.012,-51.758,-40.039,-42.969,2.930
1688494179.661,-36.133,-49.316,-42.480,-30.762,67.383
1688494179.665,-18.555,-45.898,-30.273,-39.551,18.555
1688494179.669,-30.762,-50.293,-35.156,-52.734,-135.254
1688494179.673,-40.527,-47.363,-41.016,-48.828,-139.648
1688494179.677,-44.434,-43.457,-40.527,-40.039,72.754
1688494179.679,-38.574,-35.156,-44.434,-25.391,394.043
1688494179.683,-30.762,-33.203,-35.645,-22.461,187.500
1688494179.687,-31.738,-39.551,-37.598,-32.227,-201.660
1688494179.691,-28.320,-44.922,-41.016,-15.137,-190.430
1688494179.695,-15.137,-62.988,-23.926,9.277,-204.590
1688494179.699,-7.324,-46.875,-24.414,9.766,-184.082
1688494179.703,-19.043,-15.137,-21.484,-14.160,-50.293
1688494179.706,-43.945,-22.949,-15.137,-37.598,352.539
1688494179.710,-0.488,1.465,13.672,-0.977,329.102
1688494179.714,36.133,32.715,-16.113,18.555,-177.246
1688494179.718,-55.176,-42.969,-107.910,-68.848,-184.570
1688494179.722,-44.922,-79.102,-73.242,-39.062,-34.668
1688494179.724,-4.395,-33.691,-9.277,2.930,-67.871
1688494179.728,-80.078,-18.555,-19.043,-103.516,-147.949
1688494179.732,-124.023,-24.902,-87.402,-152.344,-142.578
1688494179.736,-88.379,-23.438,-115.723,-126.465,-91.797
1688494179.740,-42.480,-24.414,-30.273,-89.355,-64.941
1688494179.744,-75.684,-34.668,-26.855,-104.492,-74.707
1688494179.748,-79.590,-8.301,-52.734,-99.609,138.672
1688494179.751,-77.637,-33.691,-77.637,-86.914,324.219
1688494179.755,-68.359,-54.688,-95.215,-68.848,31.250
1688494179.759,-59.570,-44.922,-35.645,-64.453,-164.062
1688494179.763,-73.730,-42.480,5.859,-86.426,182.617
1688494179.767,-52.246,-21.484,-8.301,-61.035,277.344
1688494179.769,-22.949,-11.230,-23.926,-27.344,-177.734
1688494179.773,-31.250,-24.414,-18.066,-29.297,-231.445
1688494179.777,-36.621,-58.105,-20.508,-30.762,-116.699
1688494179.781,-5.859,-53.223,19.043,-11.719,-108.887
1688494179.785,-3.418,-28.809,33.203,-4.395,-127.441
1688494179.789,-28.320,-36.133,-29.297,-11.719,-18.555
1688494179.793,-24.414,-40.039,-31.250,-11.719,165.039
1688494179.796,-12.207,-31.738,10.254,4.883,17.090
1688494179.800,4.883,-46.875,-7.324,28.320,-205.078
1688494179.804,-3.906,-57.129,5.371,21.484,-98.145
1688494179.808,-26.855,-48.828,34.668,-1.953,75.684
1688494179.812,-29.297,-57.617,12.207,-6.836,-52.246
1688494179.814,-11.230,-49.805,13.672,12.695,-189.941
1688494179.818,-0.977,-35.156,34.180,28.809,-28.320
1688494179.822,-12.207,-51.758,26.855,15.625,46.387
1688494179.826,-22.949,-63.965,8.301,6.836,-135.742
1688494179.830,-15.625,-46.387,-14.648,25.879,-127.930
1688494179.834,-5.371,-37.109,-24.902,34.180,109.375
1688494179.838,-11.230,-52.734,-14.648,22.461,179.688
1688494179.841,-11.230,-57.617,9.277,23.926,-36.133
1688494179.845,-14.160,-53.223,-2.441,28.809,-187.988
1688494179.849,-12.695,-66.895,-56.641,36.133,6.348
1688494179.853,3.418,-55.664,-56.152,51.758,145.996
1688494179.857,-11.230,-38.574,-29.785,28.809,-83.496
1688494179.874,-29.297,-42.969,-16.113,8.301,-156.250
1688494179.878,-32.227,-41.504,-25.879,5.371,68.359
1688494179.882,-24.902,-36.621,-28.809,19.531,86.426
1688494179.886,-14.648,-49.316,-39.551,30.762,-188.965
1688494179.890,-24.902,-71.777,-71.289,15.625,-123.047
1688494179.894,-29.785,-64.453,-69.336,14.160,95.215
1688494179.898,-29.785,-51.758,-72.266,13.184,90.820
1688494179.901,-36.133,-39.062,-69.824,4.395,-149.414
1688494179.905,-30.762,-44.922,-61.523,-1.953,-178.223
1688494179.909,-20.996,-55.664,-69.824,6.836,53.223
1688494179.913,-20.996,-43.945,-82.520,17.578,-45.410
1688494179.917,-33.203,-52.246,-104.492,12.695,-228.516
1688494179.919,-33.203,-61.035,-104.492,15.625,-155.273
1688494179.923,-31.738,-55.664,-80.078,20.020,-96.191
1688494179.927,-27.344,-42.969,-91.309,20.996,-92.285
1688494179.931,-28.809,-43.457,-102.051,16.602,-35.645
1688494179.935,-48.828,-58.105,-79.102,9.277,107.910
1688494179.939,-49.316,-49.805,-78.125,10.254,76.660
1688494179.943,-44.434,-47.363,-80.078,6.348,-62.988
1688494179.946,-34.668,-44.434,-81.543,-1.953,-123.535
1688494179.950,-31.738,-44.922,-90.820,0.488,66.406
1688494179.954,-40.039,-49.805,-92.285,-0.488,216.309
1688494179.958,-34.180,-44.922,-77.148,-4.395,-9.277
1688494179.962,-24.902,-47.363,-62.012,0.488,-90.820
1688494179.980,-29.297,-56.152,-67.871,0.000,29.297
1688494179.984,-36.621,-64.941,-77.148,-9.766,63.965
1688494179.988,-40.039,-62.988,-79.102,-22.949,-144.531
1688494179.992,-49.316,-57.129,-84.473,-28.320,-194.824
1688494179.996,-48.340,-61.035,-89.844,-20.508,-123.047
1688494180.000,-47.363,-60.547,-67.871,-11.719,16.602
1688494180.004,-46.387,-43.457,-50.293,0.977,14.160
1688494180.007,-46.387,-30.762,-62.012,-6.836,-12.207
1688494180.011,-41.016,-31.250,-55.664,-13.672,262.207
1688494180.015,-36.133,-45.898,-40.527,-14.160,178.223
1688494180.019,-45.898,-54.199,-41.016,-30.762,-193.848
1688494180.023,-38.086,-41.504,-41.016,-15.137,-166.992
1688494180.009,-41.504,-48.340,-55.176,-11.719,-109.375
1688494180.013,-58.105,-56.641,-49.316,-29.785,-150.879
1688494180.017,-57.617,-57.129,-37.598,-23.926,-192.871
1688494180.021,-44.922,-65.918,-36.133,-22.461,-124.023
1688494180.025,-40.527,-60.059,-30.762,-19.531,-33.691
1688494180.029,-38.574,-58.594,-33.691,-17.090,-37.598
1688494180.033,-37.109,-62.500,-38.574,-21.973,-68.848
1688494180.036,-49.805,-58.105,-48.828,-41.016,19.531
1688494180.040,-53.223,-61.035,-52.246,-37.598,-10.742
1688494180.044,-41.016,-58.105,-39.551,-17.578,-117.676
1688494180.048,-35.645,-59.082,-49.805,-28.809,-96.191
1688494180.052,-33.203,-62.988,-53.223,-20.508,123.535
1688494180.070,-22.461,-46.875,-38.086,8.301,445.312
1688494180.074,-23.926,-46.875,-31.250,7.812,185.059
1688494180.078,-24.414,-59.082,-41.992,-4.883,-169.922
1688494180.082,-26.367,-51.758,-47.363,-28.320,-141.113
1688494180.086,-45.410,-40.527,-7.812,-37.598,-205.078
1688494180.090,-61.035,-47.363,8.301,-36.621,-198.242
1688494180.094,-62.988,-49.316,-20.996,-41.992,-84.473
1688494180.097,-18.066,-18.555,-19.531,0.488,229.980
1688494180.101,-14.160,-35.645,-26.367,4.395,148.438
1688494180.105,-50.781,-86.914,-56.152,-24.902,-221.680
1688494180.109,-57.129,-68.359,-14.160,-28.320,-73.242
1688494180.113,-37.598,-34.180,41.992,-34.180,40.039
1688494180.103,-32.227,-47.852,30.762,-38.086,-138.672
1688494180.107,-49.316,-57.617,10.254,-36.133,-185.547
1688494180.111,-15.137,-36.621,3.418,-8.301,-64.941
1688494180.115,-25.391,-37.109,-14.648,-17.578,25.879
1688494180.119,-50.781,-38.574,-2.441,-33.203,-123.535
1688494180.123,-47.852,-40.527,6.348,-41.016,-80.566
1688494180.127,-52.734,-42.480,-21.973,-33.203,133.789
1688494180.130,-29.785,-31.250,-18.555,-16.602,39.551
1688494180.134,-19.043,-42.480,-13.184,-34.180,-135.254
1688494180.138,-3.906,-32.715,-16.602,-13.672,-146.973
1688494180.142,-4.883,-22.461,-4.395,6.836,209.473
1688494180.146,-33.691,-54.199,1.465,-24.902,291.504
1688494180.145,-33.691,-64.453,15.137,-35.156,-124.023
1688494180.149,-21.484,-49.805,7.324,-9.277,-161.621
1688494180.153,-26.367,-42.480,6.348,-18.066,52.734
1688494180.157,-36.621,-36.133,18.555,-34.180,23.926
1688494180.161,-27.832,-39.551,26.367,-15.137,-122.559
1688494180.165,-17.090,-41.016,25.879,0.488,-7.812
1688494180.169,-28.320,-44.434,5.371,-23.438,256.836
1688494180.172,-39.062,-42.480,4.883,-28.320,499.023
1688494180.176,-30.273,-36.133,3.418,-11.719,134.766
1688494180.180,-20.996,-41.504,-5.859,1.465,-161.133
1688494180.184,-23.926,-49.805,8.789,14.160,-130.859
1688494180.188,-26.367,-49.316,5.859,8.789,-300.293
1688494180.190,-30.273,-42.969,4.883,-15.137,-312.988
1688494180.194,-28.320,-32.227,11.719,-21.973,-160.156
1688494180.198,-35.645,-29.785,9.277,-15.625,-116.211
1688494180.202,-31.250,-30.762,27.344,-4.395,-145.508
1688494180.206,-19.043,-27.344,35.156,-1.465,-171.387
1688494180.210,-27.832,-29.297,15.137,-8.301,33.203
1688494180.214,-44.434,-36.133,-1.465,-26.367,362.305
1688494180.217,-39.551,-35.645,2.441,-31.738,53.223
1688494180.221,-27.344,-34.180,16.113,-19.043,-241.699
1688494180.225,-28.809,-36.621,9.766,-5.859,-180.176
1688494180.229,-26.855,-44.434,-0.977,4.395,-63.965
1688494180.233,-27.344,-48.828,3.906,-4.395,-31.738
1688494180.250,-30.273,-42.480,4.395,-19.531,-108.887
1688494180.254,-27.344,-31.738,10.742,-9.766,25.391
1688494180.258,-24.414,-19.043,11.230,-0.488,-3.906
1688494180.262,-18.066,-24.414,-13.184,-7.324,-203.125
1688494180.266,-26.855,-32.715,-30.762,-0.488,-133.789
1688494180.270,-24.414,-25.391,-31.250,3.418,-13.672
1688494180.274,-13.184,-26.855,23.926,-8.301,-10.742
1688494180.277,-30.273,-34.180,44.922,-26.855,-69.824
1688494180.281,-43.945,-30.762,19.531,-44.922,-131.836
1688494180.285,-37.598,-42.480,9.766,-37.109,184.570
1688494180.289,-35.156,-41.016,3.906,-31.738,146.484
1688494180.293,-27.832,-40.527,15.137,-33.203,-177.734
1688494180.310,-44.434,-54.688,22.461,-34.668,-127.441
1688494180.314,-59.570,-62.500,8.301,-48.340,-104.980
1688494180.318,-40.527,-41.992,-0.488,-24.414,-166.504
1688494180.322,-38.086,-26.855,3.906,-6.348,-167.480
1688494180.326,-34.668,-46.875,9.277,-25.391,-106.445
1688494180.330,-30.273,-41.504,7.324,-21.973,11.719
1688494180.334,-32.227,-27.832,3.418,-27.832,51.270
1688494180.337,-42.480,-35.645,-4.395,-31.738,-140.137
1688494180.341,-43.945,-43.945,-6.348,-32.715,69.824
1688494180.345,-27.344,-56.641,7.812,-39.551,492.188
1688494180.349,-26.367,-46.875,6.348,-23.438,164.551
1688494180.353,-23.926,-20.020,-8.789,-10.742,-191.406
1688494180.339,-39.062,-34.180,-7.324,-27.344,-38.086
1688494180.343,-50.781,-57.129,5.371,-36.621,-7.324
1688494180.347,-25.879,-41.504,34.180,-15.625,-191.895
1688494180.351,-12.207,-37.598,41.992,-2.441,-168.945
1688494180.355,-40.039,-56.152,20.020,-24.902,-140.625
1688494180.359,-46.875,-55.664,13.184,-25.879,-112.305
1688494180.363,-28.320,-52.246,-0.488,-9.277,-64.453
1688494180.366,-24.902,-47.852,-27.344,-10.254,20.508
1688494180.370,-5.371,-20.508,1.465,18.555,36.621
1688494180.374,5.371,-17.090,43.945,21.484,-123.047
1688494180.378,-41.504,-26.367,21.484,-40.527,-182.617
1688494180.382,-68.359,-25.391,5.371,-75.195,-48.340
1688494180.384,-58.105,-48.828,6.836,-76.660,307.129
1688494180.388,-61.523,-61.035,-7.812,-75.195,176.758
1688494180.392,-43.945,-48.828,-11.719,-59.082,-196.777
1688494180.396,-35.645,-49.316,-19.531,-45.410,-168.457
1688494180.400,-34.668,-43.457,-32.715,-33.691,-147.461
1688494180.404,-19.531,-24.414,-22.949,-11.230,-126.465
1688494180.408,-11.719,-14.160,-6.836,1.953,-78.125
1688494180.411,-15.137,-14.648,14.648,-12.695,108.887
1688494180.415,-40.039,-39.551,11.230,-47.363,232.422
1688494180.419,-43.457,-51.270,4.395,-42.969,-67.871
1688494180.423,-25.391,-45.898,0.000,-10.254,-127.930
1688494180.427,-17.578,-49.316,-11.230,-11.230,195.801
1688494180.445,-14.160,-45.410,-7.324,-9.766,134.277
1688494180.449,-13.672,-41.016,2.441,6.348,-192.871
1688494180.453,-19.043,-35.156,-22.461,8.789,-146.973
1688494180.457,-33.691,-27.344,-35.156,-6.836,-19.043
1688494180.461,-39.062,-38.574,1.953,-27.344,-10.254
1688494180.465,-21.973,-40.527,25.879,-18.066,-39.551
1688494180.469,-19.531,-25.391,27.832,-8.789,-30.273
1688494180.472,-33.691,-28.320,17.090,-22.949,194.336
1688494180.476,-44.922,-49.316,-13.184,-40.039,106.934
1688494180.480,-39.551,-47.852,-29.297,-23.438,-167.969
1688494180.484,-41.016,-51.758,-20.508,-19.531,-110.840
1688494180.488,-47.852,-65.918,-16.602,-33.691,-86.426
1688494180.474,-35.645,-44.922,-9.766,-34.668,-154.785
1688494180.478,-22.461,-19.043,2.441,-35.156,-139.160
1688494180.482,-34.180,-30.762,2.441,-40.039,-26.855
1688494180.486,-40.039,-41.016,-12.207,-48.340,34.180
1688494180.490,-35.156,-40.039,-12.207,-50.293,-48.340
1688494180.494,-38.574,-41.016,-3.418,-45.410,-80.566
1688494180.498,-29.297,-34.668,3.418,-30.273,133.301
1688494180.501,-14.648,-38.574,2.930,-21.484,136.719
1688494180.505,-20.508,-52.734,-17.578,-21.973,-128.906
1688494180.509,-17.090,-46.875,-35.156,-19.531,-228.027
1688494180.513,-24.902,-39.062,-30.762,-21.973,64.941
1688494180.517,-38.086,-42.969,-20.996,-21.973,508.301
1688494180.534,-41.016,-46.875,-17.578,-38.574,213.379
1688494180.538,-39.062,-43.457,-15.625,-44.434,-176.270
1688494180.542,-27.832,-35.645,-23.438,-21.484,-181.152
1688494180.546,-25.391,-28.809,-16.113,-10.254,-187.012
1688494180.550,-28.320,-34.180,4.883,-8.301,-160.645
1688494180.554,-30.273,-47.852,-5.859,-9.766,-11.230
1688494180.558,-23.438,-42.969,-22.949,-3.906,229.004
1688494180.561,-14.648,-21.484,-15.625,-1.465,135.742
1688494180.565,-28.809,-22.949,-8.789,-14.160,-226.562
1688494180.569,-51.758,-51.270,-6.348,-32.227,-174.805
1688494180.573,-31.738,-44.434,-7.812,-30.762,64.453
1688494180.577,-19.043,-26.855,-15.625,-26.855,-80.078
1688494180.565,-29.297,-35.645,-15.137,-28.320,-228.027
1688494180.569,-28.320,-32.715,-10.742,-24.902,-152.832
1688494180.573,-27.832,-32.715,-23.926,-45.898,-100.586
1688494180.577,-31.250,-35.645,-34.180,-58.105,-144.531
1688494180.581,-32.715,-22.461,-36.621,-36.621,-97.656
1688494180.585,-28.320,-25.879,-25.391,-27.344,144.531
1688494180.589,-34.668,-36.133,-20.996,-31.250,157.227
1688494180.592,-33.691,-27.344,-12.207,-33.691,-97.656
1688494180.596,-24.902,-23.438,10.742,-22.949,-152.344
1688494180.600,-15.137,-31.738,12.695,-3.906,119.629
1688494180.604,-2.930,-35.156,2.930,-9.766,233.887
1688494180.608,-11.719,-41.504,-2.930,-27.344,-91.309
1688494180.625,-20.996,-49.316,-14.648,-19.043,-248.535
1688494180.629,-10.254,-40.039,-31.738,4.395,102.539
1688494180.633,-25.391,-32.715,-34.668,10.742,302.734
1688494180.637,-37.109,-32.227,-26.855,-1.465,-107.910
1688494180.641,-14.160,-25.879,-5.859,-2.441,-248.047
1688494180.645,2.930,-24.902,4.883,3.906,-111.328
1688494180.649,-20.508,-36.621,-0.977,-11.719,31.738
1688494180.652,-24.902,-25.879,3.418,-17.578,-43.945
1688494180.656,-21.973,-25.391,-8.301,-23.438,-147.949
1688494180.660,-37.109,-47.363,-25.879,-32.715,61.523
1688494180.664,-30.762,-38.574,-28.320,0.000,-18.066
1688494180.668,-27.832,-38.086,-51.270,6.348,-133.789
1688494180.658,-33.691,-54.688,-50.293,-18.555,12.695
1688494180.662,-42.969,-53.711,-12.207,-37.109,10.254
1688494180.666,-43.457,-40.039,4.395,-54.199,-121.582
1688494180.670,-44.922,-28.320,-1.953,-47.363,-177.734
1688494180.674,-23.926,-15.625,4.395,-19.043,-101.074
1688494180.678,-1.465,-13.672,5.371,0.488,62.988
1688494180.682,-23.438,-36.133,-18.555,-16.602,26.367
1688494180.685,-43.457,-38.086,-28.320,-40.039,-178.711
1688494180.689,-37.598,-41.504,-41.992,-40.527,42.969
1688494180.693,-14.648,-34.180,-40.039,-27.832,264.648
1688494180.697,-3.906,-25.391,-25.391,-12.695,-51.758
1688494180.701,-18.066,-40.527,-27.344,-14.648,-127.441
1688494180.715,-29.785,-41.504,-41.016,-28.809,-19.531
1688494180.719,-18.066,-28.320,-41.016,-24.414,-58.105
1688494180.723,-14.648,-21.484,-13.184,-23.926,-44.434
1688494180.727,-21.973,-29.297,8.789,-28.320,-99.609
1688494180.731,-12.695,-36.133,1.465,-26.855,124.023
1688494180.735,-31.250,-41.504,-14.648,-41.992,315.430
1688494180.739,-32.715,-26.367,-9.766,-29.297,-53.711
1688494180.742,-9.277,-25.391,-18.066,-21.973,-173.828
1688494180.746,-17.578,-41.992,-49.316,-39.062,-88.379
1688494180.750,-27.344,-45.898,-41.992,-31.738,-154.297
1688494180.754,-27.832,-49.805,-32.715,-35.645,-276.855
1688494180.758,-41.992,-47.363,-38.086,-56.152,-147.461
1688494180.760,-49.316,-36.133,-27.832,-56.641,113.281
1688494180.764,-22.461,-18.066,-11.719,-42.969,-50.781
1688494180.768,-21.484,-16.602,-16.602,-26.855,-219.238
1688494180.772,-41.504,-39.551,-30.762,-43.457,-131.348
1688494180.776,-31.738,-36.133,-19.043,-58.594,-109.375
1688494180.780,-29.785,-23.926,-25.879,-45.410,-34.668
1688494180.784,-37.598,-34.668,-37.109,-53.223,3.418
1688494180.787,-29.785,-37.598,-25.879,-53.223,180.176
1688494180.791,-27.344,-42.480,-26.367,-39.062,350.098
1688494180.795,-28.809,-44.434,-26.367,-42.480,-7.324
1688494180.799,-36.133,-47.363,-42.480,-43.945,-107.422
1688494180.803,-29.297,-42.480,-51.270,-30.273,125.000
1688494180.805,-15.137,-7.812,-24.902,-17.090,20.020
1688494180.809,-18.555,3.906,-14.160,-34.668,-256.836
1688494180.813,-23.438,-18.555,-21.484,-50.293,-275.879
1688494180.817,-47.363,-43.945,-29.785,-48.828,-174.805
1688494180.821,-45.898,-44.434,-14.160,-49.316,-141.602
1688494180.825,-36.621,-44.434,-3.418,-45.898,-66.406
1688494180.829,-45.898,-47.363,-13.184,-34.180,-13.672
1688494180.832,-27.832,-31.738,-14.648,-18.555,245.117
1688494180.836,-31.738,-24.414,-17.090,-24.902,262.207
1688494180.840,-36.133,-34.668,-29.297,-22.461,-133.789
1688494180.844,-12.695,-38.574,-46.387,-7.812,-104.492
1688494180.848,-25.879,-37.109,-42.969,-27.344,-62.988
1688494180.850,-44.434,-37.598,-22.949,-37.598,-157.715
1688494180.854,-39.062,-35.645,-17.090,-32.227,-175.293
1688494180.858,-19.531,-18.066,-23.926,-3.906,-106.934
1688494180.862,-11.719,-24.414,-39.551,14.160,-94.238
1688494180.866,-28.320,-37.598,-31.738,-15.137,-166.504
1688494180.870,-37.109,-38.086,-15.625,-37.109,-99.121
1688494180.874,-8.789,-37.109,-12.695,-18.066,150.391
1688494180.877,-13.672,-33.203,-26.855,-11.719,119.629
1688494180.881,-36.133,-25.391,-38.574,-25.879,-113.281
1688494180.885,-18.066,-20.020,-32.227,-23.926,-116.211
1688494180.889,1.953,-31.250,-28.809,-14.160,158.203
1688494180.893,1.953,-38.086,-32.227,-2.930,493.164
1688494180.894,-7.812,-31.738,-28.809,-11.230,198.242
1688494180.898,0.977,-23.926,-19.043,-19.531,-125.977
1688494180.902,-22.461,-25.391,-24.902,-13.184,-94.238
1688494180.906,-27.832,-29.785,-30.273,0.000,-167.969
1688494180.910,-26.855,-44.922,-47.363,-10.254,-287.598
1688494180.914,-31.738,-49.805,-49.316,-29.785,-188.965
1688494180.918,-28.809,-37.598,-26.367,-30.762,47.852
1688494180.921,-31.250,-38.574,-25.391,-29.297,-37.109
1688494180.925,-20.508,-35.156,-27.832,-26.367,-221.191
1688494180.929,-20.996,-29.297,-25.879,-34.180,-174.316
1688494180.933,-23.438,-36.133,-44.922,-30.273,32.715
1688494180.937,-19.531,-42.969,-41.016,-17.090,-25.391
1688494180.955,1.953,-53.711,-27.344,-3.906,-166.016
1688494180.959,2.441,-56.641,-35.156,-12.207,-53.711
1688494180.963,-21.973,-42.480,-41.504,-24.902,-1.465
1688494180.967,-16.113,-28.320,-44.922,-6.348,-167.969
1688494180.971,-9.277,-27.832,-34.180,-8.301,-145.508
1688494180.975,-5.859,-32.715,-24.902,-31.250,140.137
1688494180.979,-13.184,-34.668,-20.508,-45.410,141.602
1688494180.982,-19.043,-29.297,-16.113,-52.734,-130.859
1688494180.986,-22.461,-26.367,-31.250,-51.270,-201.172
1688494180.990,-11.230,-26.855,-52.246,-38.574,59.082
1688494180.994,-10.742,-21.484,-54.199,-37.109,210.938
1688494180.998,-32.227,-34.180,-58.594,-51.758,-45.410
1688494181.000,-9.766,-35.645,-43.457,-46.875,-148.926
1688494181.004,-26.367,-38.574,-53.711,-54.199,-33.203
1688494181.008,-41.992,-40.527,-61.035,-45.410,70.312
1688494181.012,-9.277,-28.320,-32.715,-18.066,0.977
1688494181.016,-16.113,-41.992,-27.832,-42.480,-175.293
1688494181.020,-28.809,-61.523,-29.297,-62.012,141.113
1688494181.024,-39.062,-45.410,-26.855,-61.523,350.586
1688494181.027,-24.414,-19.043,-24.902,-53.223,-19.531
1688494181.031,-1.953,-26.855,-21.973,-38.086,-37.598
1688494181.035,7.324,-41.016,-31.738,-33.203,29.297
1688494181.039,10.742,-25.391,-39.551,-25.391,-163.574
1688494181.043,8.789,-15.625,-38.086,-12.695,-280.273
1688494181.044,23.926,-11.719,-51.758,-3.906,-108.887
1688494181.048,8.301,-8.301,-66.406,-29.297,132.812
1688494181.052,3.906,-9.277,-45.898,-40.527,-29.297
1688494181.056,5.859,-26.367,-26.367,-17.578,-239.746
1688494181.060,-15.625,-54.199,-27.344,-17.578,-163.574
1688494181.064,-20.508,-45.410,-23.926,-34.668,-46.387
1688494181.068,-31.738,-34.668,-40.039,-41.992,-1.465
1688494181.071,-32.227,-41.016,-61.523,-42.480,-70.312
1688494181.075,-25.879,-33.691,-69.336,-62.988,72.266
1688494181.079,-41.992,-26.367,-46.875,-70.312,327.148
1688494181.083,-23.438,-15.625,-53.711,-46.387,116.699
1688494181.087,-4.395,-7.812,-71.777,-38.574,-96.680
1688494181.090,-20.996,-14.648,-63.477,-59.082,25.391
1688494181.094,-15.137,-15.137,-66.406,-52.734,20.020
1688494181.098,1.953,-12.695,-76.660,-44.434,-198.242
1688494181.102,-31.738,-16.113,-77.148,-61.035,-168.945
1688494181.106,-49.805,-37.109,-64.453,-75.195,-62.500
1688494181.110,-20.508,-42.969,-51.758,-71.777,15.137
1688494181.114,-20.020,-38.086,-52.246,-69.336,-77.637
1688494181.117,-35.645,-40.527,-54.199,-63.477,-111.816
1688494181.121,-21.973,-42.969,-53.711,-38.574,237.793
1688494181.125,13.184,-23.926,-52.246,-26.367,217.773
1688494181.129,5.371,-9.766,-55.664,-24.414,-180.176
1688494181.133,-16.113,-26.367,-52.246,-34.180,-186.523
1688494181.135,-10.742,-30.273,-44.434,-40.039,-156.738
1688494181.139,-11.230,-22.461,-58.105,-33.203,-199.219
1688494181.143,-17.578,-31.738,-62.500,-35.645,-159.668
1688494181.147,-13.184,-34.668,-42.480,-36.133,-80.078
1688494181.151,-18.555,-36.133,-45.410,-41.504,-75.684
1688494181.155,-5.371,-32.227,-50.781,-35.645,-75.195
1688494181.159,-4.883,-35.156,-45.898,-34.668,-45.898
1688494181.162,-18.555,-43.457,-50.781,-38.574,104.492
1688494181.166,-11.230,-31.738,-58.105,-28.320,228.027
1688494181.170,-6.348,-27.832,-61.035,-28.320,-66.895
1688494181.174,-14.648,-21.484,-49.805,-39.551,-135.254
1688494181.178,-18.066,-24.902,-60.547,-33.203,-14.648
1688494181.194,-19.531,-28.320,-61.035,-30.273,-57.129
1688494181.198,-6.836,-12.207,-51.270,-26.367,-133.789
1688494181.202,9.277,-19.531,-60.059,-13.184,-171.875
1688494181.206,-6.348,-30.273,-55.664,-12.695,112.793
1688494181.210,-38.574,-32.715,-51.758,-36.621,192.871
1688494181.214,-40.527,-40.039,-53.711,-55.664,-24.902
1688494181.218,-31.250,-32.715,-49.805,-54.688,-15.137
1688494181.221,-33.203,-28.320,-55.664,-58.594,188.965
1688494181.225,-38.086,-27.832,-59.570,-54.199,158.691
1688494181.229,-41.504,-31.250,-58.105,-55.664,-182.129
1688494181.233,-51.270,-44.434,-66.406,-61.035,-133.789
1688494181.237,-50.781,-45.410,-47.852,-67.383,-67.383
1688494181.225,-34.668,-39.062,-43.945,-56.152,-72.754
1688494181.229,-30.273,-29.297,-59.570,-51.270,-166.016
1688494181.233,-22.949,-20.508,-49.316,-43.457,-104.004
1688494181.237,-21.973,-26.367,-38.574,-34.180,17.578
1688494181.241,-32.227,-33.203,-43.457,-51.270,-81.055
1688494181.245,-30.762,-36.133,-38.086,-58.105,-96.680
1688494181.249,-37.598,-35.156,-41.016,-62.988,22.949
1688494181.252,-45.898,-35.645,-33.691,-67.871,15.625
1688494181.256,-36.621,-24.902,-24.902,-55.176,-144.531
1688494181.260,-53.711,-16.113,-39.062,-60.547,-167.969
1688494181.264,-92.773,-34.668,-46.875,-89.844,145.020
1688494181.268,-95.215,-41.992,-33.203,-100.586,474.121
1688494181.270,-101.562,-30.273,-38.574,-102.539,117.188
1688494181.274,-117.188,-26.367,-41.504,-112.305,-210.449
1688494181.278,-126.953,-30.273,-31.250,-127.441,-106.934
1688494181.282,-135.742,-24.414,-35.645,-138.672,-46.875
1688494181.286,-139.160,-26.855,-52.734,-168.457,-100.586
1688494181.290,-153.320,-28.320,-54.688,-187.500,-117.188
1688494181.294,-161.621,-31.250,-50.293,-185.059,262.695
1688494181.297,-153.320,-28.809,-42.480,-182.617,332.520
1688494181.301,-145.020,-29.297,-37.598,-174.316,-169.922
1688494181.305,-149.902,-49.316,-52.734,-174.805,-212.402
1688494181.309,-154.297,-47.363,-49.316,-165.039,-150.879
1688494181.313,-126.953,-26.367,-38.574,-154.785,-212.402
1688494181.314,-111.816,-20.996,-35.156,-157.715,-171.875
1688494181.318,-101.074,-22.949,-28.809,-146.484,-94.238
1688494181.322,-80.078,-27.832,-31.250,-125.000,-50.293
1688494181.326,-83.984,-29.785,-46.875,-129.883,-95.703
1688494181.330,-82.520,-26.855,-50.781,-123.535,-112.305
1688494181.334,-62.500,-38.086,-55.176,-92.773,168.457
1688494181.338,-62.012,-45.898,-56.152,-75.195,219.238
1688494181.341,-58.594,-45.410,-55.176,-60.547,26.855
1688494181.345,-44.922,-53.223,-64.941,-56.641,-124.023
1688494181.349,-46.875,-52.734,-63.965,-58.105,-12.695
1688494181.353,-24.902,-39.062,-48.340,-41.992,299.805
1688494181.357,5.371,-25.879,-33.691,-7.812,70.312
1688494181.390,4.883,-20.996,-49.805,-7.324,-181.641
1688494181.394,3.906,-23.926,-75.195,-19.043,-39.062
1688494181.398,1.953,-24.414,-87.891,-13.672,-24.414
1688494181.402,-6.836,-33.203,-67.871,-9.277,-163.574
1688494181.406,2.930,-38.574,-37.109,-1.465,-125.977
1688494181.410,11.230,-34.180,-38.574,-7.324,-7.324
1688494181.414,16.113,-39.551,-52.246,-7.324,-26.367
1688494181.417,15.625,-33.691,-59.570,-0.488,-170.898
1688494181.421,15.137,-25.391,-62.500,8.301,-116.211
1688494181.425,31.738,-32.227,-51.270,17.578,249.512
1688494181.429,22.461,-40.039,-56.641,16.602,142.090
1688494181.433,19.043,-43.945,-65.918,7.324,-209.473
1688494181.419,35.156,-38.574,-50.781,15.137,-83.008
1688494181.423,30.762,-26.855,-36.133,21.484,-64.453
1688494181.427,22.461,-31.250,-46.387,11.230,-94.238
1688494181.431,19.531,-30.273,-52.734,22.949,-146.973
1688494181.435,37.109,-24.414,-35.156,31.738,18.066
1688494181.439,30.273,-32.227,-42.480,31.250,218.262
1688494181.443,23.926,-31.250,-49.316,38.086,42.969
1688494181.446,27.832,-39.551,-55.176,39.551,-64.453
1688494181.450,18.555,-47.852,-58.105,31.250,-15.625
1688494181.454,6.836,-44.922,-45.898,24.414,-60.547
1688494181.458,-5.859,-52.734,-42.969,17.578,-158.691
1688494181.462,4.883,-62.988,-44.922,18.555,-56.152
1688494181.465,23.926,-44.922,-47.363,38.086,226.562
1688494181.469,21.484,-24.414,-42.969,38.086,527.832
1688494181.473,2.441,-36.621,-43.945,22.949,219.727
1688494181.477,12.695,-35.645,-41.504,26.367,-174.316
1688494181.481,29.785,-26.367,-32.227,31.738,-150.391
1688494181.485,17.578,-39.062,-34.668,18.555,-121.094
1688494181.489,12.695,-40.527,-38.574,-2.441,-68.359
1688494181.492,13.184,-40.039,-41.016,-5.371,-81.055
1688494181.496,-0.488,-45.898,-50.781,-2.441,104.004
1688494181.500,-7.812,-41.504,-50.293,-11.230,58.105
1688494181.504,0.488,-35.645,-46.875,-5.859,-229.492
1688494181.508,11.230,-41.504,-48.340,-1.465,-129.883
1688494181.510,5.859,-39.551,-45.410,-1.953,-41.992
1688494181.514,-11.719,-32.227,-34.668,11.230,-79.102
1688494181.518,-24.902,-45.410,-40.039,-2.930,-139.648
1688494181.522,-21.973,-47.363,-48.340,-0.977,-3.906
1688494181.526,-15.625,-36.621,-45.410,8.301,125.000
1688494181.530,-21.973,-37.598,-50.781,1.465,39.551
1688494181.534,-18.555,-40.527,-51.270,4.883,-54.688
1688494181.537,-7.324,-28.809,-28.809,28.320,42.480
1688494181.541,-75.195,-66.406,-48.340,-15.625,192.383
1688494181.545,-94.727,-94.727,-72.754,-57.617,-114.258
1688494181.549,-9.277,-49.805,-33.691,-1.465,-163.086
1688494181.553,-1.465,-27.344,-25.879,20.996,-26.855
1688494181.555,-53.223,-54.199,-42.480,-33.203,-145.508
1688494181.559,-103.027,-100.098,-67.383,-93.262,-217.773
1688494181.563,-13.184,-35.156,-35.645,0.977,-157.715
1688494181.567,46.875,7.324,-9.766,60.059,103.516
1688494181.571,2.930,-12.695,-32.227,24.902,50.293
1688494181.575,15.137,-9.766,-28.809,37.109,-81.543
1688494181.579,-10.742,-24.902,-61.035,-6.836,3.418
1688494181.582,-29.297,-32.227,-75.195,-40.527,225.098
1688494181.586,-28.320,-37.109,-47.363,-24.414,258.789
1688494181.590,-57.617,-61.523,-65.918,-61.523,-139.648
1688494181.594,-16.602,-23.926,-58.594,-31.250,-174.805
1688494181.598,3.906,-5.371,-40.039,-16.113,-130.859
1688494181.600,-1.465,-19.531,-43.945,-24.414,-196.777
1688494181.604,3.418,-4.395,-43.945,-2.441,-225.098
1688494181.608,-3.906,-10.254,-49.805,-13.184,-149.414
1688494181.612,3.906,-11.719,-41.016,-11.719,-95.215
1688494181.616,-2.441,-14.648,-37.598,-15.625,-130.371
1688494181.620,-15.137,-24.902,-51.758,-26.855,-128.418
1688494181.624,-7.812,-29.297,-59.082,-20.020,102.539
1688494181.627,-5.859,-28.320,-52.246,-17.090,331.543
1688494181.631,-19.043,-34.180,-43.457,-19.531,29.297
1688494181.635,-23.926,-37.598,-30.762,-26.855,-233.398
1688494181.639,-16.602,-27.832,-18.066,-17.578,54.688
1688494181.643,-18.555,-24.414,-22.461,-11.230,152.832
1688494181.644,-27.832,-27.344,-40.039,-30.273,-159.668
1688494181.648,-27.832,-35.156,-49.805,-33.691,-179.199
1688494181.652,-20.996,-43.945,-50.781,-9.766,-87.402
1688494181.656,-24.902,-45.410,-57.617,-5.859,-82.520
1688494181.660,-21.484,-41.016,-53.223,-18.555,-139.160
1688494181.664,-10.254,-24.414,-47.852,-28.320,-107.422
1688494181.668,-32.715,-16.602,-60.059,-28.320,238.281
1688494181.671,-45.410,-17.578,-45.410,-20.508,221.191
1688494181.675,-34.180,-18.066,-31.250,-20.508,-153.320
1688494181.679,-27.832,-24.902,-31.738,-24.414,-76.660
1688494181.683,-24.902,-20.020,-28.320,-23.926,-6.348
1688494181.687,-29.785,-18.066,-41.992,-16.113,-178.223
1688494181.705,-22.949,-26.855,-45.410,-10.254,-265.625
1688494181.709,-16.113,-32.227,-45.410,-27.344,-139.160
1688494181.713,-19.531,-25.879,-66.406,-36.621,-91.797
1688494181.717,-20.020,-16.602,-65.918,-34.668,-154.297
1688494181.721,-23.438,-21.484,-37.598,-33.691,-149.414
1688494181.725,-40.527,-26.855,-32.715,-37.109,120.605
1688494181.729,-51.270,-20.508,-50.781,-62.012,246.094
1688494181.732,-30.762,-16.602,-73.730,-44.922,-43.457
1688494181.736,-18.066,-16.113,-64.941,-25.391,-185.059
1688494181.740,-41.504,-17.090,-51.270,-31.738,-44.922
1688494181.744,-58.594,-23.438,-38.086,-47.852,4.883
1688494181.748,-43.945,-24.902,-35.156,-52.734,-7.324
1688494181.750,-22.949,-20.020,-48.828,-41.016,-83.008
1688494181.754,-28.809,-19.043,-56.152,-41.992,89.355
1688494181.758,-38.574,-18.066,-57.129,-39.551,347.656
1688494181.762,-26.367,-16.602,-51.758,-31.250,-14.160
1688494181.766,-18.066,-17.090,-41.504,-37.598,-222.168
1688494181.770,-17.090,-11.719,-42.480,-23.926,-49.316
1688494181.774,-24.414,-8.789,-50.293,-14.160,53.223
1688494181.777,-36.133,-10.742,-62.012,-30.273,-44.434
1688494181.781,-37.598,-12.207,-65.430,-26.855,-131.836
1688494181.785,-35.156,-21.484,-48.340,-26.367,235.352
1688494181.789,-38.574,-22.949,-49.316,-31.738,245.117
1688494181.793,-31.738,-13.184,-51.270,-32.715,-165.527
1688494181.810,-4.395,-9.766,-53.711,-9.277,-152.344
1688494181.814,-9.277,-17.578,-42.480,0.000,-53.711
1688494181.818,-40.039,-22.461,-26.367,-23.438,-89.844
1688494181.822,-54.199,-20.996,-32.715,-41.504,-139.160
1688494181.826,-49.805,-22.461,-40.527,-37.109,33.691
1688494181.830,-49.316,-28.809,-31.738,-31.738,182.129
1688494181.834,-53.223,-27.832,-28.320,-32.227,45.410
1688494181.837,-34.668,-21.484,-33.691,-17.578,-128.418
1688494181.841,-31.738,-31.250,-27.832,-21.484,-4.883
1688494181.845,-47.852,-39.551,-22.461,-26.855,186.523
1688494181.849,-64.453,-41.016,-21.973,-44.434,-75.684
1688494181.853,-62.988,-41.992,-21.973,-46.387,-188.477
1688494181.854,-58.594,-38.574,-25.391,-38.574,-22.461
1688494181.858,-59.570,-41.504,-23.438,-47.852,-26.855
1688494181.862,-53.711,-39.062,-22.461,-47.852,-207.031
1688494181.866,-68.359,-40.039,-12.695,-52.734,-151.855
1688494181.870,-48.828,-37.109,-12.207,-40.527,-75.684
1688494181.874,-29.785,-35.645,-15.625,-18.066,-20.996
1688494181.878,-36.621,-37.598,-28.320,-24.902,-48.828
1688494181.881,-17.090,-32.715,-36.133,-6.836,-40.527
1688494181.885,-14.160,-35.645,-22.461,0.488,51.758
1688494181.889,-30.762,-40.039,-13.184,-28.320,-80.078
1688494181.893,-24.414,-37.109,-13.184,-12.695,-201.660
1688494181.897,-22.949,-33.691,-16.113,1.465,-135.742
1688494181.900,-25.391,-26.367,-40.527,15.137,3.418
1688494181.904,-20.508,-19.531,-27.832,-0.977,69.824
1688494181.908,-3.906,-14.160,-36.133,2.441,11.230
1688494181.911,-8.789,-20.508,-40.527,1.465,28.809
1688494181.915,-18.066,-22.461,-21.973,-21.484,1.953
1688494181.919,-26.855,-20.020,-19.531,-22.461,-164.062
1688494181.923,-28.320,-21.484,-40.039,-7.324,-148.926
1688494181.927,-18.066,-23.438,-35.645,-0.488,139.648
1688494181.930,-16.113,-20.996,-38.086,1.465,262.695
1688494181.934,-25.391,-18.555,-51.758,-20.020,-83.008
1688494181.938,-34.180,-20.508,-47.852,-16.113,-225.586
1688494181.942,-12.207,-20.020,-42.969,0.488,62.988
1688494181.946,-2.441,-16.113,-41.504,-7.324,193.848
1688494181.950,-11.230,-14.160,-41.992,-14.648,10.742
1688494181.954,-14.648,-19.531,-42.969,-21.484,-81.055
1688494181.957,-6.836,-24.902,-53.223,-9.766,67.871
1688494181.961,-13.184,-22.461,-46.387,-6.348,115.723
1688494181.965,-35.156,-14.648,-29.785,-9.766,-135.742
1688494181.969,-19.043,-11.230,-47.852,-13.672,-141.113
1688494181.973,-20.020,-20.020,-41.992,-24.902,-65.918
1688494181.974,-38.086,-19.043,-44.434,-27.832,-125.000
1688494181.978,-26.855,-21.973,-57.617,-15.137,-144.531
1688494181.982,-11.719,-22.461,-62.012,-6.836,-71.777
1688494181.986,-15.625,-14.160,-70.312,-11.719,-78.125
1688494181.990,-26.855,-18.066,-58.105,-18.066,-162.109
1688494181.994,-29.785,-25.391,-41.504,-34.180,-107.910
1688494181.998,-21.973,-21.484,-40.527,-37.598,160.156
1688494182.001,-25.391,-15.625,-41.504,-22.461,282.715
1688494182.005,-20.508,-15.625,-52.246,-21.973,-62.988
1688494182.009,-28.320,-15.625,-50.781,-29.297,-197.266
1688494182.013,-47.363,-12.695,-43.457,-36.621,-72.266
1688494182.017,-31.738,-2.930,-54.688,-31.738,-27.344
1688494182.020,-34.180,-7.324,-46.387,-34.668,-130.859
1688494182.024,-40.527,-20.020,-54.688,-34.668,-206.543
1688494182.028,-37.109,-27.832,-59.570,-37.598,36.621
1688494182.032,-50.293,-21.484,-58.105,-44.922,68.848
1688494182.036,-63.965,-15.625,-56.152,-47.852,-120.117
1688494182.040,-45.898,-21.484,-52.734,-55.664,2.930
1688494182.044,-36.133,-19.531,-53.711,-40.527,211.914
1688494182.047,-54.199,-10.742,-46.875,-37.109,65.430
1688494182.051,-59.082,-9.766,-52.734,-42.480,-239.746
1688494182.055,-49.805,-15.625,-45.410,-19.043,-134.277
1688494182.059,-19.043,-11.230,-33.203,7.812,-17.090
1688494182.063,-11.230,-11.719,-39.551,-0.977,-88.867
1688494182.079,-20.508,-21.973,-42.480,-23.438,-162.109
1688494182.083,-26.855,-10.742,-46.387,-20.020,-89.355
1688494182.087,-31.250,-9.766,-52.734,-25.391,-23.926
1688494182.091,-22.461,-14.648,-62.012,-28.809,-67.871
1688494182.095,-25.391,-10.254,-51.758,-42.969,-98.145
1688494182.099,-48.828,-3.906,-51.758,-83.496,155.762
1688494182.103,-58.594,3.906,-50.293,-68.848,275.391
1688494182.106,-58.594,-9.277,-24.902,-44.922,-94.727
1688494182.110,-36.621,-23.926,-21.973,-45.410,-163.086
1688494182.114,-41.992,-14.160,-49.805,-22.949,9.766
1688494182.118,-42.969,-12.207,-60.547,-15.625,65.918
1688494182.122,-20.020,-15.137,-55.176,-31.250,-58.594
1688494182.125,-25.879,-16.113,-45.898,-54.688,-141.602
1688494182.129,-18.555,-23.438,-55.664,-37.109,40.527
1688494182.133,-20.020,-11.719,-59.570,-28.320,90.820
1688494182.137,-39.062,2.930,-54.688,-38.574,-141.113
1688494182.141,-25.391,-6.348,-62.988,-21.973,-73.730
1688494182.145,-42.969,-1.953,-63.477,-32.715,259.277
1688494182.149,-66.406,-4.883,-70.312,-46.387,214.844
1688494182.152,-18.066,-24.902,-44.922,-25.879,-105.469
1688494182.156,-7.812,-16.113,-39.062,-39.062,-156.738
1688494182.160,3.418,-8.789,-54.688,-27.344,123.047
1688494182.164,-63.477,-19.531,-35.645,-32.715,69.824
1688494182.168,-69.336,-24.902,-58.594,-36.133,-220.215
1688494182.170,-29.297,-16.113,-75.195,-29.297,-109.863
1688494182.174,-20.996,-21.484,-45.898,-17.090,-56.641
1688494182.178,0.977,-18.066,-37.109,15.137,-125.977
1688494182.182,-22.949,-0.977,-48.340,-2.441,-131.836
1688494182.186,-68.359,12.207,-62.012,-35.156,41.504
1688494182.190,-106.934,0.000,-57.617,-73.242,148.438
1688494182.194,-81.543,-30.273,-60.059,-95.215,38.086
1688494182.197,-51.270,-9.277,-80.078,-92.285,-108.887
1688494182.201,-60.547,11.230,-80.566,-93.750,-17.090
1688494182.205,-67.871,-6.836,-71.289,-81.543,247.559
1688494182.209,-47.363,-6.836,-82.520,-64.941,65.918
1688494182.213,-60.547,-10.742,-91.309,-97.168,-160.645
1688494182.215,-62.012,5.859,-126.953,-95.703,-73.730
1688494182.219,-125.977,5.371,-98.145,-130.859,-54.688
1688494182.223,-109.863,14.160,-87.891,-107.910,-210.938
1688494182.227,-15.625,23.926,-101.074,-53.223,-176.270
1688494182.231,-57.129,27.344,-95.703,-103.516,-122.559
1688494182.235,-136.230,44.434,-115.723,-175.293,-95.215
1688494182.239,-74.707,10.742,-88.379,-92.773,-114.746
1688494182.242,-29.785,-24.414,-63.477,-23.926,-107.910
1688494182.246,21.973,-34.668,-67.871,-15.625,201.660
1688494182.250,41.016,-13.184,-62.988,21.973,191.406
1688494182.254,-6.836,-9.766,-55.176,-34.668,-195.801
1688494182.258,-12.695,-10.254,-67.383,-41.504,-103.516
1688494182.259,-31.738,-18.066,-58.594,-13.672,24.414
1688494182.263,-83.984,-11.230,-45.410,-79.590,-87.891
1688494182.267,-85.449,10.254,-90.332,-97.656,-131.836
1688494182.271,-21.484,8.301,-91.797,-54.688,-99.609
1688494182.275,-106.934,-26.367,-68.848,-38.086,-49.316
1688494182.279,-188.965,-17.578,-69.824,-48.828,-1.465
1688494182.283,-36.621,15.625,-64.453,-53.223,35.645
1688494182.286,17.090,-1.953,-81.543,0.488,50.293
1688494182.290,13.672,-6.348,-72.266,-41.016,6.348
1688494182.294,87.402,-33.203,-54.199,-39.551,-106.445
1688494182.298,67.383,-35.645,-47.852,30.762,-159.180
1688494182.302,1.465,-23.926,-60.547,1.465,148.926
1688494182.320,-5.371,-23.926,-73.242,3.906,518.555
1688494182.324,-62.012,-24.902,-53.711,-58.105,102.539
1688494182.328,-48.828,-22.461,-26.855,-47.363,-257.812
1688494182.332,36.621,-5.371,-50.781,57.129,-165.527
1688494182.336,-104.004,10.742,-61.523,-18.066,-129.883
1688494182.340,-159.668,-20.508,-37.109,-70.312,-102.539
1688494182.344,-2.441,-12.695,-69.336,22.949,27.344
1688494182.347,43.457,-7.812,-83.984,56.641,52.246
1688494182.351,35.645,-48.828,-38.574,-3.418,-120.117
1688494182.355,65.430,-18.066,-41.504,20.020,-189.453
1688494182.359,9.277,4.395,-65.918,53.223,-95.703
1688494182.363,-33.203,-48.828,-20.020,-1.953,165.527
1688494182.350,-17.578,-13.672,-30.273,16.113,46.387
1688494182.354,-18.066,1.465,-49.316,-20.996,-250.488
1688494182.358,-23.926,-20.020,-61.523,-12.695,-103.027
1688494182.362,-82.520,-10.254,-68.848,24.902,28.320
1688494182.366,-56.641,-17.090,-64.453,-31.250,-142.090
1688494182.370,16.602,28.320,-80.078,18.555,-158.691
1688494182.374,-64.941,-54.199,-30.273,-20.020,42.969
1688494182.377,14.648,-72.754,-59.570,4.395,4.883
1688494182.381,60.059,21.484,-100.098,21.484,-136.719
1688494182.385,0.000,-33.691,-35.156,7.324,-194.824
1688494182.389,10.742,-20.508,-38.574,39.551,132.812
1688494182.393,-10.254,-18.555,-50.781,-4.883,496.582
1688494182.395,2.441,-41.992,-26.855,1.465,74.219
1688494182.399,-66.895,-20.020,-28.320,16.113,-196.777
1688494182.403,-64.941,-25.391,-39.062,15.137,-128.418
1688494182.407,28.809,-59.082,-25.391,48.828,-155.273
1688494182.411,-26.855,-0.977,-31.738,14.648,-165.527
1688494182.415,-98.145,-3.906,10.254,-23.438,-103.027
1688494182.419,-86.426,-69.824,-43.457,-67.871,256.348
1688494182.422,5.859,-34.668,-75.195,7.324,334.473
1688494182.426,-90.332,-26.367,-10.742,77.637,-173.340
1688494182.430,-45.410,-49.316,-33.691,52.734,-229.004
1688494182.434,138.672,-49.316,-8.789,15.625,-124.512
1688494182.438,55.664,-27.344,-23.926,17.578,-160.645
1688494182.439,-21.973,36.621,-74.707,47.852,-123.535
1688494182.443,-8.789,0.977,-68.359,20.020,-62.988
1688494182.447,99.121,-94.238,9.277,89.355,-78.613
1688494182.451,19.531,-39.551,-4.883,63.965,-137.207
1688494182.455,-75.195,-7.324,-19.531,-13.672,-177.246
1688494182.459,-12.695,-24.414,-13.672,-4.395,73.242
1688494182.463,45.410,-40.527,-53.711,7.324,287.109
1688494182.466,-79.102,21.973,-101.562,10.742,9.766
1688494182.470,-53.223,4.395,-82.520,-36.133,-182.617
1688494182.474,12.695,-53.223,-39.551,-23.438,43.945
1688494182.478,-80.566,-22.949,-55.176,40.527,269.531
1688494182.482,2.441,-78.125,-39.062,0.488,25.879
1688494182.514,44.434,-52.734,30.762,-10.254,-175.781
1688494182.518,-36.621,-41.504,18.555,-38.086,1.465
1688494182.522,1.953,-31.738,-76.172,-27.832,10.742
1688494182.526,1.953,-8.301,-76.660,24.414,-200.684
1688494182.530,-22.949,-29.297,-53.711,14.160,-146.973
1688494182.534,32.227,-18.555,-52.734,39.062,4.395
1688494182.538,3.906,-49.316,-37.598,11.230,13.184
1688494182.541,-33.203,-28.809,-35.156,3.906,-105.469
1688494182.545,-37.109,-39.551,-17.090,-11.230,-125.000
1688494182.549,-49.805,-54.199,-26.367,-51.270,167.480
1688494182.553,-76.172,-26.855,-39.062,-69.824,88.379
1688494182.557,-116.699,48.340,-68.359,-63.965,-217.773
1688494182.535,-7.812,-20.508,-69.824,-16.113,-62.012
1688494182.539,-8.789,-42.480,-51.758,41.992,25.879
1688494182.543,-84.961,0.000,-57.129,-11.230,-109.375
1688494182.547,-12.695,-57.129,-74.219,-62.988,-180.176
1688494182.551,36.133,-69.336,-37.598,-3.906,-92.773
1688494182.555,6.348,-24.902,-30.762,26.367,45.898
1688494182.559,-31.250,-16.113,-75.195,12.207,33.203
1688494182.562,-7.324,-39.551,-64.941,16.113,-52.246
1688494182.566,39.551,-23.926,-41.016,8.789,-32.227
1688494182.570,9.766,-20.996,-41.992,12.695,-44.434
1688494182.574,-93.750,-9.766,-44.922,-21.484,-125.977
1688494182.578,-105.957,-5.371,-39.062,-132.812,-97.168
1688494182.589,7.812,-22.461,-36.133,-41.016,178.223
1688494182.593,17.090,-21.973,-71.777,19.043,144.531
1688494182.597,-64.941,-19.043,-133.789,-49.805,-156.738
1688494182.601,-31.738,-50.781,-42.480,-22.949,-148.926
1688494182.605,46.875,-60.059,-32.715,-21.484,106.445
1688494182.609,21.484,-26.367,-69.336,6.348,562.500
1688494182.613,-49.805,-32.715,-43.945,-71.289,391.602
1688494182.616,-53.223,24.414,-102.539,-26.855,-123.535
1688494182.620,-32.715,18.066,-75.684,96.680,-45.410
1688494182.624,-53.711,-37.598,-9.277,-36.133,-63.477
1688494182.628,-68.848,-15.137,-79.590,-125.977,-247.559
1688494182.632,18.066,-23.926,-121.582,-3.418,-212.891
1688494182.635,-42.969,-23.438,-17.090,2.441,-181.152
1688494182.639,-62.988,-27.832,2.441,-99.609,-225.098
1688494182.643,1.953,-29.297,-34.180,-69.824,-124.512
1688494182.647,3.906,-41.504,-34.180,36.133,51.270
1688494182.651,-30.762,-18.066,-81.543,-41.992,16.602
1688494182.655,-106.934,3.906,-79.590,-116.211,-21.973
1688494182.659,-23.438,-28.809,-42.969,18.555,-70.312
1688494182.662,14.160,-40.039,6.836,-46.387,7.812
1688494182.666,-6.836,-25.879,-46.387,-73.242,191.895
1688494182.670,0.000,-42.480,-78.125,42.969,-57.617
1688494182.674,-14.648,-46.875,-33.203,13.184,-206.543
1688494182.678,14.648,-22.949,-54.199,-6.348,41.992
1688494182.679,-38.086,20.020,-108.887,-59.570,90.820
1688494182.683,-54.199,-6.836,-83.008,-36.133,-130.371
1688494182.687,-21.973,-41.992,-73.242,-33.203,-113.281
1688494182.691,-26.855,-32.227,-66.406,-87.891,-83.496
1688494182.695,-36.133,-30.762,-35.645,-29.785,-111.328
1688494182.699,-56.641,-27.832,-43.945,56.152,-28.809
1688494182.703,-10.742,-44.922,-24.902,6.348,25.391
1688494182.706,28.320,-37.598,-43.457,-16.602,294.922
1688494182.710,-32.715,-36.133,-59.570,-41.992,340.820
1688494182.714,-36.621,-24.902,-70.312,-15.625,-128.906
1688494182.718,-42.480,-20.508,-41.504,-43.457,-158.691
1688494182.722,-98.145,-38.574,-11.230,-171.875,-25.879
1688494182.724,-20.996,-27.344,-84.473,-70.312,-125.488
1688494182.728,19.043,-21.484,-80.078,61.523,-143.066
1688494182.732,-29.297,-30.273,-53.711,-5.371,-74.707
1688494182.736,-63.477,-28.809,-37.598,-132.812,-86.426
1688494182.740,-64.941,-22.949,-54.688,-96.191,-137.695
1688494182.744,-42.480,-26.855,-87.402,45.410,-65.430
1688494182.748,-25.391,-35.156,-52.734,-4.395,181.641
1688494182.751,-24.414,-30.762,-13.672,-33.203,297.852
1688494182.755,-47.363,-22.461,-85.938,-50.781,5.371
1688494182.759,-25.391,-30.762,-103.516,-46.875,-194.824
1688494182.763,-42.969,-36.133,-40.039,-42.480,126.953
1688494182.767,-53.223,-29.785,-32.715,-57.617,214.355
1688494182.769,-20.508,-26.855,-8.301,2.930,-175.293
1688494182.773,-21.973,-33.691,-26.855,-20.508,-205.566
1688494182.777,-25.879,-31.250,-55.664,-108.887,-124.023
1688494182.781,-32.227,-29.785,-70.312,-50.781,-125.000
1688494182.785,-29.297,-38.086,-54.688,19.531,-188.965
1688494182.789,-26.855,-35.156,-60.059,-9.766,-156.250
1688494182.793,-31.250,-35.156,-42.480,-14.160,201.660
1688494182.796,-27.832,-18.555,-66.895,-79.102,171.387
1688494182.800,-34.180,-14.648,-66.895,-91.309,-135.742
1688494182.804,-22.949,-25.879,-62.012,10.254,-80.078
1688494182.808,-25.879,-30.762,-67.871,18.555,92.773
1688494182.812,-39.551,-34.668,-28.320,-11.719,-62.988
1688494182.814,-19.531,-22.949,-84.961,11.719,-219.238
1688494182.818,-24.414,-27.832,-65.430,32.227,-78.125
1688494182.822,-30.762,-23.926,-38.574,3.418,-50.781
1688494182.826,-25.879,-17.578,-56.641,-38.574,-149.414
1688494182.830,-38.574,-28.320,-61.035,-43.945,-234.863
1688494182.834,-39.062,-34.180,-40.039,-14.648,3.418
1688494182.838,-33.203,-27.344,-12.207,-42.969,257.324
1688494182.841,-30.762,-27.832,-27.344,-112.793,-43.945
1688494182.845,-21.973,-34.668,-60.059,17.578,-213.379
1688494182.849,-56.641,-35.645,-55.176,-14.160,-70.801
1688494182.853,-47.852,-15.625,-83.496,-38.574,8.789
1688494182.857,-31.250,-14.648,-51.758,-14.160,-107.910
1688494182.875,-53.223,-31.250,-32.227,-83.008,-135.254
1688494182.879,-28.809,-23.438,-67.383,13.184,127.930
1688494182.883,1.465,-15.137,-65.430,49.316,215.820
1688494182.887,-22.461,-26.855,-35.156,-1.465,-141.602
1688494182.891,-37.598,-22.461,-46.875,-115.723,-143.066
1688494182.895,-25.879,-23.926,-66.406,-41.504,10.254
1688494182.899,-24.414,-35.645,-37.109,65.430,6.348
1688494182.902,-57.129,-38.574,-17.578,-64.941,-59.082
1688494182.906,-49.805,-34.668,-33.691,-115.723,-138.672
1688494182.910,-28.320,-33.203,-52.246,-29.297,71.777
1688494182.914,-34.180,-42.480,-17.578,21.973,17.090
1688494182.918,-38.574,-44.922,-16.113,2.441,-186.523
1688494182.919,-48.828,-49.316,-9.766,-5.371,-52.734
1688494182.923,-39.062,-38.086,-52.734,-54.688,-18.066
1688494182.927,-27.344,-25.879,-83.008,-14.648,-96.680
1688494182.931,-22.461,-37.598,-32.227,23.438,-101.074
1688494182.935,-33.203,-42.480,-41.016,-44.922,1.953
1688494182.939,-30.273,-24.902,-62.012,-33.203,194.336
1688494182.943,-19.043,-16.113,-81.055,-6.836,47.852
1688494182.946,-34.668,-24.902,-59.570,-63.965,-170.410
1688494182.950,-38.574,-21.973,-28.809,-47.852,12.207
1688494182.954,-45.898,-26.367,-17.090,-15.625,200.684
1688494182.958,-41.504,-27.344,-36.621,-49.805,26.855
1688494182.962,-24.414,-23.926,-50.293,-31.250,-101.074
1688494182.964,-26.855,-27.832,-42.480,29.297,41.016
1688494182.968,-38.574,-22.949,-35.156,14.160,60.547
1688494182.972,-28.809,-15.625,-44.922,-29.297,-189.453
1688494182.976,-30.762,-26.367,-28.320,-86.426,-231.934
1688494182.980,-29.785,-28.320,-37.109,-70.801,-136.230
1688494182.984,-14.648,-22.949,-65.918,5.371,-16.113
1688494182.988,-14.160,-27.832,-52.734,40.527,10.742
1688494182.991,-6.836,-26.367,-47.363,30.762,4.883
1688494182.995,-5.371,-23.438,-49.805,-33.691,220.215
1688494182.999,-1.465,-26.367,-52.246,-61.035,239.258
1688494183.003,-13.672,-30.273,-41.016,-0.488,-153.809
1688494183.007,-32.715,-25.391,-45.410,8.301,-161.133
1688494183.009,-25.879,-28.809,-47.852,16.113,-78.125
1688494183.013,-22.461,-34.180,-55.664,-16.113,-187.500
1688494183.017,-22.461,-29.785,-54.199,21.484,-169.434
1688494183.021,-26.367,-27.832,-47.363,31.738,-48.340
1688494183.025,-49.316,-38.574,-17.578,-94.727,-22.461
1688494183.029,-33.691,-23.438,-64.453,-89.844,12.695
1688494183.033,-25.879,-24.902,-62.500,49.805,-19.043
1688494183.036,-31.738,-36.621,0.000,69.336,120.605
1688494183.040,-14.648,-19.531,-40.527,-41.992,302.246
1688494183.044,-28.320,-23.926,-42.969,-85.938,3.418
1688494183.048,-35.645,-30.762,-4.883,-5.371,-153.809
1688494183.052,-24.414,-23.438,-38.086,26.367,80.078
1688494183.054,-30.273,-27.832,-61.523,-29.785,356.445
1688494183.058,-23.438,-31.250,-54.199,-42.969,35.645
1688494183.062,-19.531,-29.297,-41.016,20.996,-187.988
1688494183.066,-34.668,-33.203,-33.691,-12.207,-120.605
1688494183.070,-44.434,-33.691,-20.508,-29.297,-146.484
1688494183.074,-55.664,-29.785,14.160,-52.246,-160.156
1688494183.078,-56.641,-31.738,-9.766,-37.598,-149.902
1688494183.081,-40.039,-29.785,-67.871,-76.660,-31.250
1688494183.085,-33.691,-25.879,-50.293,-38.574,-46.875
1688494183.089,-40.527,-30.762,-38.086,54.688,-193.848
1688494183.093,-52.246,-33.691,-45.898,-32.227,-147.949
1688494183.097,-43.457,-29.297,-27.832,-35.645,223.633
1688494183.099,-29.297,-21.484,-61.035,-58.594,170.898
1688494183.103,-32.715,-20.020,-33.691,-66.406,-153.809
1688494183.107,-28.320,-20.996,-14.648,-32.715,-106.934
1688494183.111,-29.297,-20.508,-66.895,-35.156,-110.840
1688494183.115,-40.527,-24.414,-56.641,-13.672,-202.148
1688494183.119,-35.645,-31.738,-50.293,15.625,-122.559
1688494183.123,-18.066,-31.738,-55.664,-32.715,145.996
1688494183.126,-29.785,-27.832,-43.945,-56.152,176.270
1688494183.130,-44.434,-25.391,-32.227,-3.906,-122.070
1688494183.134,-37.109,-22.461,-49.805,-5.371,-208.008
1688494183.138,-37.109,-14.648,-79.590,-67.871,-95.215
1688494183.142,-29.297,-10.254,-73.730,-65.430,-83.984
1688494183.145,-32.227,-19.043,-59.570,-22.949,-152.832
1688494183.149,-55.176,-29.785,-56.152,-56.152,-130.371
1688494183.153,-47.363,-31.738,-9.277,-80.078,104.492
1688494183.157,-35.645,-16.113,-51.270,-68.848,110.840
1688494183.161,-58.105,-32.227,-79.590,-20.020,-147.949
1688494183.165,-60.547,-47.363,-61.523,-67.383,-101.074
1688494183.169,-53.711,-32.715,-61.035,-89.844,202.148
1688494183.172,-68.359,-20.020,-57.617,-71.289,154.785
1688494183.176,-49.316,-15.625,-56.641,-26.855,-158.691
1688494183.180,-16.113,-13.184,-50.781,-9.277,-94.727
1688494183.184,-48.828,-19.043,-49.805,-60.059,-33.203
1688494183.188,-69.824,-26.855,-36.621,-39.062,-83.008
1688494183.191,-44.922,-24.414,-35.645,-43.945,-94.727
1688494183.195,-34.180,-20.508,-51.270,-93.262,-50.781
1688494183.199,-36.621,-25.391,-45.410,-56.641,-9.766
1688494183.203,-45.898,-36.621,-35.156,-39.062,-26.367
1688494183.207,-37.109,-33.691,-58.594,18.066,-140.625
1688494183.211,-46.387,-30.762,-62.500,-68.359,62.988
1688494183.215,-48.828,-30.762,-73.730,-105.957,405.273
1688494183.218,-34.180,-39.551,-39.062,16.602,70.801
1688494183.222,-21.973,-40.039,-41.992,11.230,-174.316
1688494183.226,-18.555,-27.832,-53.711,-29.785,-63.477
1688494183.230,-26.855,-23.438,-35.156,-58.105,-9.766
1688494183.234,-29.297,-24.902,-34.668,-16.602,-76.172
1688494183.265,-21.484,-22.461,-27.832,9.277,-139.160
1688494183.269,-36.621,-31.250,-28.809,-62.012,-37.109
1688494183.273,-47.363,-35.156,-53.223,-104.980,-43.457
1688494183.277,-23.438,-21.484,-54.199,-3.906,-199.707
1688494183.281,-10.742,-5.371,-57.129,-7.812,-194.824
1688494183.285,-15.137,-11.230,-47.363,-30.762,246.582
1688494183.289,-31.250,-26.367,-27.832,-4.395,366.699
1688494183.292,-45.410,-26.367,-37.598,-22.949,-48.828
1688494183.296,-50.781,-30.762,-53.223,-32.715,-152.344
1688494183.300,-36.621,-36.133,-36.621,-19.043,29.297
1688494183.304,-21.973,-23.926,-41.016,-111.328,-33.691
1688494183.308,-29.297,-25.391,-36.621,-78.125,-196.777
1688494183.294,-12.695,-20.020,-33.691,37.598,-101.074
1688494183.298,-13.184,-17.578,-34.180,-42.969,-92.773
1688494183.302,-34.180,-19.043,-62.012,-56.152,-174.805
1688494183.306,-30.762,-26.855,-59.082,31.250,-169.922
1688494183.310,-13.184,-32.715,-25.879,17.578,-82.031
1688494183.314,-18.555,-20.996,-40.527,-36.621,-12.695
1688494183.318,-42.480,-21.973,-35.645,-68.359,-63.965
1688494183.321,-33.691,-23.438,-54.199,-18.066,-65.430
1688494183.325,-41.016,-39.551,-49.316,-11.719,146.973
1688494183.329,-38.086,-42.969,-18.066,-40.527,106.445
1688494183.333,-19.531,-25.391,-18.066,13.184,-45.898
1688494183.337,-33.691,-24.902,-58.105,-44.922,-96.191
1688494183.339,-41.504,-31.738,-48.828,-41.016,33.691
1688494183.343,-33.691,-34.180,-20.508,3.418,445.312
1688494183.347,-35.156,-30.762,-56.641,-21.973,217.773
1688494183.351,-34.180,-33.203,-53.223,-17.578,-192.871
1688494183.355,-36.621,-30.762,-41.992,-16.602,-149.414
1688494183.359,-27.344,-26.855,-43.457,9.277,-68.848
1688494183.363,-24.902,-33.691,-46.387,-5.371,-39.062
1688494183.366,-48.828,-40.527,-31.250,-64.453,-63.965
1688494183.370,-49.316,-38.086,-32.715,-37.109,-14.160
1688494183.374,-46.875,-42.480,-31.738,-12.695,-96.191
1688494183.378,-44.922,-40.039,-38.086,-61.035,-244.141
1688494183.382,-31.738,-28.320,-51.758,-17.578,-154.785
1688494183.401,-36.621,-33.203,-22.949,-6.348,168.945
1688494183.405,-41.992,-28.809,-46.387,-47.363,108.398
1688494183.409,-44.922,-30.762,-38.086,-21.973,-234.863
1688494183.413,-25.879,-29.785,-52.734,-18.066,-223.145
1688494183.417,-27.344,-34.180,-77.637,10.254,-118.652
1688494183.421,-21.484,-33.203,-57.617,3.906,-38.086
1688494183.425,-22.461,-34.668,-29.297,-25.391,-24.414
1688494183.428,-32.227,-41.016,-34.668,-55.176,85.938
1688494183.432,-35.156,-31.738,-34.668,-9.277,174.805
1688494183.436,-37.109,-23.926,-23.438,29.297,-76.172
1688494183.440,-41.504,-30.762,-36.133,-15.625,-80.078
1688494183.444,-48.340,-38.086,-41.016,-48.828,144.531
1688494183.430,-31.250,-26.855,-35.156,-19.531,21.484
1688494183.434,-39.551,-24.902,-45.898,-46.387,-143.066
1688494183.438,-37.598,-23.926,-56.152,-92.773,-51.758
1688494183.442,-29.297,-22.461,-46.387,-38.086,-49.805
1688494183.446,-30.762,-27.344,-35.645,32.227,-124.023
1688494183.450,-31.738,-26.367,-49.316,-12.695,-168.457
1688494183.454,-45.410,-28.809,-47.363,-34.668,-54.688
1688494183.457,-41.016,-24.902,-23.438,-18.555,42.969
1688494183.461,-33.203,-25.879,-18.066,-56.641,-81.543
1688494183.465,-51.758,-40.039,-29.785,-56.152,-209.961
1688494183.469,-59.570,-42.480,-39.062,-21.484,-205.078
1688494183.473,-61.523,-42.969,-44.434,-30.273,145.996
1688494183.474,-57.129,-44.922,-39.551,-51.758,221.191
1688494183.478,-47.363,-29.297,-39.062,-63.965,-204.590
1688494183.482,-44.434,-25.879,-44.434,-21.973,-158.203
1688494183.486,-37.109,-30.273,-51.758,3.418,45.898
1688494183.490,-28.809,-18.555,-41.504,-17.578,-84.961
1688494183.494,-30.273,-17.090,-37.598,-53.223,-176.758
1688494183.498,-27.832,-30.273,-36.133,-40.527,65.918
1688494183.501,-34.180,-33.203,-25.391,-9.766,352.051
1688494183.505,-40.039,-29.785,-29.785,12.695,75.195
1688494183.509,-36.133,-29.785,-23.438,-27.832,-205.566
1688494183.513,-35.156,-29.785,-31.250,-46.875,-90.820
1688494183.517,-27.832,-19.531,-37.598,-26.367,-11.719
1688494183.535,-22.949,-23.926,-33.691,-39.551,-92.285
1688494183.539,-28.809,-29.785,-29.297,-0.488,-176.758
1688494183.543,-32.227,-22.949,-26.855,1.953,-51.270
1688494183.547,-29.785,-26.367,-53.223,-32.227,-18.555
1688494183.551,-41.016,-35.156,-57.129,-78.125,-162.598
1688494183.555,-47.852,-31.738,-23.926,-46.387,-27.832
1688494183.559,-35.645,-18.555,-25.391,-24.414,218.750
1688494183.562,-28.320,-19.531,-38.574,-51.758,17.578
1688494183.566,-37.598,-34.668,-37.109,-19.531,-255.859
1688494183.570,-43.457,-38.574,-42.969,-32.715,-166.504
1688494183.574,-36.621,-27.344,-32.715,-42.480,46.875
1688494183.578,-48.828,-24.902,-33.203,-40.527,-20.508
1688494183.564,-58.105,-34.668,-41.504,-32.227,-172.852
1688494183.568,-50.781,-36.133,-50.781,-25.391,-104.980
1688494183.572,-42.969,-22.461,-56.641,-40.527,-57.617
1688494183.576,-47.363,-20.996,-39.062,-45.898,-118.652
1688494183.580,-36.621,-32.715,-31.250,-41.016,-121.094
1688494183.584,-30.762,-40.527,-41.016,-16.602,31.738
1688494183.588,-41.016,-41.992,-42.480,-27.344,101.562
1688494183.591,-55.664,-38.086,-43.945,-83.496,-47.363
1688494183.595,-38.086,-22.461,-44.434,-43.457,-75.195
1688494183.599,1.953,-14.160,-32.715,-10.254,126.465
1688494183.603,-32.227,-24.414,-26.855,-15.137,474.121
1688494183.607,-55.664,-31.738,-34.668,-34.180,249.023
1688494183.625,-43.945,-36.133,-32.227,-38.086,-230.957
1688494183.629,-60.547,-44.434,-29.785,-20.996,-75.195
1688494183.633,-53.223,-55.664,-26.855,-42.969,-40.039
1688494183.637,-36.621,-44.922,-30.273,-38.574,-286.621
1688494183.641,-41.992,-32.715,-38.086,-28.809,-235.840
1688494183.645,-55.664,-39.551,-38.574,-37.598,-76.172
1688494183.649,-51.270,-41.016,-31.738,-11.230,-74.219
1688494183.652,-46.875,-36.621,-25.879,-55.176,-187.500
1688494183.656,-51.270,-44.434,-21.484,-67.383,-201.660
1688494183.660,-47.363,-51.270,-28.320,-26.855,58.594
1688494183.664,-51.270,-46.387,-36.133,-53.711,36.621
1688494183.668,-55.176,-42.969,-38.086,-59.082,-73.730
1688494183.670,-62.012,-43.457,-37.109,-57.129,47.852
1688494183.674,-48.340,-33.203,-36.621,-37.598,26.367
1688494183.678,-31.738,-20.020,-31.250,4.883,-156.250
1688494183.682,-34.668,-25.879,-18.555,9.766,-196.777
1688494183.686,-36.133,-37.598,-30.762,-28.320,38.086
1688494183.690,-41.504,-27.344,-48.828,-35.645,210.449
1688494183.694,-37.598,-18.555,-45.410,-18.066,80.078
1688494183.697,-45.410,-32.227,-35.156,-55.664,-55.664
1688494183.701,-51.758,-28.809,-31.250,-51.758,56.641
1688494183.705,-40.039,-19.043,-23.926,-2.441,207.520
1688494183.709,-37.598,-26.855,-25.879,-22.461,-3.418
1688494183.713,-52.246,-38.086,-32.715,-43.945,-92.285
1688494183.716,-50.293,-37.598,-34.668,-39.551,-136.719
1688494183.720,-36.133,-30.762,-42.480,-60.059,-122.559
1688494183.724,-43.457,-30.273,-38.086,-42.480,-31.250
1688494183.728,-28.320,-24.902,-18.555,-33.691,-126.953
1688494183.732,-21.973,-20.508,-28.320,-48.340,51.270
1688494183.736,-44.434,-35.645,-45.410,-8.789,194.336
1688494183.740,-37.598,-38.086,-42.480,6.348,-20.996
1688494183.743,-29.785,-20.996,-41.016,-13.184,-42.480
1688494183.747,-31.738,-18.555,-35.156,-26.367,183.105
1688494183.751,-35.645,-26.367,-32.715,6.348,84.473
1688494183.755,-47.852,-41.016,-26.855,-21.484,-250.977
1688494183.759,-58.594,-48.828,-38.086,-75.684,-210.449
1688494183.759,-55.664,-41.992,-36.133,-56.641,-149.902
1688494183.763,-44.922,-36.133,-22.949,-43.945,-177.246
1688494183.767,-34.180,-32.227,-41.016,-51.758,-167.480
1688494183.771,-29.297,-26.855,-43.945,-38.086,-104.492
1688494183.775,-43.945,-40.527,-29.785,-60.059,-41.504
1688494183.779,-49.805,-47.363,-33.203,-29.785,-22.949
1688494183.783,-39.062,-36.621,-32.227,-7.324,-20.020
1688494183.786,-28.320,-34.180,-48.828,-20.996,120.117
1688494183.790,-30.762,-36.133,-49.316,14.648,359.863
1688494183.794,-53.711,-37.109,-33.203,-18.066,40.039
1688494183.798,-37.109,-22.949,-27.344,-39.062,-258.301
1688494183.802,-30.273,-18.555,-15.625,-17.578,43.457
1688494183.805,-41.992,-21.484,-30.273,-24.414,104.492
1688494183.809,-34.180,-27.344,-34.180,-30.273,-138.672
1688494183.813,-32.715,-31.738,-28.809,-21.973,-152.832
1688494183.817,-36.621,-28.320,-51.758,-3.418,-120.605
1688494183.821,-31.250,-30.762,-62.012,-36.133,-96.680
1688494183.825,-29.785,-32.715,-46.387,-61.523,-58.594
1688494183.829,-33.691,-38.086,-39.062,-26.367,0.488
1688494183.832,-22.949,-37.598,-17.578,13.184,139.160
1688494183.836,-33.203,-33.203,-29.785,-30.762,-11.719
1688494183.840,-47.852,-31.738,-46.875,-71.289,-174.316
1688494183.844,-44.434,-29.297,-36.621,-46.875,-115.234
1688494183.848,-24.414,-24.902,-41.016,-27.344,227.539
1688494183.849,-19.531,-22.949,-41.504,-36.621,133.301
1688494183.853,-27.344,-28.809,-44.434,-28.809,-231.934
1688494183.857,-11.230,-34.668,-44.434,-4.395,-131.836
1688494183.861,-9.277,-36.133,-46.387,-5.859,-83.008
1688494183.865,-15.625,-23.438,-44.434,-16.602,-108.887
1688494183.869,-12.695,-21.484,-41.992,-18.555,-114.258
1688494183.873,-29.297,-40.039,-44.922,-24.902,98.145
1688494183.876,-43.945,-43.457,-38.574,-35.156,166.992
1688494183.880,-36.621,-33.203,-51.758,-43.945,-78.613
1688494183.884,-31.250,-19.531,-64.941,-52.246,-140.625
1688494183.888,-30.762,-21.973,-27.344,-7.324,58.105
1688494183.892,-13.672,-27.344,-5.859,23.926,355.957
1688494183.894,-20.996,-29.785,-6.836,-6.348,29.785
1688494183.898,-39.062,-41.016,-29.297,-46.387,-223.145
1688494183.902,-35.645,-47.363,-38.086,-43.457,-139.160
1688494183.906,-38.086,-44.922,-27.832,-47.363,-191.406
1688494183.910,-39.062,-37.598,-39.551,-70.312,-223.145
1688494183.914,-32.227,-28.809,-38.574,-29.297,-148.438
1688494183.918,-26.367,-34.180,-46.387,0.000,141.602
1688494183.921,-22.949,-45.410,-53.711,-32.715,107.910
1688494183.925,-12.695,-35.645,-29.297,-19.531,-191.406
1688494183.929,-31.738,-34.180,-22.461,2.930,-159.668
1688494183.933,-53.711,-39.062,-41.016,-31.738,-57.617
1688494183.937,-50.293,-30.273,-36.621,-52.246,-75.684
1688494183.941,-40.039,-23.926,-19.043,-23.438,-114.746
1688494183.945,-33.691,-24.414,-4.883,-17.578,-25.879
1688494183.949,-43.457,-29.297,-26.367,-41.016,9.277
1688494183.953,-56.152,-35.645,-58.105,-50.781,-174.316
1688494183.957,-51.270,-34.180,-55.176,-33.691,-235.840
1688494183.961,-33.691,-30.762,-41.504,-27.344,56.641
1688494183.965,-37.109,-33.203,-33.203,-44.434,188.477
1688494183.968,-41.016,-29.297,-36.621,-42.480,-131.836
1688494183.972,-33.203,-26.367,-37.109,-40.039,-273.926
1688494183.976,-38.086,-35.156,-46.875,-47.852,-80.078
1688494183.980,-37.598,-34.668,-53.711,-42.969,152.344
1688494183.984,-31.738,-30.762,-45.898,-41.992,-21.973
1688494183.999,-31.738,-25.879,-29.297,-26.855,-222.168
1688494184.003,-47.363,-26.855,-29.785,-42.969,42.969
1688494184.007,-48.828,-26.855,-27.344,-54.199,205.566
1688494184.011,-30.273,-27.344,-32.715,-31.738,-51.758
1688494184.015,-54.199,-43.457,-41.992,-52.734,-171.875
1688494184.019,-83.008,-50.293,-22.949,-55.176,202.148
1688494184.023,-58.105,-41.504,-21.484,-61.523,368.164
1688494184.026,-44.922,-33.691,-35.156,-68.848,-58.105
1688494184.030,-50.293,-31.250,-30.273,-34.180,-136.719
1688494184.034,-39.551,-27.344,-24.902,-35.645,-27.832
1688494184.038,-37.598,-25.879,-33.203,-23.926,-102.539
1688494184.042,-19.043,-18.555,-33.691,-5.859,-188.477
1688494184.045,-18.066,-19.531,-41.016,-14.160,-92.285
1688494184.049,-45.410,-37.109,-42.969,-28.809,-40.527
1688494184.053,-44.922,-43.945,-33.691,-55.664,-120.117
1688494184.057,-38.086,-34.180,-29.785,-39.551,-186.035
1688494184.061,-37.598,-27.832,-21.484,-20.996,-36.621
1688494184.065,-43.945,-33.203,-26.367,-36.621,120.117
1688494184.069,-41.992,-41.504,-29.785,-25.391,51.270
1688494184.072,-29.785,-26.367,-30.762,-27.344,-112.793
1688494184.076,-36.133,-19.531,-31.250,-48.340,-46.387
1688494184.080,-42.480,-20.996,-23.438,-30.273,188.965
1688494184.084,-36.621,-21.484,-28.809,-41.504,87.402
1688494184.088,-21.973,-17.090,-27.832,-40.527,-61.035
1688494184.090,-15.137,-17.090,-25.391,-28.320,60.059
1688494184.094,-24.902,-31.738,-32.227,-32.715,77.637
1688494184.098,-33.203,-32.227,-41.504,-36.621,-175.781
1688494184.102,-33.691,-30.762,-42.480,-27.832,-181.152
1688494184.106,-25.879,-33.691,-34.180,-13.672,-70.801
1688494184.110,-28.320,-35.156,-28.809,-26.367,61.523
1688494184.114,-33.691,-29.297,-19.531,-23.926,32.715
1688494184.117,-40.039,-31.250,-21.973,-29.785,-117.188
1688494184.121,-46.875,-36.621,-26.855,-27.344,163.574
1688494184.125,-40.527,-24.902,-18.066,-22.461,247.559
1688494184.129,-33.203,-21.973,-23.438,-19.531,-166.504
1688494184.133,-28.809,-22.949,-31.250,-14.160,-255.371
1688494184.134,-36.133,-21.973,-25.879,-25.879,-215.820
1688494184.138,-46.387,-28.320,-38.086,-39.062,-213.379
1688494184.142,-27.832,-29.297,-44.922,-40.039,-187.012
1688494184.146,-33.203,-37.598,-30.762,-22.949,-125.000
1688494184.150,-43.945,-45.410,-37.598,-17.578,-83.008
1688494184.154,-33.691,-31.250,-36.133,-38.574,-95.215
1688494184.158,-34.180,-16.113,-25.879,-37.109,-45.410
1688494184.161,-36.133,-34.668,-35.645,-11.719,178.223
1688494184.165,-28.320,-39.551,-34.180,-3.418,254.395
1688494184.169,-22.949,-15.137,-12.207,-20.508,16.113
1688494184.173,-26.855,-17.090,-24.902,-29.297,-64.941
1688494184.177,-28.809,-26.367,-44.434,-14.160,133.789
1688494184.179,-20.996,-29.785,-44.922,-9.277,184.082
1688494184.183,-9.766,-29.785,-35.156,-9.277,-99.121
1688494184.187,-13.672,-22.949,-17.578,-21.484,-166.016
1688494184.191,-36.621,-24.414,-21.484,-33.203,-162.598
1688494184.195,-33.691,-21.484,-19.531,-31.250,-161.133
1688494184.199,-43.457,-26.367,-28.320,-45.898,-76.660
1688494184.203,-50.293,-38.574,-38.574,-58.105,-86.914
1688494184.206,-44.434,-39.062,-35.156,-41.992,115.723
1688494184.210,-41.992,-32.715,-34.668,-20.508,120.117
1688494184.214,-26.367,-29.785,-19.531,-25.879,-211.914
1688494184.218,-21.973,-39.551,-16.602,-27.832,-124.023
1688494184.222,-27.832,-45.410,-27.832,-28.320,-47.363
1688494184.224,-33.203,-42.480,-29.297,-29.297,-137.695
1688494184.228,-29.785,-30.273,-25.879,-19.531,-207.031
1688494184.232,-25.391,-26.367,-33.203,-22.949,-121.094
1688494184.236,-33.691,-31.738,-37.598,-40.039,-15.137
1688494184.240,-31.738,-26.367,-31.250,-41.504,-81.055
1688494184.244,-43.457,-33.691,-29.785,-47.363,-41.504
1688494184.248,-57.617,-34.180,-26.367,-41.992,217.285
1688494184.251,-52.246,-31.250,-21.484,-22.949,279.785
1688494184.255,-22.949,-17.578,-15.137,-8.789,-80.566
1688494184.259,-13.184,-17.578,-24.902,-18.066,-193.359
1688494184.263,-43.945,-45.410,-38.086,-65.918,-41.016
1688494184.267,-49.805,-41.504,-34.180,-66.406,-53.223
1688494184.270,-32.715,-18.066,-41.504,-15.137,-172.363
1688494184.274,-24.414,-17.578,-51.758,-10.254,-224.121
1688494184.278,-28.809,-31.250,-38.086,-20.508,112.305
1688494184.282,-32.715,-25.879,-23.438,-31.250,281.250
1688494184.286,-26.367,-20.020,-20.020,-42.969,-94.727
1688494184.290,-25.879,-26.367,-27.344,-30.273,-90.820
1688494184.294,-42.480,-38.574,-29.297,-33.691,248.535
1688494184.297,-50.293,-41.992,-37.109,-56.152,185.059
1688494184.301,-34.668,-27.832,-31.738,-33.691,-112.305
1688494184.305,-31.250,-21.484,-19.043,-20.020,-80.078
1688494184.309,-27.344,-21.973,-29.785,-22.461,33.203
1688494184.313,-26.367,-27.344,-51.270,-16.113,-54.199
1688494184.314,-35.156,-43.457,-56.641,-25.391,-111.816
1688494184.318,-45.410,-39.551,-27.832,-43.457,7.324
1688494184.322,-51.758,-41.016,-31.738,-52.734,-8.301
1688494184.326,-37.109,-42.480,-42.480,-44.434,-87.891
1688494184.330,-48.828,-31.250,-31.738,-37.109,-152.344
1688494184.334,-52.246,-36.621,-21.973,-43.457,113.770
1688494184.338,-40.039,-36.621,-33.691,-50.293,321.289
1688494184.341,-39.062,-33.203,-31.738,-44.922,59.082
1688494184.345,-30.273,-32.715,-33.203,-30.762,-176.270
1688494184.349,-26.855,-35.645,-38.086,-35.156,-33.203
1688494184.353,-12.695,-28.320,-41.992,-26.855,199.219
1688494184.357,-15.625,-17.090,-41.016,-22.461,-3.418
1688494184.375,-38.574,-23.438,-22.461,-23.926,-137.207
1688494184.379,-39.062,-25.391,-18.066,-20.508,46.387
1688494184.383,-28.809,-20.020,-24.414,-23.926,67.871
1688494184.387,-22.949,-27.832,-29.785,-32.715,-162.598
1688494184.391,-32.715,-38.086,-22.949,-25.879,-139.648
1688494184.395,-32.715,-40.527,-17.578,-23.438,-51.270
1688494184.399,-27.344,-34.668,-27.344,-25.391,-25.391
1688494184.402,-38.574,-29.785,-28.320,-24.414,-49.805
1688494184.406,-34.180,-23.926,-28.320,-34.180,-113.770
1688494184.410,-24.902,-21.973,-50.293,-18.066,175.781
1688494184.414,-50.781,-44.434,-45.410,-30.762,182.129
1688494184.418,-48.828,-40.527,-36.621,-48.340,-174.316
1688494184.419,-20.508,-5.371,-23.926,-18.066,-118.652
1688494184.423,-32.227,-6.836,-24.902,-20.508,-64.453
1688494184.427,-57.129,-36.133,-46.875,-55.664,-110.352
1688494184.431,-58.105,-31.738,-37.109,-77.148,-223.633
1688494184.435,-46.387,-32.715,-36.133,-51.270,-143.555
1688494184.439,-51.758,-42.969,-34.180,-43.945,6.836
1688494184.443,-44.434,-24.902,-18.555,-30.762,10.254
1688494184.446,-31.738,-22.949,-20.020,-18.555,-35.156
1688494184.450,-40.527,-38.574,-37.109,-32.227,42.480
1688494184.454,-49.805,-36.133,-43.945,-34.180,227.539
1688494184.458,-52.734,-33.203,-46.387,-42.480,22.461
1688494184.462,-42.480,-30.273,-35.156,-40.527,-120.117
1688494184.464,-30.762,-22.461,-28.809,-24.414,143.555
1688494184.468,-31.738,-22.461,-33.691,-20.508,242.676
1688494184.472,-18.555,-18.066,-19.043,-21.484,-111.328
1688494184.476,-17.090,-21.484,-10.254,-25.391,-194.336
1688494184.480,-41.992,-39.551,-29.785,-42.480,-80.566
1688494184.484,-44.922,-42.480,-29.297,-52.246,57.617
1688494184.488,-31.738,-35.156,-30.273,-50.781,14.648
1688494184.491,-13.672,-26.367,-26.367,-48.340,-140.625
1688494184.495,-34.180,-26.855,-27.832,-38.086,-73.730
1688494184.499,-51.758,-37.109,-36.621,-29.297,-75.195
1688494184.503,-37.109,-40.039,-18.066,-32.227,-186.035
1688494184.507,-31.250,-33.203,-21.484,-17.578,-138.672
1688494184.510,-41.992,-35.156,-44.434,-21.973,259.277
1688494184.514,-36.133,-33.203,-28.809,-21.973,143.066
1688494184.518,-22.949,-26.367,-15.625,-16.602,-242.676
1688494184.522,-28.320,-25.879,-22.949,-32.227,-101.562
1688494184.526,-46.875,-37.109,-33.203,-47.363,-15.137
1688494184.530,-52.734,-39.551,-27.344,-55.176,-106.934
1688494184.534,-40.527,-29.785,-29.297,-43.945,-136.719
1688494184.537,-49.805,-38.086,-30.762,-38.574,64.453
1688494184.541,-42.969,-35.645,-27.344,-39.062,235.352
1688494184.545,-24.902,-30.273,-33.203,-35.156,-27.344
1688494184.549,-26.855,-34.668,-43.457,-31.738,-139.160
1688494184.553,-27.344,-38.574,-37.109,-41.504,71.777
1688494184.554,-37.598,-36.133,-19.531,-44.922,34.180
1688494184.558,-46.387,-25.391,-31.738,-30.762,-248.535
1688494184.562,-23.926,-29.785,-33.691,-31.250,-177.734
1688494184.566,-16.602,-30.273,-34.668,-43.457,-57.129
1688494184.570,-27.344,-26.855,-37.598,-38.086,-88.379
1688494184.574,-26.855,-28.809,-36.133,-33.691,-101.562
1688494184.578,-30.762,-26.367,-30.273,-33.691,-21.484
1688494184.581,-21.484,-26.367,-24.902,-12.695,249.512
1688494184.585,-28.320,-30.273,-26.855,-28.809,110.352
1688494184.589,-32.715,-25.879,-29.297,-41.992,-260.254
1688494184.593,-30.762,-26.855,-38.574,-40.039,-168.945
1688494184.597,-32.227,-22.461,-37.109,-42.480,10.742
1688494184.599,-21.484,-26.855,-32.715,-37.109,-40.039
1688494184.603,-15.625,-22.949,-17.090,-29.785,-146.484
1688494184.607,-37.109,-21.973,-21.484,-27.832,-66.895
1688494184.611,-57.617,-33.691,-44.434,-28.809,116.211
1688494184.615,-51.758,-36.133,-35.156,-33.691,-9.766
1688494184.619,-39.551,-40.527,-26.367,-51.758,-95.215
1688494184.623,-44.434,-42.480,-34.668,-48.828,109.375
1688494184.626,-60.547,-42.480,-40.527,-41.016,340.820
1688494184.630,-47.852,-35.645,-32.715,-38.086,57.617
1688494184.634,-35.645,-25.879,-21.484,-24.414,-300.293
1688494184.638,-37.598,-24.414,-35.156,-32.227,41.992
1688494184.642,-45.410,-32.715,-45.898,-50.781,402.832
1688494184.645,-44.434,-29.785,-25.391,-55.664,12.695
1688494184.649,-31.250,-24.902,-22.949,-40.527,-273.438
1688494184.653,-34.668,-20.020,-35.156,-34.180,-210.449
1688494184.657,-35.156,-17.090,-29.297,-34.180,-160.645
1688494184.661,-23.438,-19.531,-12.207,-24.902,-131.836
1688494184.665,-24.902,-19.531,-21.484,-18.066,-68.359
1688494184.669,-37.598,-26.855,-43.945,-30.273,213.867
1688494184.672,-39.551,-26.855,-39.062,-42.480,143.555
1688494184.676,-30.762,-25.391,-33.691,-35.156,-168.945
1688494184.680,-25.391,-28.320,-23.438,-32.715,-152.344
1688494184.684,-20.020,-20.996,-13.672,-31.250,-98.633
1688494184.688,-20.996,-22.461,-27.832,-42.969,-166.016
1688494184.689,-27.344,-36.621,-29.785,-51.270,-204.590
1688494184.693,-25.879,-33.203,-20.020,-34.668,-103.516
1688494184.697,-27.832,-22.949,-20.508,-35.156,-97.656
1688494184.701,-36.621,-21.973,-34.180,-42.969,-125.000
1688494184.705,-32.227,-23.438,-43.945,-20.020,-150.391
1688494184.709,-40.039,-36.133,-42.480,-23.926,24.414
1688494184.713,-49.316,-43.457,-33.691,-52.734,178.711
1688494184.716,-43.457,-39.062,-20.020,-59.570,-40.039
1688494184.720,-43.457,-34.668,-31.738,-59.082,-172.852
1688494184.724,-37.598,-32.227,-32.715,-41.992,6.836
1688494184.728,-35.156,-34.668,-17.090,-34.668,123.535
1688494184.732,-28.809,-25.391,-11.230,-30.273,30.273
1688494184.750,-17.578,-30.762,-21.484,-42.480,-21.973
1688494184.754,-20.020,-40.039,-36.621,-56.152,80.078
1688494184.758,-21.484,-19.531,-25.879,-27.832,203.613
1688494184.762,-39.062,-25.879,-40.039,-48.340,-115.723
1688494184.766,-46.875,-42.969,-52.246,-58.105,-195.312
1688494184.770,-41.016,-40.039,-36.133,-42.969,12.695
1688494184.774,-41.504,-37.109,-34.668,-49.805,24.414
1688494184.777,-35.645,-36.133,-42.480,-45.898,-141.602
1688494184.781,-33.203,-38.574,-40.039,-49.805,-150.879
1688494184.785,-37.109,-34.180,-33.203,-52.734,87.891
1688494184.789,-25.879,-21.973,-40.039,-25.879,53.223
1688494184.793,-10.742,-13.672,-31.250,-10.742,-176.270
1688494184.794,-10.254,-26.855,-18.066,-33.691,-92.285
1688494184.798,-25.391,-44.922,-20.996,-51.270,-8.789
1688494184.802,-33.691,-41.992,-24.414,-41.992,-101.562
1688494184.806,-25.391,-20.508,-25.879,-22.949,-197.266
1688494184.810,-29.785,-12.695,-26.855,-28.809,-35.156
1688494184.814,-42.480,-40.527,-27.832,-69.824,103.027
1688494184.818,-30.762,-47.852,-29.785,-63.477,-20.508
1688494184.821,-22.461,-44.434,-34.668,-36.621,-86.426
1688494184.825,-40.039,-34.668,-36.621,-50.293,77.148
1688494184.829,-52.246,-22.949,-38.574,-65.918,216.309
1688494184.833,-43.945,-30.273,-49.316,-70.801,15.137
1688494184.837,-27.832,-16.602,-49.805,-57.129,-135.742
1688494184.840,-33.691,-11.230,-44.922,-59.082,-8.789
1688494184.844,-61.523,-34.180,-44.434,-79.102,133.789
1688494184.848,-40.527,-13.184,-33.203,-77.637,-144.531
1688494184.852,-21.973,3.418,-39.551,-59.082,-117.188
1688494184.856,-27.832,-8.301,-43.457,-58.594,62.500
1688494184.860,-43.457,-21.973,-47.363,-85.938,29.785
1688494184.864,-67.383,-49.805,-62.500,-96.191,-65.918
1688494184.867,-47.852,-38.086,-47.363,-76.660,-165.527
1688494184.871,-53.223,-25.879,-46.387,-75.195,129.395
1688494184.875,-79.590,-38.574,-58.105,-103.516,141.113
1688494184.879,-59.082,-31.250,-50.293,-97.656,-223.145
1688494184.883,-36.133,-29.297,-40.527,-74.219,-191.406
1688494184.884,-35.156,-25.879,-33.203,-62.988,-104.004
1688494184.888,-14.160,-10.254,-15.625,-35.645,-157.715
1688494184.892,0.488,-4.883,-15.625,-10.254,-178.223
1688494184.896,-20.508,-17.578,-47.363,-22.461,-87.402
1688494184.900,-44.434,-31.738,-55.664,-49.316,-22.949
1688494184.904,-40.527,-19.043,-31.250,-55.664,-0.977
1688494184.908,-20.508,-6.836,-13.184,-40.039,-29.785
1688494184.911,-38.574,-34.180,-35.156,-41.992,104.492
1688494184.915,-55.176,-52.246,-46.875,-67.871,174.805
1688494184.919,-43.945,-39.551,-37.598,-60.547,-118.652
1688494184.923,-33.691,-31.738,-41.992,-48.828,-85.938
1688494184.927,-31.250,-25.391,-40.527,-51.758,91.797
1688494184.930,-38.086,-26.367,-37.109,-44.922,-7.812
1688494184.934,-35.156,-23.926,-33.203,-42.480,-139.648
1688494184.938,-19.531,-9.766,-21.973,-30.273,-141.113
1688494184.942,-10.254,-15.137,-28.809,-20.020,135.254
1688494184.946,-14.160,-23.438,-21.484,-20.508,401.855
1688494184.950,-44.434,-37.598,-36.621,-58.105,136.719
1688494184.954,-59.082,-41.016,-51.758,-76.660,-131.348
1688494184.957,-29.785,-16.113,-19.531,-41.016,104.980
1688494184.961,-8.789,-12.207,-13.184,-24.902,213.379
1688494184.965,-42.480,-32.227,-33.203,-51.758,-160.645
1688494184.969,-62.988,-38.086,-51.758,-70.801,-233.398
1688494184.973,-45.898,-42.969,-45.898,-63.477,-102.539
1688494184.975,-49.805,-45.898,-35.156,-49.316,-121.094
1688494184.979,-47.363,-35.156,-34.180,-44.434,-187.012
1688494184.983,-36.621,-33.203,-40.039,-37.598,-121.094
1688494184.987,-20.508,-27.344,-26.367,-28.809,-81.543
1688494184.991,-25.391,-27.344,-13.672,-46.387,-147.461
1688494184.995,-25.879,-36.133,-22.461,-41.016,-160.156
1688494184.999,-20.996,-40.039,-30.273,-37.598,49.805
1688494185.002,-36.133,-25.391,-19.043,-49.805,290.039
1688494185.006,-28.320,-7.812,-6.836,-42.480,17.090
1688494185.010,-39.551,-24.902,-43.457,-49.805,-165.527
1688494185.014,-41.992,-35.645,-61.035,-49.805,-50.293
1688494185.018,-22.949,-27.832,-51.758,-44.922,-17.090
1688494185.020,-13.184,-22.461,-53.711,-34.668,-82.031
1688494185.024,-6.836,-15.625,-48.828,-28.809,-132.812
1688494185.028,-9.277,-7.812,-44.922,-23.926,-19.043
1688494185.032,-11.230,-4.883,-53.223,-25.879,18.555
1688494185.036,1.953,-5.859,-46.875,-20.020,-104.492
1688494185.040,3.906,-8.301,-33.203,-18.066,-67.871
1688494185.044,-23.438,-28.809,-40.527,-42.480,324.707
1688494185.047,-43.457,-39.551,-42.969,-54.688,315.918
1688494185.051,-27.344,-25.391,-39.551,-40.039,-112.305
1688494185.055,0.000,-18.066,-41.016,-21.973,-145.996
1688494185.059,5.371,-14.160,-40.039,-27.344,-106.445
1688494185.063,-8.789,-20.020,-41.016,-18.066,-92.285
1688494185.065,-21.484,-33.691,-40.527,-28.809,-171.387
1688494185.069,-19.531,-27.344,-28.809,-47.363,-102.539
1688494185.073,-34.668,-25.879,-23.438,-62.988,41.992
1688494185.077,-53.711,-41.016,-39.551,-78.125,-127.441
1688494185.081,-38.574,-41.992,-39.062,-62.988,-222.168
1688494185.085,-41.016,-27.832,-28.320,-56.641,-42.969
1688494185.089,-38.086,-18.555,-24.414,-43.457,131.836
1688494185.092,-21.973,-33.691,-24.414,-31.250,-0.977
1688494185.096,-25.879,-41.992,-31.250,-37.109,-162.598
1688494185.100,-19.043,-31.250,-23.438,-35.156,68.848
1688494185.104,-9.277,-26.855,-24.902,-40.527,254.395
1688494185.108,-20.996,-21.484,-35.645,-34.180,-26.855
1688494185.125,-26.367,-18.066,-15.137,-14.648,-160.156
1688494185.129,-5.371,-12.695,-0.488,-4.395,36.621
1688494185.133,-11.719,-22.461,-18.066,-7.324,101.562
1688494185.137,-20.508,-33.691,-33.691,-23.926,-55.176
1688494185.141,-18.066,-32.715,-41.016,-44.434,-146.484
1688494185.145,-27.832,-43.945,-51.758,-51.758,149.902
1688494185.149,-20.996,-40.527,-48.340,-37.598,332.520
1688494185.152,-14.160,-22.461,-32.227,-27.344,-77.148
1688494185.156,-15.625,-20.996,-19.043,-34.180,-184.570
1688494185.160,-22.949,-25.879,-18.555,-44.434,14.160
1688494185.164,-29.297,-32.227,-24.902,-37.598,-46.875
1688494185.168,-39.062,-50.781,-35.645,-38.574,-231.445
1688494185.169,-49.805,-64.941,-40.039,-58.105,-138.184
1688494185.173,-61.035,-54.688,-37.598,-74.219,-92.773
1688494185.177,-69.824,-44.434,-29.785,-73.242,-187.012
1688494185.181,-41.016,-21.484,-12.695,-53.223,-204.590
1688494185.185,-35.645,-14.648,-18.066,-55.664,-73.730
1688494185.189,-53.223,-32.715,-40.039,-70.801,70.801
1688494185.193,-45.410,-34.180,-44.922,-63.477,30.762
1688494185.196,-45.898,-38.574,-44.434,-62.012,-97.168
1688494185.200,-38.574,-36.133,-33.203,-59.082,-13.184
1688494185.204,-29.785,-20.996,-23.926,-35.645,302.734
1688494185.208,-26.367,-16.602,-29.785,-31.250,126.953
1688494185.212,-19.043,-26.855,-30.273,-34.180,-62.500
1688494185.215,-22.949,-30.273,-27.344,-34.668,14.160
1688494185.219,-28.320,-30.762,-34.668,-49.805,-109.375
1688494185.223,-32.227,-37.109,-33.203,-61.035,-228.516
1688494185.227,-35.645,-37.109,-23.926,-54.199,-178.223
1688494185.231,-39.062,-39.062,-19.043,-51.270,57.617
1688494185.235,-33.691,-43.457,-29.297,-61.523,137.207
1688494185.239,-31.250,-39.062,-24.902,-44.922,-51.270
1688494185.242,-30.273,-38.086,-21.973,-42.480,-182.617
1688494185.246,-39.062,-33.691,-20.508,-62.988,161.621
1688494185.250,-53.223,-23.438,-28.809,-76.172,271.973
1688494185.254,-54.199,-26.367,-40.039,-74.219,-177.734
