timestamps,TP9,AF7,AF8,TP10,Right AUX
1688305034.761,15.137,-32.715,-30.762,17.090,-5.371
1688305034.765,-0.488,-15.137,-20.020,-12.695,-197.266
1688305034.769,-0.488,-12.695,-12.207,-3.418,-308.105
1688305034.773,11.230,-15.625,-15.625,33.691,-166.992
1688305034.777,-11.230,-20.020,-19.531,58.105,38.086
1688305034.781,14.160,-23.926,-12.695,35.156,166.992
1688305034.785,20.020,-34.180,-8.301,-8.789,331.543
1688305034.788,6.348,-38.086,-10.254,-13.184,-50.781
1688305034.792,4.883,-46.387,-12.207,17.578,-228.027
1688305034.796,-20.996,-41.504,-17.578,38.574,69.824
1688305034.800,-4.395,-30.273,-22.461,9.766,132.324
1688305034.804,3.418,-25.391,-26.855,-33.691,-160.645
1688305034.821,-20.996,-28.320,-34.668,-41.992,-435.059
1688305034.825,-12.695,-31.250,-28.809,-3.418,-242.188
1688305034.829,-16.113,-30.273,-23.438,50.293,97.168
1688305034.833,-9.766,-33.691,-27.832,38.574,56.152
1688305034.837,0.000,-41.504,-32.715,-16.602,-147.949
1688305034.841,-12.207,-35.645,-39.551,-22.949,-151.855
1688305034.845,8.301,-45.410,-40.527,9.277,-47.363
1688305034.848,-1.465,-64.453,-36.133,41.016,60.059
1688305034.852,-15.137,-49.805,-32.715,22.461,135.742
1688305034.856,-7.324,-36.133,-31.738,-38.086,177.734
1688305034.860,-26.855,-32.227,-37.598,-56.641,-91.309
1688305034.864,-8.301,-35.645,-27.832,-13.672,-261.719
1688305034.866,-4.395,-32.715,-17.578,28.809,-9.277
1688305034.870,-8.301,-21.484,-24.902,26.855,446.777
1688305034.874,5.859,-18.555,-29.785,-29.785,235.840
1688305034.878,-4.883,-22.949,-28.809,-60.547,-336.426
1688305034.882,11.719,-30.762,-30.762,-29.297,-278.809
1688305034.886,11.719,-39.062,-31.738,14.648,59.570
1688305034.890,0.977,-57.129,-23.926,34.180,234.375
1688305034.893,1.465,-67.383,-16.602,-0.488,-51.758
1688305034.897,-12.207,-58.594,-11.230,-20.020,-188.477
1688305034.901,-2.930,-38.086,-13.672,6.348,99.609
1688305034.905,-15.625,-37.109,-23.438,27.344,27.344
1688305034.909,-26.367,-34.180,-22.949,41.504,-26.367
1688305034.911,2.930,-27.832,-18.555,7.324,-63.965
1688305034.915,-17.090,-31.250,-22.461,-49.805,-321.777
1688305034.919,-20.996,-30.273,-29.297,-33.203,-394.043
1688305034.923,5.371,-37.109,-38.086,21.973,-148.926
1688305034.927,-4.883,-43.945,-44.434,37.598,174.316
1688305034.931,5.859,-48.828,-44.434,-3.418,145.020
1688305034.935,-2.930,-54.688,-45.410,-50.781,-168.457
1688305034.938,-8.789,-58.594,-42.480,-49.805,-289.062
1688305034.942,6.836,-43.457,-34.668,3.906,158.691
1688305034.946,-12.207,-41.016,-34.668,40.039,537.109
1688305034.950,-16.602,-65.918,-49.316,-12.695,190.430
1688305034.954,-9.766,-53.223,-51.270,-62.500,-192.871
1688305034.956,-7.812,-30.762,-44.434,-45.410,-298.828
1688305034.960,-2.930,-32.715,-45.898,-16.602,-252.441
1688305034.964,-20.508,-41.992,-41.992,19.043,-75.195
1688305034.968,-3.906,-41.016,-39.062,4.883,23.438
1688305034.972,6.348,-27.344,-39.062,-32.227,-180.664
1688305034.976,4.883,-39.062,-37.109,-19.043,-291.992
1688305034.980,10.742,-60.059,-41.016,5.371,-123.535
1688305034.983,-18.555,-46.875,-47.852,29.297,242.676
1688305034.987,-20.996,-17.578,-46.875,15.137,382.812
1688305034.991,-27.832,-16.113,-33.691,-36.133,-101.562
1688305034.995,-40.039,-28.320,-29.297,-41.992,-428.711
1688305034.999,-11.230,-39.551,-30.762,-6.836,-242.676
1688305035.002,-15.137,-52.246,-28.809,26.855,56.641
1688305035.006,-14.648,-49.805,-21.484,29.785,125.000
1688305035.010,-5.859,-44.434,-13.184,-16.113,-161.621
1688305035.014,-16.113,-50.293,-9.277,-29.785,-236.816
1688305035.018,9.766,-60.547,-9.766,3.906,-87.402
1688305035.022,7.324,-60.059,-19.043,34.668,80.078
1688305035.026,-13.184,-43.945,-22.949,35.156,248.047
1688305035.029,-4.395,-30.273,-17.578,-1.953,396.973
1688305035.033,-20.996,-34.668,-16.602,-30.273,195.801
1688305035.037,-3.418,-39.551,-13.184,-16.602,-281.738
1688305035.041,2.930,-44.922,-2.930,30.762,-76.660
1688305035.045,-12.207,-62.988,-3.418,40.527,164.062
1688305035.046,2.930,-47.363,-12.207,-18.066,-34.180
1688305035.050,-8.301,-24.902,-6.836,-48.828,-324.707
1688305035.054,-2.930,-34.180,2.930,-15.137,-328.125
1688305035.058,-0.488,-33.203,2.441,17.578,-9.277
1688305035.062,-2.930,-18.555,-5.371,27.344,176.758
1688305035.066,7.812,-32.715,-11.230,-1.953,101.074
1688305035.070,-11.719,-59.082,-13.184,-39.062,-29.297
1688305035.073,-4.395,-48.340,-14.160,-22.949,123.535
1688305035.077,12.207,-31.250,-9.766,25.391,124.023
1688305035.081,-4.395,-22.949,-10.254,51.758,32.715
1688305035.085,9.766,-28.320,-12.695,18.066,64.453
1688305035.089,4.883,-36.133,-12.695,-29.297,-199.219
1688305035.091,-5.371,-31.738,-21.484,-34.180,-366.211
1688305035.095,-3.906,-31.250,-27.832,3.418,-163.574
1688305035.099,-13.672,-40.039,-27.344,37.598,100.586
1688305035.103,4.395,-34.180,-34.668,0.000,84.473
1688305035.107,6.836,-32.227,-40.527,-45.410,-193.848
1688305035.111,-5.859,-42.969,-44.922,-37.598,-311.523
1688305035.115,9.766,-33.691,-41.016,9.766,64.941
1688305035.118,2.441,-29.297,-38.086,46.875,347.168
1688305035.122,9.766,-50.293,-49.316,8.301,129.883
1688305035.126,8.789,-46.387,-47.852,-39.062,-150.879
1688305035.130,-5.859,-27.832,-41.992,-34.668,7.812
1688305035.134,3.906,-36.133,-40.039,2.930,103.027
1688305035.151,-19.531,-29.785,-40.039,39.062,-40.527
1688305035.155,-16.602,-27.344,-44.922,18.555,80.078
1688305035.159,4.395,-37.109,-47.852,-35.156,-77.637
1688305035.163,-6.348,-36.621,-46.875,-42.969,-308.594
1688305035.167,-6.348,-35.156,-47.363,-11.230,-284.180
1688305035.171,-15.137,-44.434,-49.316,18.066,122.070
1688305035.175,-11.230,-56.641,-48.828,6.348,434.082
1688305035.178,-4.883,-51.758,-43.945,-38.574,11.719
1688305035.182,-19.531,-42.969,-41.504,-52.246,-349.121
1688305035.186,-3.906,-43.945,-39.551,-11.230,-76.172
1688305035.190,-3.418,-33.203,-34.668,32.715,236.328
1688305035.194,-15.137,-43.457,-27.344,21.484,132.324
1688305035.197,1.953,-37.109,-17.578,-15.625,-114.258
1688305035.201,-2.930,-32.227,-27.832,-41.992,-285.645
1688305035.205,6.348,-45.410,-33.203,-23.438,-227.051
1688305035.209,17.578,-33.203,-24.414,22.949,-49.316
1688305035.213,7.324,-40.527,-17.578,35.645,71.777
1688305035.217,6.348,-48.340,-13.672,-5.859,62.988
1688305035.221,-13.672,-33.691,-18.555,-46.875,-128.418
1688305035.224,-8.301,-38.086,-27.832,-20.996,-149.414
1688305035.228,3.906,-37.598,-24.902,29.297,-53.711
1688305035.232,-4.395,-32.715,-20.508,44.434,298.828
1688305035.236,-1.953,-39.551,-24.902,4.395,362.793
1688305035.240,-14.160,-33.691,-33.203,-36.621,-225.586
1688305035.241,10.742,-27.344,-31.738,-16.113,-354.004
1688305035.245,17.090,-34.180,-21.484,30.273,-46.387
1688305035.249,-17.090,-45.898,-20.508,41.504,76.172
1688305035.253,-14.160,-49.316,-25.879,-2.441,-84.961
1688305035.257,-24.902,-41.992,-30.762,-55.664,-231.934
1688305035.261,-24.902,-48.828,-32.715,-51.270,-137.695
1688305035.265,-18.555,-57.129,-28.809,5.859,68.359
1688305035.268,-36.133,-52.734,-27.832,24.414,131.348
1688305035.272,-13.672,-44.922,-26.367,-4.883,177.246
1688305035.276,-11.230,-40.527,-21.484,-31.250,128.418
1688305035.280,-13.672,-41.992,-22.949,-35.156,-257.812
1688305035.284,1.465,-38.574,-22.949,5.859,-282.715
1688305035.287,-10.254,-40.527,-20.508,43.457,32.715
1688305035.291,8.301,-48.828,-20.508,24.414,115.234
1688305035.295,2.930,-41.016,-27.344,-21.484,-173.340
1688305035.299,-10.254,-42.480,-29.297,-28.809,-380.371
1688305035.303,8.789,-37.109,-21.484,14.160,-97.656
1688305035.307,-0.977,-35.156,-20.508,51.270,271.484
1688305035.311,-0.977,-42.969,-17.090,31.738,290.527
1688305035.314,-0.977,-50.293,-14.160,-13.184,-54.199
1688305035.318,-24.902,-48.340,-24.414,-28.320,14.160
1688305035.322,-17.578,-30.762,-32.715,0.977,232.422
1688305035.326,-13.184,-15.625,-28.809,33.203,5.859
1688305035.330,-6.348,-22.461,-24.902,20.020,0.488
1688305035.331,-1.953,-26.367,-24.902,-21.484,-102.539
1688305035.335,-23.926,-36.133,-27.344,-38.086,-374.512
1688305035.339,6.836,-44.434,-26.367,-12.207,-369.141
1688305035.343,11.719,-44.922,-27.832,36.133,-55.664
1688305035.347,-0.977,-48.340,-35.645,35.156,192.383
1688305035.351,14.648,-32.227,-30.762,-18.555,-9.277
1688305035.355,-5.371,-35.645,-31.250,-36.621,-277.344
1688305035.358,12.695,-42.480,-30.762,-2.441,-188.965
1688305035.362,10.742,-41.016,-24.902,32.227,268.555
1688305035.366,-4.883,-39.551,-24.902,20.996,228.027
1688305035.370,10.742,-41.992,-24.902,-16.602,-157.227
1688305035.374,-16.602,-39.551,-24.902,-40.527,-315.430
1688305035.376,-8.789,-24.414,-17.090,-19.043,-339.355
1688305035.380,7.812,-20.020,-20.996,21.973,-165.527
1688305035.384,-14.160,-31.250,-31.738,30.273,40.039
1688305035.388,-16.602,-34.668,-26.367,-2.441,-66.406
1688305035.392,-24.902,-51.270,-22.461,-36.621,-309.082
1688305035.396,-5.859,-68.848,-15.625,-18.066,-245.117
1688305035.400,7.324,-39.551,-13.184,26.367,-42.480
1688305035.403,-15.137,-21.973,-22.949,44.922,435.547
1688305035.407,4.883,-28.320,-23.438,-6.348,661.621
1688305035.411,-0.488,-34.180,-23.926,-56.152,-68.359
1688305035.415,6.348,-23.438,-18.555,-22.949,-432.129
1688305035.419,30.273,-20.996,-15.137,27.832,-69.336
1688305035.421,-11.230,-35.645,-22.461,41.016,102.051
1688305035.425,-21.973,-41.016,-29.785,-7.812,-35.156
1688305035.429,-20.020,-45.410,-24.414,-47.363,-222.168
1688305035.433,-24.902,-55.664,-23.438,-30.762,-289.551
1688305035.437,-14.160,-58.594,-31.250,0.977,-158.203
1688305035.441,-23.438,-58.105,-27.832,32.715,61.523
1688305035.445,3.906,-65.918,-28.320,15.137,186.523
1688305035.448,1.953,-54.199,-29.297,-21.484,76.172
1688305035.452,-26.367,-37.598,-27.832,-27.344,-290.527
1688305035.456,-3.906,-35.645,-20.996,8.789,-215.332
1688305035.460,-9.277,-35.156,-12.207,55.664,167.969
1688305035.464,-5.371,-32.227,-16.113,28.809,184.082
1688305035.466,6.348,-29.785,-20.996,-29.297,-215.332
1688305035.470,-8.301,-32.715,-24.902,-35.645,-400.879
1688305035.474,10.254,-29.785,-23.926,-5.859,-208.008
1688305035.478,4.395,-19.531,-19.043,31.250,43.945
1688305035.482,12.207,-22.949,-16.113,36.133,70.312
1688305035.486,23.926,-29.297,-13.672,0.000,-53.711
1688305035.490,3.418,-34.180,-23.926,-20.020,5.371
1688305035.493,10.254,-53.711,-36.621,-3.906,58.594
1688305035.497,-4.883,-52.246,-31.738,25.879,6.836
1688305035.501,-5.859,-29.785,-22.461,17.578,76.172
1688305035.505,3.906,-28.320,-31.250,-30.273,-28.320
1688305035.509,-28.809,-36.133,-40.039,-48.828,-282.227
1688305035.512,-28.320,-43.457,-38.574,-22.949,-311.523
1688305035.516,-19.531,-52.734,-27.832,22.949,-57.617
1688305035.520,-17.090,-50.293,-21.973,42.480,438.965
1688305035.524,1.465,-39.551,-32.715,-20.996,226.074
1688305035.528,-16.113,-41.016,-39.551,-67.871,-382.324
1688305035.532,0.488,-44.434,-41.504,-24.414,-196.289
1688305035.536,7.812,-59.082,-44.434,21.973,231.934
1688305035.539,-9.766,-53.711,-38.086,31.738,179.199
1688305035.543,9.277,-35.156,-31.738,-4.395,-106.934
1688305035.547,-3.418,-39.062,-29.785,-33.203,-189.941
1688305035.551,-13.672,-45.898,-34.180,-20.020,-133.789
1688305035.555,-10.254,-75.684,-31.250,24.414,-134.766
1688305035.571,-9.766,-83.008,-21.484,35.645,37.109
1688305035.575,-11.719,-45.898,-35.645,-25.391,106.934
1688305035.579,-24.414,-25.391,-38.086,-60.547,-108.398
1688305035.583,-11.230,-37.598,-31.250,-45.898,-265.137
1688305035.587,8.789,-31.250,-30.762,6.348,-166.992
1688305035.591,-17.578,-25.879,-31.738,46.387,384.766
1688305035.595,-42.480,-30.762,-32.715,-7.812,490.234
1688305035.598,-71.777,-41.992,-32.227,-88.379,-137.207
1688305035.602,-81.055,-38.574,-22.461,-94.727,-249.023
1688305035.606,-72.754,-23.926,-10.254,-52.734,-86.914
1688305035.610,-96.191,-36.621,-18.555,-42.480,55.176
1688305035.614,-112.793,-57.617,-21.484,-85.938,-25.879
1688305035.616,-117.188,-67.383,2.441,-137.207,-202.148
1688305035.620,-141.113,-67.871,10.254,-147.949,-139.648
1688305035.624,-154.785,-60.059,-11.230,-137.207,-65.430
1688305035.628,-158.691,-42.480,-0.977,-107.422,-32.715
1688305035.632,-157.715,-54.688,17.578,-115.234,190.918
1688305035.636,-149.414,-46.875,14.160,-173.828,137.695
1688305035.640,-170.410,-60.059,0.488,-203.613,-206.055
1688305035.643,-164.062,-92.773,-4.395,-175.781,-236.816
1688305035.647,-156.738,-82.520,19.531,-114.746,121.582
1688305035.651,-157.715,-88.867,8.789,-123.047,414.551
1688305035.655,-155.762,-90.332,-10.742,-171.875,-64.941
1688305035.659,-160.645,-68.359,-9.766,-166.992,-324.219
1688305035.662,-122.070,-69.336,1.465,-111.816,-191.895
1688305035.666,-121.094,-99.609,-2.441,-45.898,19.043
1688305035.670,-120.117,-81.055,-2.930,-41.016,77.148
1688305035.674,-97.168,-52.734,13.672,-86.914,-90.332
1688305035.678,-101.562,-70.312,-9.277,-84.961,-223.145
1688305035.682,-71.289,-69.824,-20.020,-44.434,-162.598
1688305035.686,-81.543,-65.430,-8.301,-18.555,48.828
1688305035.689,-79.102,-84.473,-9.766,-7.812,131.348
1688305035.693,-36.133,-69.824,-9.766,-32.715,251.953
1688305035.697,-44.922,-54.199,-27.344,-71.777,290.527
1688305035.701,-32.227,-48.340,-36.133,-50.293,-110.352
1688305035.705,-24.902,-38.086,-25.391,1.465,-161.133
1688305035.706,-32.227,-26.855,-20.508,15.625,115.234
1688305035.710,-17.578,-33.691,-24.902,-23.926,-90.332
1688305035.714,-24.902,-47.852,-30.762,-57.129,-390.625
1688305035.718,-6.836,-42.969,-35.645,-26.367,-355.957
1688305035.722,-0.488,-30.273,-29.785,19.531,-131.836
1688305035.726,-10.254,-33.691,-29.297,21.484,94.238
1688305035.730,9.766,-41.016,-35.645,-9.766,47.363
1688305035.733,7.812,-34.668,-33.691,-28.320,-102.051
1688305035.737,12.207,-37.109,-40.039,-3.906,22.949
1688305035.741,20.996,-40.039,-46.875,35.645,41.992
1688305035.745,11.719,-36.621,-43.945,66.406,67.383
1688305035.749,23.438,-41.992,-51.270,42.969,122.070
1688305035.752,26.855,-47.852,-51.758,-11.230,-110.840
1688305035.756,35.645,-48.340,-35.645,-16.602,-383.789
1688305035.760,39.062,-43.945,-37.598,25.391,-223.633
1688305035.764,22.949,-33.691,-40.039,67.871,86.426
1688305035.768,30.273,-19.531,-28.809,43.457,171.875
1688305035.772,21.973,-27.344,-32.227,-11.719,-54.199
1688305035.776,25.391,-42.480,-39.062,-17.578,-317.383
1688305035.779,30.273,-39.551,-36.621,27.344,88.379
1688305035.783,9.277,-36.621,-41.992,63.965,559.570
1688305035.787,19.531,-29.297,-40.039,39.062,160.156
1688305035.791,14.160,-31.738,-29.297,-9.277,-247.070
1688305035.795,-11.719,-43.945,-32.227,-19.043,-265.625
1688305035.797,18.555,-31.250,-33.203,14.160,-105.469
1688305035.801,24.902,-26.855,-22.461,73.730,64.453
1688305035.805,11.230,-42.480,-27.832,80.078,180.664
1688305035.809,24.902,-34.180,-37.598,20.020,69.336
1688305035.813,9.277,-26.367,-37.109,-1.465,-238.281
1688305035.817,-3.418,-38.086,-35.645,22.461,-207.520
1688305035.821,2.441,-41.504,-30.762,49.316,159.668
1688305035.824,18.066,-38.086,-31.738,34.180,533.691
1688305035.828,17.090,-34.668,-33.691,-15.625,122.070
1688305035.832,-5.859,-28.809,-32.227,-44.922,-417.480
1688305035.836,8.789,-25.391,-23.438,-14.648,-274.414
1688305035.840,0.977,-32.227,-18.555,32.715,41.016
1688305035.842,-4.395,-38.574,-20.508,36.621,142.578
1688305035.846,20.020,-29.297,-17.578,1.953,-74.219
1688305035.850,6.348,-36.133,-21.973,-19.043,-156.250
1688305035.854,-7.812,-49.316,-30.273,-10.742,-189.453
1688305035.858,-10.254,-46.875,-32.227,11.719,-44.922
1688305035.862,-12.695,-46.387,-32.715,24.414,213.867
1688305035.866,-14.160,-47.363,-31.250,-15.137,311.035
1688305035.869,-24.902,-37.598,-24.902,-47.363,152.344
1688305035.873,-16.602,-23.926,-24.902,-21.973,-245.605
1688305035.877,-6.348,-26.367,-27.832,25.391,-125.977
1688305035.881,-20.508,-57.129,-25.879,34.180,260.254
1688305035.885,-5.371,-70.312,-22.461,-2.441,99.121
1688305035.886,-0.977,-43.945,-30.273,-38.574,-308.105
1688305035.890,-7.812,-25.391,-32.715,-22.461,-313.965
1688305035.894,-11.719,-27.832,-24.902,20.996,-74.219
1688305035.898,-5.859,-19.531,-12.207,46.875,98.633
1688305035.902,25.879,-23.438,-9.766,19.043,33.691
1688305035.906,-6.348,-51.758,-31.250,-40.527,-15.625
1688305035.910,-15.625,-41.016,-36.133,-35.645,51.270
1688305035.913,20.508,-25.391,-32.227,17.578,15.625
1688305035.917,5.371,-30.762,-26.855,49.805,42.969
1688305035.921,4.883,-41.504,-27.344,23.438,190.430
1688305035.925,0.000,-47.363,-30.762,-26.367,69.336
1688305035.929,-6.836,-33.691,-23.438,-18.555,-302.246
1688305035.947,10.742,-32.227,-17.090,31.250,-213.867
1688305035.951,0.000,-27.832,-19.531,65.918,122.070
1688305035.955,5.371,-16.602,-20.020,42.969,139.160
1688305035.959,12.207,-31.738,-22.949,-17.578,-194.336
1688305035.963,0.000,-48.340,-27.344,-35.645,-353.516
1688305035.967,4.395,-41.016,-16.602,14.648,-91.797
1688305035.971,-9.277,-37.109,-21.973,48.828,260.254
1688305035.974,-11.230,-48.340,-50.781,24.414,273.438
1688305035.978,-7.324,-45.410,-54.688,-20.020,-90.332
1688305035.982,-16.602,-54.199,-43.457,-26.367,-52.246
1688305035.986,-13.672,-62.988,-41.992,7.324,250.000
1688305035.990,-17.090,-47.363,-40.527,35.156,99.121
1688305035.991,-6.836,-38.086,-36.133,38.086,35.156
1688305035.995,-3.906,-37.109,-38.086,-5.859,-106.445
1688305035.999,-18.555,-39.062,-33.691,-40.039,-378.418
1688305036.003,-12.695,-45.410,-36.621,-22.949,-277.344
1688305036.007,-15.625,-38.574,-43.945,10.742,57.617
1688305036.011,-6.348,-25.391,-39.551,27.832,254.883
1688305036.015,10.742,-32.715,-39.551,-6.836,91.309
1688305036.018,-4.395,-35.645,-31.738,-41.992,-274.414
1688305036.022,7.812,-41.992,-22.949,-15.625,-199.707
1688305036.026,-6.836,-57.129,-33.691,15.625,288.086
1688305036.030,-41.016,-51.270,-44.434,15.137,262.695
1688305036.034,-11.230,-42.480,-42.969,-26.855,-111.816
1688305036.052,-10.254,-44.434,-39.062,-57.617,-214.355
1688305036.056,-15.137,-41.992,-44.434,-37.598,-172.852
1688305036.060,0.977,-30.273,-49.805,12.695,-74.707
1688305036.064,3.906,-28.320,-35.645,40.527,83.984
1688305036.068,-2.441,-29.297,-41.016,1.465,101.562
1688305036.072,-30.762,-32.715,-47.852,-49.316,-69.824
1688305036.076,-26.855,-31.250,-40.039,-51.758,-153.809
1688305036.079,-5.859,-25.391,-28.809,-9.766,-48.340
1688305036.083,-4.883,-29.785,-17.090,48.828,363.770
1688305036.087,4.395,-43.457,-31.738,6.836,476.562
1688305036.091,3.418,-44.434,-41.504,-51.270,-203.125
1688305036.095,3.906,-43.457,-36.621,-31.250,-423.340
1688305036.081,13.672,-42.480,-30.762,-2.441,-104.492
1688305036.085,1.465,-31.250,-36.133,14.160,59.570
1688305036.089,7.324,-21.973,-38.086,-1.953,-27.344
1688305036.093,11.230,-30.762,-34.668,-33.691,-136.230
1688305036.097,6.836,-40.039,-54.199,-41.016,-116.211
1688305036.101,-5.371,-43.457,-64.941,-12.207,-51.758
1688305036.105,-28.809,-56.152,-49.805,21.484,121.582
1688305036.108,-16.113,-50.781,-42.969,-3.418,174.316
1688305036.112,-11.719,-30.762,-43.457,-46.387,-103.027
1688305036.116,-16.602,-36.133,-37.109,-37.109,-380.859
1688305036.120,0.000,-43.945,-32.227,8.301,-327.637
1688305036.124,-4.883,-35.156,-29.297,43.457,103.516
1688305036.126,-3.906,-30.762,-37.109,13.184,362.305
1688305036.130,-0.977,-29.785,-53.711,-34.180,-144.531
1688305036.134,-4.395,-28.809,-49.316,-48.828,-437.012
1688305036.138,4.883,-25.879,-40.039,-16.113,-172.363
1688305036.142,-16.113,-24.902,-38.086,33.203,128.906
1688305036.146,-8.789,-31.250,-35.156,18.066,160.645
1688305036.150,6.836,-37.109,-32.715,-26.855,-147.461
1688305036.153,-14.648,-43.945,-36.133,-29.297,-22.949
1688305036.157,-7.812,-57.129,-46.387,-3.418,261.719
1688305036.161,-1.953,-41.504,-48.828,37.598,33.203
1688305036.165,-11.719,-24.414,-40.039,27.344,14.160
1688305036.169,-3.418,-27.832,-37.109,-33.691,-74.219
1688305036.171,-21.973,-37.598,-37.109,-48.828,-325.684
1688305036.175,-13.672,-41.992,-45.410,-20.508,-369.141
1688305036.179,2.930,-45.410,-50.781,19.531,-48.828
1688305036.183,-18.066,-51.758,-41.992,18.066,222.656
1688305036.187,-13.672,-38.086,-41.504,-19.531,-6.348
1688305036.191,-12.695,-38.574,-49.805,-42.480,-226.074
1688305036.195,-4.395,-41.016,-40.527,-16.602,-46.875
1688305036.198,4.395,-39.551,-29.297,29.297,457.520
1688305036.202,-1.953,-39.551,-32.227,35.645,367.188
1688305036.206,0.488,-30.273,-41.016,0.488,-86.914
1688305036.210,5.859,-14.648,-37.598,-19.531,-254.395
1688305036.214,22.461,-8.789,-30.273,3.906,-291.992
1688305036.216,14.160,-24.902,-28.809,40.527,-164.551
1688305036.220,-8.301,-36.621,-36.621,48.828,38.086
1688305036.224,-3.418,-34.668,-43.945,8.301,-4.395
1688305036.228,-2.930,-41.016,-44.922,-28.320,-231.445
1688305036.232,-9.277,-40.527,-42.969,-22.461,-326.172
1688305036.236,-5.371,-34.180,-39.062,22.461,-157.227
1688305036.240,1.953,-35.645,-37.598,43.457,396.973
1688305036.243,9.766,-23.926,-35.156,4.883,437.988
1688305036.247,0.488,-35.156,-41.016,-39.551,-143.066
1688305036.251,-6.348,-41.992,-40.527,-31.738,-332.031
1688305036.255,-2.441,-25.391,-35.156,11.719,71.777
1688305036.259,-11.230,-22.461,-30.273,44.434,320.801
1688305036.261,5.859,-24.414,-22.949,22.949,55.176
1688305036.265,8.789,-19.531,-20.508,-25.391,-118.652
1688305036.269,-18.066,-44.922,-21.484,-45.898,-243.164
1688305036.273,-12.695,-54.688,-18.066,-6.836,-205.078
1688305036.277,-9.277,-37.598,-24.414,42.969,-43.457
1688305036.281,-7.324,-43.457,-30.273,24.902,200.684
1688305036.285,-11.719,-37.598,-22.461,-38.574,175.781
1688305036.288,-34.668,-27.344,-7.812,-53.711,-243.164
1688305036.292,-17.578,-34.668,-3.906,-13.184,-295.898
1688305036.296,-8.301,-35.645,-17.090,34.668,172.363
1688305036.300,-25.391,-28.320,-24.902,27.832,392.090
1688305036.304,-7.812,-26.367,-16.602,-18.066,-83.008
1688305036.321,-3.418,-37.598,-19.043,-32.227,-351.074
1688305036.325,6.348,-44.434,-28.320,3.418,-119.141
1688305036.329,11.719,-36.621,-23.438,49.316,158.691
1688305036.333,-5.371,-32.227,-21.484,38.086,118.164
1688305036.337,-4.883,-30.762,-21.484,-3.418,-71.289
1688305036.341,-15.137,-39.551,-22.949,-30.273,-159.180
1688305036.345,-14.648,-47.363,-24.414,-12.695,-168.457
1688305036.348,-22.461,-41.016,-22.949,25.879,20.508
1688305036.352,-17.578,-35.645,-15.137,23.438,96.191
1688305036.356,-6.348,-40.039,-13.672,-19.531,167.969
1688305036.360,-28.320,-42.480,-19.531,-41.504,64.941
1688305036.364,-7.324,-28.320,-15.137,-3.418,-335.449
1688305036.366,2.930,-22.461,-11.719,42.969,-89.844
1688305036.370,-14.648,-33.691,-17.578,37.109,182.617
1688305036.374,-2.441,-30.273,-26.855,-18.555,-24.902
1688305036.378,-4.883,-21.484,-20.996,-42.480,-313.477
1688305036.382,-8.301,-31.250,-17.578,-7.324,-199.219
1688305036.386,0.000,-36.621,-26.855,12.695,192.383
1688305036.390,3.906,-29.297,-37.109,17.578,293.945
1688305036.393,12.695,-25.391,-32.227,-2.441,5.859
1688305036.397,-12.695,-33.203,-28.809,-31.738,-165.527
1688305036.401,-8.789,-35.156,-23.438,-15.137,2.930
1688305036.405,6.836,-30.273,-26.855,19.531,31.250
1688305036.409,1.953,-31.738,-42.480,29.297,99.609
1688305036.411,14.160,-32.227,-41.992,-10.742,52.734
1688305036.415,1.465,-37.598,-41.504,-41.504,-196.777
1688305036.419,-8.301,-38.574,-39.551,-34.180,-338.379
1688305036.423,2.930,-42.480,-30.273,6.836,-157.715
1688305036.427,-14.160,-57.617,-26.855,40.527,240.234
1688305036.431,-5.859,-54.199,-27.832,12.695,305.176
1688305036.435,8.301,-37.598,-18.066,-19.043,-39.062
1688305036.438,0.000,-26.855,-12.695,-12.695,-268.066
1688305036.442,5.859,-33.691,-28.809,17.090,101.074
1688305036.446,-7.324,-40.527,-37.109,44.434,438.965
1688305036.450,4.395,-27.344,-28.809,19.531,86.914
1688305036.454,8.301,-27.344,-27.832,-22.949,-221.680
1688305036.456,-0.488,-31.250,-35.645,-19.531,-304.688
1688305036.460,6.348,-26.367,-36.133,17.090,-245.605
1688305036.464,-12.207,-29.297,-45.898,38.574,-19.043
1688305036.468,-1.465,-35.645,-40.527,28.809,117.676
1688305036.472,7.324,-44.922,-40.527,-15.625,-78.613
1688305036.476,0.977,-31.250,-43.457,-34.668,-238.770
1688305036.480,10.742,-23.438,-32.715,-2.930,-164.062
1688305036.483,5.371,-33.203,-28.809,37.598,130.859
1688305036.487,-0.977,-42.969,-26.855,38.574,561.523
1688305036.491,-2.441,-51.758,-42.969,-13.184,147.949
1688305036.495,-20.508,-36.621,-41.992,-46.387,-430.176
1688305036.499,-11.230,-21.973,-15.625,-7.324,-327.148
1688305036.501,12.207,-15.137,-4.883,46.387,-13.672
1688305036.505,15.137,-23.926,-18.066,35.156,94.727
1688305036.509,-2.441,-35.156,-27.832,-20.508,-126.953
1688305036.513,-20.020,-34.668,-24.902,-44.434,-289.062
1688305036.517,-0.977,-37.109,-29.297,-24.414,-267.578
1688305036.521,3.418,-39.551,-33.203,17.090,-16.113
1688305036.525,-11.230,-41.016,-31.738,31.738,156.738
1688305036.528,5.859,-44.922,-30.273,-8.301,327.637
1688305036.532,-0.977,-46.875,-41.016,-31.738,289.551
1688305036.536,-7.324,-56.641,-44.434,-11.719,-242.188
1688305036.540,0.000,-63.477,-35.645,30.273,-199.707
1688305036.544,-8.301,-56.152,-39.551,38.086,273.926
1688305036.546,-8.789,-43.945,-45.410,-14.648,131.348
1688305036.550,-20.020,-42.480,-47.363,-54.688,-335.938
1688305036.554,-15.625,-40.039,-46.387,-39.062,-329.590
1688305036.558,0.977,-29.297,-35.645,18.066,-108.398
1688305036.562,0.000,-30.762,-22.949,40.527,45.410
1688305036.566,5.371,-41.016,-21.484,9.277,-17.578
1688305036.570,-17.578,-55.664,-35.156,-32.715,-39.551
1688305036.573,-22.461,-51.270,-52.734,-36.133,79.590
1688305036.577,1.465,-41.992,-41.992,15.137,-36.621
1688305036.581,-2.441,-46.387,-33.203,51.758,2.930
1688305036.585,-7.324,-31.738,-39.062,13.672,124.023
1688305036.589,-6.836,-20.020,-28.809,-25.879,-103.516
1688305036.591,-11.230,-17.578,-16.602,-14.160,-337.891
1688305036.595,9.766,-32.715,-14.648,23.926,-242.188
1688305036.599,12.695,-44.434,-16.602,54.199,73.730
1688305036.603,2.441,-37.598,-20.508,21.484,122.559
1688305036.607,-5.859,-34.180,-19.531,-40.527,-146.973
1688305036.611,-10.742,-29.297,-32.227,-48.828,-243.652
1688305036.615,6.348,-25.879,-33.691,-6.348,152.344
1688305036.618,1.953,-25.879,-10.742,37.109,493.164
1688305036.622,2.441,-33.691,-17.578,20.996,120.117
1688305036.626,-5.859,-41.504,-33.203,-37.109,-178.711
1688305036.630,-28.809,-44.434,-27.344,-54.199,-233.398
1688305036.634,-10.254,-30.273,-22.949,-22.949,-190.918
1688305036.637,-3.418,-25.391,-28.320,17.578,-57.617
1688305036.641,-6.348,-39.551,-33.691,15.625,166.992
1688305036.645,-2.441,-41.016,-26.367,-33.691,75.195
1688305036.649,-20.996,-28.809,-27.344,-55.664,-315.430
1688305036.653,-18.555,-28.320,-24.902,-20.020,-327.637
1688305036.657,-6.348,-32.715,-23.926,17.578,166.016
1688305036.661,-2.930,-37.598,-27.832,6.836,437.988
1688305036.664,-6.836,-43.457,-25.879,-31.250,21.973
1688305036.668,-23.438,-42.480,-27.832,-36.133,-396.973
1688305036.672,-10.254,-34.180,-22.461,-8.789,-225.098
1688305036.676,7.324,-25.879,-16.113,32.227,89.844
1688305036.680,-12.207,-33.691,-27.344,37.598,58.594
1688305036.696,-17.090,-41.504,-33.691,-16.602,-71.777
1688305036.700,-17.090,-43.945,-27.832,-60.547,-253.906
1688305036.704,-10.742,-35.156,-39.062,-44.434,-334.473
1688305036.708,0.000,-24.414,-37.598,6.348,-119.141
1688305036.712,1.465,-31.738,-25.391,19.531,104.980
1688305036.716,5.371,-41.504,-32.715,-17.578,367.188
1688305036.720,-14.160,-42.969,-41.016,-51.270,247.559
1688305036.723,-20.508,-43.945,-35.156,-43.945,-199.707
1688305036.727,-14.648,-47.852,-47.852,-11.719,-176.758
1688305036.731,-11.230,-37.109,-59.082,19.043,281.250
1688305036.735,-20.508,-30.273,-62.012,-12.695,307.129
1688305036.739,-30.762,-41.504,-63.477,-48.340,-319.336
1688305036.741,-20.996,-41.504,-56.152,-31.250,-426.270
1688305036.745,-17.090,-41.504,-44.434,-1.465,-156.250
1688305036.749,-11.719,-39.062,-25.391,26.367,38.086
1688305036.753,-3.418,-33.203,-25.391,6.836,-17.090
1688305036.757,-24.414,-41.992,-33.203,-45.410,-133.789
1688305036.761,-31.250,-38.086,-34.180,-48.828,-116.699
1688305036.765,-20.508,-41.504,-36.621,-7.324,-31.250
1688305036.768,-12.207,-44.922,-36.133,30.762,159.180
1688305036.772,-4.395,-33.691,-34.668,33.203,255.859
1688305036.776,-29.785,-26.855,-29.785,-12.207,275.879
1688305036.780,-40.039,-31.250,-37.109,-33.203,-51.270
1688305036.784,-11.230,-38.086,-41.992,-8.789,-247.559
1688305036.786,-2.441,-39.062,-33.691,20.996,-20.996
1688305036.790,-14.648,-42.969,-32.227,13.184,83.008
1688305036.794,-25.879,-41.504,-34.180,-29.785,-123.535
1688305036.798,-32.715,-37.598,-28.809,-36.133,-353.027
1688305036.802,-21.973,-40.039,-30.273,-12.695,-192.871
1688305036.806,-14.160,-55.664,-32.227,9.277,159.180
1688305036.810,-10.742,-50.781,-25.391,6.836,201.660
1688305036.813,-5.371,-36.621,-22.949,-34.668,-64.941
1688305036.817,-14.160,-40.527,-31.738,-62.012,8.301
1688305036.821,-18.066,-29.297,-45.410,-34.668,318.359
1688305036.825,-13.672,-23.438,-39.062,16.602,176.758
1688305036.829,-9.766,-32.715,-32.227,20.020,12.695
1688305036.831,-22.461,-34.180,-39.062,-37.598,-98.145
1688305036.835,-41.016,-36.133,-37.598,-63.477,-363.281
1688305036.839,-15.137,-39.551,-34.180,-27.344,-393.066
1688305036.843,-2.441,-40.039,-33.691,25.879,-89.844
1688305036.847,-5.859,-39.551,-36.621,32.227,146.484
1688305036.851,7.812,-40.527,-40.527,-16.602,46.387
1688305036.855,-8.789,-32.227,-44.434,-55.664,-200.195
1688305036.858,-9.766,-29.297,-49.805,-26.367,-150.879
1688305036.862,-2.441,-30.273,-43.457,33.203,214.355
1688305036.866,-13.672,-34.180,-38.574,57.129,254.395
1688305036.870,4.395,-37.109,-37.109,29.785,29.297
1688305036.874,-1.465,-35.645,-32.227,2.930,9.277
1688305036.876,-7.324,-38.086,-39.062,-1.953,11.230
1688305036.880,13.184,-23.926,-37.109,-1.465,-59.082
1688305036.884,8.789,-19.531,-22.461,13.184,93.750
1688305036.888,7.324,-31.738,-22.461,-5.371,113.770
1688305036.892,-12.207,-45.410,-34.668,-58.105,-171.875
1688305036.896,-27.344,-46.875,-37.109,-65.430,-326.660
1688305036.900,-21.484,-39.551,-35.645,-21.484,-133.789
1688305036.903,-14.648,-30.762,-40.039,21.484,383.301
1688305036.907,-7.812,-42.480,-36.133,-8.789,569.336
1688305036.911,-35.645,-58.594,-32.227,-56.641,-119.141
1688305036.915,-30.273,-38.086,-25.879,-34.180,-435.547
1688305036.919,-2.930,-34.180,-18.066,16.113,-234.863
1688305036.922,-5.859,-47.363,-27.832,49.316,-54.199
1688305036.926,-0.488,-45.898,-32.715,20.020,15.625
1688305036.930,-9.766,-39.551,-27.344,-49.316,-92.773
1688305036.934,-24.414,-35.645,-30.762,-64.941,-221.680
1688305036.938,-8.301,-32.715,-36.621,-16.113,-206.543
1688305036.942,-3.418,-36.133,-32.715,37.109,14.160
1688305036.946,-4.883,-39.551,-37.109,23.438,254.883
1688305036.949,-12.207,-32.715,-45.410,-15.625,236.816
1688305036.953,-22.461,-35.156,-33.203,-29.297,-225.098
1688305036.957,-13.672,-41.016,-38.086,-18.555,-325.684
1688305036.961,-14.160,-46.875,-40.039,20.996,74.707
1688305036.965,-6.348,-51.758,-23.438,18.555,167.480
1688305036.966,-3.418,-44.434,-12.695,-29.297,-143.066
1688305036.970,-26.855,-52.734,-26.855,-51.758,-316.406
1688305036.974,-17.090,-49.805,-33.691,-40.527,-130.859
1688305036.978,-6.348,-37.598,-24.414,11.719,138.184
1688305036.982,-6.348,-42.969,-21.484,28.809,173.828
1688305036.986,8.301,-35.645,-1.465,-17.578,-22.949
1688305036.990,1.953,-32.227,0.977,-36.621,27.344
1688305036.993,1.953,-36.133,-10.254,-10.742,436.035
1688305036.997,-4.883,-34.180,-5.859,23.926,227.051
1688305037.001,-25.879,-33.691,-8.789,30.273,-25.391
1688305037.005,-14.160,-24.902,-8.301,-7.324,-41.992
1688305037.009,0.000,-25.879,-7.812,-37.598,-291.016
1688305037.011,9.766,-32.227,-20.508,-20.020,-385.254
1688305037.015,-0.488,-27.344,-26.367,11.719,-138.672
1688305037.019,-25.391,-38.574,-26.855,17.578,125.488
1688305037.023,-23.438,-41.992,-18.066,-28.320,-14.648
1688305037.027,-30.762,-22.461,-10.254,-57.129,-261.719
1688305037.031,-31.250,-28.320,-12.207,-21.973,-149.414
1688305037.035,-14.160,-48.340,-19.531,18.066,163.086
1688305037.038,-31.250,-32.715,-24.414,18.066,222.168
1688305037.042,-26.855,-32.227,-28.809,-27.832,-32.227
1688305037.046,-42.480,-41.504,-39.062,-80.078,-149.414
1688305037.050,-48.828,-29.297,-33.691,-80.566,-29.297
1688305037.054,-29.297,-32.227,-27.344,-41.504,-125.977
1688305037.071,-36.621,-40.527,-35.156,-10.742,-24.414
1688305037.075,-16.602,-32.715,-41.504,-18.066,53.711
1688305037.079,-9.766,-35.645,-38.086,-43.457,-180.664
1688305037.083,-38.086,-46.387,-40.039,-48.828,-390.625
1688305037.087,-35.156,-44.434,-42.480,-15.625,-253.418
1688305037.091,-18.555,-31.250,-31.250,17.578,169.922
1688305037.095,-14.160,-32.227,-43.457,-13.184,201.660
1688305037.098,-9.766,-36.133,-55.664,-46.875,-98.633
1688305037.102,-22.461,-39.062,-44.434,-47.852,-219.238
1688305037.106,-21.973,-42.480,-29.785,-20.508,116.211
1688305037.110,-9.277,-38.574,-24.902,25.879,544.434
1688305037.114,5.371,-27.832,-22.949,20.996,208.984
1688305037.116,-4.883,-25.879,-25.391,-23.438,-183.105
1688305037.120,-16.113,-29.785,-35.156,-37.109,-300.293
1688305037.124,5.859,-26.855,-23.438,13.672,-295.410
1688305037.128,7.324,-34.180,-20.508,52.734,-60.059
1688305037.132,10.254,-42.969,-53.711,32.227,168.945
1688305037.136,-0.488,-39.062,-60.059,-19.531,105.469
1688305037.140,-16.602,-31.738,-35.156,-44.434,-210.938
1688305037.143,-1.953,-36.621,-37.598,-19.531,-311.035
1688305037.147,3.418,-34.668,-35.156,24.414,48.340
1688305037.151,16.113,-22.949,-26.855,21.973,387.207
1688305037.155,11.230,-25.879,-40.039,-35.156,-4.395
1688305037.159,-18.066,-28.320,-40.039,-53.223,-275.391
1688305037.161,13.672,-21.973,-16.602,-10.742,-90.820
1688305037.165,20.020,-27.832,-5.859,29.297,29.785
1688305037.169,-12.207,-38.086,-21.484,12.207,5.371
1688305037.173,-17.578,-36.133,-35.156,-18.555,-129.883
1688305037.177,-24.902,-34.180,-24.414,-29.785,-284.668
1688305037.181,-19.531,-40.039,-26.855,-15.137,-182.129
1688305037.185,-16.113,-37.109,-45.898,24.902,1.465
1688305037.188,-28.320,-39.062,-42.969,21.973,67.871
1688305037.192,-25.391,-31.250,-26.855,-15.137,236.816
1688305037.196,-24.414,-5.859,-20.508,-42.969,183.594
1688305037.200,-20.996,-21.973,-34.180,-35.156,-254.883
1688305037.204,-13.184,-39.551,-41.504,10.742,-145.020
1688305037.236,-20.996,-42.480,-28.809,22.949,144.043
1688305037.240,-22.461,-39.062,-25.391,-16.113,72.266
1688305037.244,-21.484,-24.902,-31.738,-80.566,-184.570
1688305037.248,-6.836,-20.996,-28.809,-85.938,-262.207
1688305037.252,4.883,-18.555,-20.508,-23.438,-5.371
1688305037.256,-3.418,-25.879,-13.672,8.301,141.602
1688305037.260,2.441,-32.715,-14.160,-24.902,80.078
1688305037.263,12.207,-27.832,-12.207,-42.969,-52.734
1688305037.267,10.254,-25.879,-18.066,-27.832,12.207
1688305037.271,-10.742,-30.273,-21.973,0.000,-71.289
1688305037.275,-22.461,-39.551,-28.809,25.879,20.508
1688305037.279,-1.465,-52.246,-35.645,11.719,94.238
1688305037.252,0.000,-54.688,-31.738,-30.273,-174.805
1688305037.256,-7.812,-32.715,-30.273,-43.945,-361.328
1688305037.260,-9.766,-33.691,-40.039,-24.414,-317.871
1688305037.264,-14.160,-47.852,-48.340,11.230,-46.875
1688305037.268,-15.625,-46.387,-52.734,4.883,118.652
1688305037.272,-3.418,-34.668,-33.691,-24.414,-43.945
1688305037.276,-8.301,-31.250,-19.531,-32.227,-151.367
1688305037.279,-7.324,-44.434,-29.297,-8.789,72.266
1688305037.283,-8.789,-44.922,-31.250,25.879,195.801
1688305037.287,-20.020,-32.715,-34.180,-1.953,25.879
1688305037.291,-10.254,-38.574,-32.227,-53.711,-183.594
1688305037.295,-13.672,-42.969,-30.762,-66.406,-146.484
1688305037.296,-7.812,-32.227,-41.504,-39.551,-95.215
1688305037.300,-12.695,-30.762,-56.641,-0.488,-60.059
1688305037.304,-19.531,-38.574,-55.664,0.488,23.438
1688305037.308,-6.836,-39.551,-50.781,-32.715,211.914
1688305037.312,-15.625,-30.762,-50.293,-45.410,56.641
1688305037.316,-13.184,-22.949,-50.781,-22.949,-256.836
1688305037.320,-20.996,-27.832,-50.781,8.301,32.715
1688305037.323,-25.879,-34.668,-52.246,22.461,552.734
1688305037.327,-3.906,-41.016,-41.016,-14.648,295.898
1688305037.331,-29.785,-34.668,-28.320,-53.711,-362.793
1688305037.335,-19.043,-33.203,-26.855,-33.203,-293.457
1688305037.339,-0.488,-39.062,-32.227,6.348,-50.781
1688305037.341,-23.438,-33.203,-53.711,13.184,5.371
1688305037.345,-10.742,-29.297,-56.641,-23.438,-129.395
1688305037.349,-6.348,-34.180,-36.133,-49.805,-259.766
1688305037.353,-4.883,-32.227,-29.785,-34.668,-277.344
1688305037.357,-3.418,-35.156,-36.133,3.906,-124.512
1688305037.361,-21.484,-41.504,-39.551,31.250,172.363
1688305037.365,-2.930,-27.832,-32.227,8.789,354.492
1688305037.368,5.371,-18.066,-28.809,-28.320,170.410
1688305037.372,-0.488,-22.949,-35.156,-25.391,-202.637
1688305037.376,6.348,-30.762,-36.621,16.113,-77.148
1688305037.380,-4.395,-34.668,-38.086,39.062,328.125
1688305037.384,5.371,-26.855,-38.086,12.207,224.609
1688305037.386,7.812,-16.113,-34.668,-22.949,-266.113
1688305037.390,-3.906,-18.555,-41.504,-22.461,-324.707
1688305037.394,6.348,-22.949,-42.480,20.996,-143.555
1688305037.398,-6.348,-23.926,-33.203,41.992,2.930
1688305037.402,-12.207,-31.250,-37.598,2.930,-46.875
1688305037.406,-22.949,-39.062,-39.551,-27.832,-41.016
1688305037.410,-35.645,-36.133,-29.297,-20.508,59.082
1688305037.413,-11.230,-33.691,-20.020,6.348,-74.219
1688305037.417,-25.391,-38.086,-22.461,37.109,-48.340
1688305037.421,-23.926,-48.828,-23.926,32.715,157.715
1688305037.425,6.348,-45.898,-18.555,8.301,-45.898
1688305037.429,-7.812,-38.574,-29.297,-29.785,-344.238
1688305037.432,-2.930,-45.898,-38.086,-43.945,-243.164
1688305037.436,-10.254,-55.664,-37.598,1.465,92.285
1688305037.440,-26.855,-60.059,-43.457,5.371,225.098
1688305037.444,-13.672,-48.828,-43.457,-40.527,-170.410
1688305037.448,-14.648,-42.969,-37.598,-55.176,-320.801
1688305037.452,-4.395,-34.180,-34.668,-28.320,-51.270
1688305037.456,-7.324,-25.391,-28.809,6.836,216.797
1688305037.459,-13.184,-29.297,-31.250,1.465,218.262
1688305037.463,-8.789,-38.574,-38.086,-38.086,-123.047
1688305037.467,-12.695,-43.457,-34.180,-40.039,-55.176
1688305037.471,-2.930,-34.668,-27.344,-9.277,101.074
1688305037.475,2.441,-32.227,-28.320,20.508,-47.852
1688305037.492,-12.695,-36.621,-27.344,40.039,65.918
1688305037.496,-13.184,-34.668,-24.902,-2.441,-83.008
1688305037.500,-7.812,-25.391,-22.949,-36.621,-239.258
1688305037.504,-4.395,-34.180,-28.320,-16.113,-199.707
1688305037.508,2.930,-43.457,-39.551,3.418,20.996
1688305037.512,6.836,-26.855,-31.250,11.719,415.527
1688305037.516,10.254,-23.438,-28.320,-23.438,164.551
1688305037.519,-3.418,-34.180,-34.668,-54.199,-314.941
1688305037.523,-13.184,-46.875,-44.434,-35.645,-200.684
1688305037.527,-14.648,-47.852,-47.852,0.977,174.805
1688305037.531,-15.625,-34.668,-33.203,20.508,147.461
1688305037.535,-5.859,-25.879,-33.203,-11.230,-91.797
1688305037.536,-7.324,-34.668,-49.316,-55.176,-257.812
1688305037.540,-19.531,-44.434,-50.781,-42.480,-298.340
1688305037.544,-24.414,-42.480,-42.480,2.441,-145.508
1688305037.548,-32.715,-38.574,-49.316,17.090,76.660
1688305037.552,-8.301,-31.738,-47.852,-3.418,73.730
1688305037.556,9.277,-31.738,-28.809,-37.109,-128.418
1688305037.560,-14.648,-37.598,-28.809,-53.711,-210.449
1688305037.563,-22.949,-39.551,-30.762,-21.973,-108.398
1688305037.567,-20.508,-38.574,-37.109,20.996,314.941
1688305037.571,-12.695,-32.715,-43.945,0.488,568.848
1688305037.575,-3.906,-26.855,-28.809,-48.340,-6.348
1688305037.579,-9.277,-28.809,-25.391,-42.480,-365.723
1688305037.581,-1.465,-32.227,-34.180,8.789,-102.051
1688305037.585,-3.906,-26.367,-30.273,37.598,80.078
1688305037.589,2.930,-20.020,-19.043,23.438,6.836
1688305037.593,12.695,-21.484,-29.785,0.977,-179.199
1688305037.597,-1.465,-34.668,-46.875,-11.719,-269.531
1688305037.601,4.395,-41.992,-40.527,5.371,-170.410
1688305037.605,-9.766,-31.738,-20.996,29.785,97.168
1688305037.608,-19.043,-30.273,-14.648,7.812,275.391
1688305037.612,-10.742,-39.551,-23.926,-29.785,355.469
1688305037.616,-17.578,-47.363,-31.738,-43.945,-38.086
1688305037.620,-12.207,-46.875,-34.668,-13.672,-335.938
1688305037.624,-18.555,-44.434,-30.273,32.715,-74.219
1688305037.626,-14.160,-46.875,-29.297,44.434,60.059
1688305037.630,0.000,-41.992,-25.391,13.672,-156.738
1688305037.634,-0.488,-39.551,-21.484,-2.441,-344.727
1688305037.638,13.184,-36.133,-12.695,32.227,-228.516
1688305037.642,15.137,-35.156,-1.465,53.223,15.137
1688305037.646,13.672,-38.574,-4.395,35.645,151.855
1688305037.650,1.953,-30.762,-5.371,1.953,-22.949
1688305037.653,-10.254,-28.320,0.488,-3.418,58.594
1688305037.657,-4.395,-36.621,-8.789,21.973,241.699
1688305037.661,2.930,-40.039,-14.160,58.105,60.059
1688305037.665,1.953,-35.156,-16.113,54.199,140.625
1688305037.669,-5.371,-29.785,-21.973,5.859,106.445
1688305037.671,-3.906,-28.320,-25.391,-29.785,-213.867
1688305037.675,6.348,-29.785,-35.156,-23.926,-339.844
1688305037.679,4.395,-35.156,-32.715,19.531,-98.633
1688305037.683,-11.230,-41.504,-19.531,40.527,124.512
1688305037.687,-7.812,-40.039,-21.973,-3.906,-36.621
1688305037.691,-8.789,-41.992,-20.508,-42.969,-246.094
1688305037.695,-6.348,-48.340,-16.113,-31.250,-77.637
1688305037.698,-8.789,-39.062,-25.879,7.324,229.004
1688305037.702,-26.367,-30.273,-32.227,26.367,158.203
1688305037.706,-1.953,-32.227,-29.297,1.953,-25.879
1688305037.710,9.766,-26.367,-36.621,-25.391,-123.535
1688305037.714,-8.301,-33.203,-39.551,-23.926,-219.238
1688305037.717,-8.789,-41.992,-36.133,13.184,-151.855
1688305037.721,-19.531,-34.668,-37.598,33.203,7.324
1688305037.725,-2.441,-31.250,-35.156,10.254,104.004
1688305037.729,6.348,-33.203,-33.203,-37.598,-47.363
1688305037.733,3.418,-37.598,-38.574,-50.781,-304.688
1688305037.737,4.883,-37.598,-43.457,-10.742,-117.676
1688305037.741,-17.090,-35.156,-42.480,26.367,459.473
1688305037.744,8.789,-23.926,-37.598,9.766,617.188
1688305037.748,8.789,-28.320,-38.574,-40.527,-38.086
1688305037.752,-17.090,-50.293,-43.457,-52.246,-365.234
1688305037.756,0.488,-44.922,-40.527,-13.672,-90.820
1688305037.760,1.953,-30.762,-32.227,29.297,103.027
1688305037.776,-2.930,-29.785,-39.551,16.602,4.395
1688305037.780,0.488,-30.273,-52.246,-30.762,-174.805
1688305037.784,-12.207,-30.273,-42.969,-48.828,-192.383
1688305037.788,-1.465,-24.414,-29.297,-15.625,-89.355
1688305037.792,3.906,-24.414,-22.461,27.344,-42.969
1688305037.796,-4.883,-32.227,-21.484,24.902,69.336
1688305037.800,-7.324,-34.180,-28.320,-1.465,381.836
1688305037.803,-13.184,-32.715,-35.156,-21.973,86.914
1688305037.807,1.465,-34.180,-39.062,-4.395,-360.840
1688305037.811,-0.488,-38.086,-43.457,28.809,-98.633
1688305037.815,-13.672,-34.180,-44.434,30.762,45.410
1688305037.819,5.371,-34.668,-47.852,0.000,-112.793
1688305037.821,13.184,-40.527,-59.082,-12.695,-307.129
1688305037.825,11.230,-41.016,-48.340,-4.395,-265.137
1688305037.829,-4.395,-35.156,-29.297,9.277,-22.461
1688305037.833,-10.742,-25.879,-20.508,12.207,75.195
1688305037.837,18.555,-26.367,-19.531,-20.996,-41.992
1688305037.841,20.996,-27.344,-23.926,-28.320,-177.246
1688305037.845,19.043,-27.832,-24.902,2.930,-130.371
1688305037.848,24.902,-27.832,-27.344,43.945,52.734
1688305037.852,23.926,-21.973,-29.297,53.223,189.941
1688305037.856,15.625,-20.020,-22.949,22.949,281.250
1688305037.860,1.953,-21.484,-19.531,1.953,242.676
1688305037.864,8.301,-25.391,-23.438,6.348,-176.270
1688305037.866,23.438,-25.879,-16.113,60.059,-194.336
1688305037.870,8.301,-31.250,-12.695,90.332,89.844
1688305037.874,5.371,-37.598,-26.367,32.227,-4.883
1688305037.878,16.602,-21.484,-20.508,-17.090,-299.316
1688305037.882,29.297,-12.207,-24.414,-9.766,-278.809
1688305037.886,34.668,-16.602,-32.227,27.832,24.902
1688305037.890,21.973,-18.555,-19.531,43.945,154.785
1688305037.893,26.855,-22.949,-15.625,19.531,70.312
1688305037.897,20.996,-30.762,-29.297,-11.719,-55.664
1688305037.901,8.789,-31.250,-32.715,1.465,103.027
1688305037.905,20.020,-16.113,-20.508,45.898,62.012
1688305037.909,16.602,-10.742,-17.090,62.988,-32.227
1688305037.911,20.996,-9.277,-13.184,38.574,18.066
1688305037.915,27.832,-5.859,-16.113,-4.883,-165.039
1688305037.919,12.207,-7.324,-22.949,-4.395,-322.266
1688305037.923,3.906,-8.789,-13.672,29.785,-227.051
1688305037.927,4.883,-15.137,-12.695,58.105,133.301
1688305037.931,21.484,-23.438,-8.789,41.016,260.254
1688305037.935,23.926,-31.250,-7.324,2.441,-84.961
1688305037.938,5.371,-27.344,-20.996,0.977,-229.492
1688305037.942,13.672,-14.160,-22.461,31.250,159.668
1688305037.946,8.789,-20.020,-27.832,57.129,424.316
1688305037.950,2.441,-22.461,-30.762,42.480,149.414
1688305037.954,5.859,-9.766,-14.160,-3.418,-163.574
1688305037.956,-2.441,-16.113,-15.137,-27.344,-221.680
1688305037.960,3.418,-29.297,-24.902,-3.418,-258.301
1688305037.964,1.465,-33.691,-17.090,30.273,-177.734
1688305037.968,0.977,-30.762,-17.090,26.367,32.227
1688305037.972,-1.465,-26.855,-30.273,-14.160,-65.430
1688305037.976,-12.695,-32.715,-32.715,-39.551,-224.609
1688305037.980,4.883,-31.738,-22.949,-26.855,-198.730
1688305037.983,2.441,-29.785,-14.160,19.043,97.168
1688305037.987,-14.648,-34.668,-21.484,32.715,404.785
1688305037.991,3.418,-31.250,-20.996,-5.859,34.180
1688305037.995,3.418,-23.926,-19.531,-33.691,-349.121
1688305037.999,5.859,-30.273,-19.043,-20.996,-256.348
1688305038.001,12.207,-32.227,-16.113,27.344,-50.781
1688305038.005,4.395,-20.020,-28.320,39.551,104.980
1688305038.009,-1.465,-17.090,-30.273,-1.953,-37.109
1688305038.013,-6.348,-19.043,-18.066,-21.484,-168.945
1688305038.017,13.184,-19.531,-16.602,-11.230,-141.113
1688305038.021,4.883,-23.926,-20.996,3.906,-9.766
1688305038.025,-18.066,-23.438,-16.602,13.184,145.996
1688305038.028,-7.812,-19.043,-11.230,-1.465,184.570
1688305038.032,-5.859,-17.578,-14.648,-20.020,-81.543
1688305038.036,-2.930,-20.508,-17.090,-9.277,-323.242
1688305038.040,6.348,-35.645,-9.277,25.879,-159.668
1688305038.044,-3.906,-45.410,-12.695,65.918,358.887
1688305038.046,11.230,-31.738,-23.926,27.832,416.016
1688305038.050,-2.441,-17.578,-26.367,-53.223,-223.633
1688305038.054,-9.766,-16.113,-30.273,-57.129,-333.984
1688305038.058,-5.859,-24.414,-37.109,-26.855,-56.641
1688305038.062,-24.902,-22.949,-31.738,7.812,62.500
1688305038.066,1.465,-16.602,-25.391,0.000,18.555
1688305038.070,13.672,-14.648,-28.809,-37.109,-0.488
1688305038.073,-8.301,-18.066,-32.227,-36.621,130.371
1688305038.077,-4.883,-21.484,-32.227,4.883,-21.973
1688305038.081,-0.977,-23.438,-27.832,37.109,-62.500
1688305038.085,14.648,-19.043,-29.785,25.879,81.543
1688305038.089,22.949,-19.043,-39.551,-18.555,-83.984
1688305038.106,8.789,-16.602,-32.227,-47.852,-344.238
1688305038.110,7.324,-18.555,-25.391,-11.719,-299.805
1688305038.114,-0.488,-33.691,-37.109,24.902,9.277
1688305038.118,18.066,-20.508,-21.484,12.207,83.496
1688305038.122,30.273,-10.254,-11.230,-26.367,-122.070
1688305038.126,19.043,-15.625,-23.926,-45.410,-231.445
1688305038.130,18.555,-16.113,-22.461,-17.090,132.324
1688305038.133,6.348,-18.555,-28.320,24.414,441.406
1688305038.137,6.836,-18.555,-22.461,25.879,207.031
1688305038.141,7.812,-21.973,-20.020,-12.695,-107.910
1688305038.145,-5.859,-23.438,-33.691,-38.086,-259.766
1688305038.149,-2.930,-18.066,-32.715,-8.301,-251.465
1688305038.136,-6.836,-13.672,-25.879,50.293,-94.238
1688305038.140,-3.906,-14.160,-24.902,51.270,73.242
1688305038.144,11.719,-22.461,-26.367,7.812,210.938
1688305038.148,-11.719,-28.320,-36.621,-20.996,-2.441
1688305038.152,6.836,-19.043,-36.621,-10.254,-311.523
1688305038.156,22.461,-19.043,-29.297,25.879,67.871
1688305038.160,0.000,-24.414,-30.273,33.203,371.094
1688305038.163,12.207,-26.367,-34.668,-0.977,62.012
1688305038.167,11.719,-20.508,-29.297,-26.855,-239.746
1688305038.171,6.836,-12.207,-26.367,0.000,-188.965
1688305038.175,5.371,-10.742,-26.367,33.203,281.250
1688305038.179,-7.812,-18.066,-34.668,21.973,273.438
1688305038.196,13.184,-18.066,-29.785,-8.789,-80.078
1688305038.200,20.020,-10.742,-23.438,-32.227,-205.078
1688305038.204,-3.906,-12.695,-35.645,-30.273,-270.020
1688305038.208,-0.488,-9.766,-28.809,10.254,-181.641
1688305038.212,3.906,-8.789,-17.578,42.480,32.715
1688305038.216,-1.465,-14.648,-23.438,14.160,142.578
1688305038.220,-3.906,-30.273,-23.438,-25.879,-68.359
1688305038.223,-4.883,-33.691,-17.578,-24.902,-202.148
1688305038.227,-6.348,-20.020,-21.484,13.672,-87.402
1688305038.231,-10.254,-19.531,-23.438,43.457,332.031
1688305038.235,-3.418,-34.180,-27.344,6.836,538.574
1688305038.239,-2.441,-35.645,-34.668,-44.922,-68.848
1688305038.241,3.906,-26.855,-31.738,-35.156,-361.328
1688305038.245,8.789,-24.414,-29.297,-5.859,-113.281
1688305038.249,-32.227,-31.738,-25.879,6.348,1.953
1688305038.253,-20.996,-38.086,-15.625,7.324,-82.031
1688305038.257,2.441,-29.297,-19.043,-14.648,-210.449
1688305038.261,-13.184,-26.367,-24.902,-18.066,-180.176
1688305038.265,2.930,-22.461,-8.789,20.020,-37.109
1688305038.268,15.625,-19.043,-4.395,55.176,-9.277
1688305038.272,8.789,-21.973,-10.742,46.387,104.004
1688305038.276,1.953,-21.484,-13.184,1.953,162.109
1688305038.280,-16.113,-33.203,-18.066,-30.273,-237.305
1688305038.284,-14.160,-32.715,-22.461,-8.789,-347.168
1688305038.286,-1.953,-17.578,-14.648,42.480,-23.926
1688305038.290,12.207,-21.484,-11.230,35.156,140.625
1688305038.294,14.648,-23.438,-21.484,-22.461,-33.691
1688305038.298,9.766,-12.207,-26.367,-33.691,-255.371
1688305038.302,18.066,-12.695,-22.949,-1.465,-120.605
1688305038.306,8.301,-23.438,-24.902,27.344,167.969
1688305038.310,6.348,-29.785,-21.484,35.156,218.750
1688305038.313,15.137,-26.855,-1.953,10.742,-7.812
1688305038.317,-1.465,-13.184,-1.953,-15.137,-7.812
1688305038.321,0.000,-10.742,-15.137,4.395,132.324
1688305038.325,-16.113,-22.461,-21.973,33.691,-70.801
1688305038.329,-25.391,-22.949,-11.230,43.457,-33.691
1688305038.332,0.000,-20.508,-6.836,14.160,-41.016
1688305038.336,-8.789,-21.484,-18.066,-20.508,-287.109
1688305038.340,-20.508,-28.320,-21.484,-12.207,-354.004
1688305038.344,-10.742,-41.016,-10.742,20.508,-20.508
1688305038.348,-11.230,-41.992,-5.859,29.785,283.691
1688305038.352,7.324,-25.391,4.395,4.395,133.789
1688305038.356,7.324,-11.230,8.789,-20.020,-112.793
1688305038.359,9.277,-9.277,-2.441,0.000,-159.668
1688305038.363,14.648,-17.090,-10.742,42.480,160.645
1688305038.367,-1.465,-24.414,-13.184,49.316,186.035
1688305038.371,3.418,-17.578,-3.418,0.977,-39.062
1688305038.375,-4.395,-16.602,-2.930,-53.711,-206.055
1688305038.376,-13.184,-27.344,-5.859,-54.688,-306.641
1688305038.380,-20.996,-33.691,-1.953,-16.113,-243.164
1688305038.384,-29.785,-37.598,-13.672,9.277,-35.645
1688305038.388,-10.254,-38.574,-14.160,-9.277,7.812
1688305038.392,-20.020,-41.016,-4.395,-43.457,-222.168
1688305038.396,-40.527,-36.133,-10.742,-41.992,-293.457
1688305038.400,-26.367,-22.949,-17.578,-5.859,-141.113
1688305038.403,-10.742,-12.695,-13.184,15.137,314.453
1688305038.407,-2.930,-11.230,-9.766,0.000,638.184
1688305038.411,-23.926,-20.996,-14.648,-28.320,41.016
1688305038.415,-38.574,-27.832,-20.996,-41.504,-404.297
1688305038.419,-20.508,-33.691,-30.273,-14.648,-195.312
1688305038.421,-23.438,-34.668,-37.109,20.996,0.000
1688305038.425,-20.020,-26.855,-41.016,14.160,-8.301
1688305038.429,-21.484,-30.762,-52.246,-27.344,-123.047
1688305038.433,-38.086,-41.504,-55.664,-52.734,-208.496
1688305038.437,-30.762,-38.086,-52.246,-35.156,-174.805
1688305038.441,-12.207,-27.344,-48.828,7.324,41.992
1688305038.445,-16.602,-29.785,-46.387,3.418,230.469
1688305038.448,-6.348,-24.902,-29.297,-26.855,236.328
1688305038.452,-10.254,-29.785,-30.273,-30.273,-69.824
1688305038.456,-14.648,-42.969,-39.551,-17.090,-294.922
1688305038.460,-0.488,-37.109,-25.879,7.324,13.672
1688305038.464,-11.719,-27.344,-22.949,10.742,229.980
1688305038.466,-5.371,-23.438,-27.344,-16.113,-67.383
1688305038.470,2.441,-16.602,-20.996,-31.250,-291.504
1688305038.474,9.766,-21.973,-23.438,-14.648,-285.645
1688305038.478,12.207,-27.344,-35.645,16.113,-79.590
1688305038.482,0.977,-24.902,-28.809,28.320,96.680
1688305038.486,10.742,-36.133,-21.973,-6.836,-14.648
1688305038.490,-0.488,-35.645,-22.461,-29.297,74.707
1688305038.493,3.906,-30.273,-18.066,-0.488,178.223
1688305038.497,8.301,-31.250,-20.996,19.531,-31.250
1688305038.501,-12.207,-19.043,-22.461,17.578,28.809
1688305038.505,-7.812,-15.137,-19.043,-9.766,178.223
1688305038.509,-17.090,-27.344,-20.996,-32.715,-62.988
1688305038.511,-14.648,-34.668,-28.320,-21.484,-389.648
1688305038.515,-7.812,-34.180,-32.227,14.160,-172.852
1688305038.519,-7.812,-30.273,-14.160,38.574,157.715
1688305038.523,10.254,-23.926,3.418,5.859,27.344
1688305038.527,-7.812,-30.762,-17.090,-35.156,-302.734
1688305038.531,-18.555,-31.738,-25.879,-27.832,-117.676
1688305038.535,-4.395,-31.250,-19.043,16.602,260.254
1688305038.538,-12.207,-39.551,-30.273,15.625,201.172
1688305038.542,-1.953,-40.039,-26.367,-15.625,-10.254
1688305038.546,-12.695,-33.691,-27.832,-26.855,-138.184
1688305038.550,-12.695,-32.715,-43.457,-25.879,-190.430
1688305038.554,11.719,-40.527,-44.922,3.418,-177.246
1688305038.557,4.395,-35.156,-22.949,35.645,-51.270
1688305038.561,-5.859,-19.043,-8.789,14.648,212.402
1688305038.565,-26.367,-26.855,-19.043,-38.086,150.879
1688305038.569,-29.297,-28.320,-26.855,-41.016,-296.875
1688305038.573,-22.461,-34.180,-51.758,-23.926,-229.004
1688305038.577,-33.691,-39.062,-55.664,-11.230,122.070
1688305038.581,-29.297,-31.738,-37.109,-14.160,205.566
1688305038.584,-38.574,-46.387,-38.574,-56.641,-6.836
1688305038.588,-51.270,-58.105,-28.320,-79.102,-283.691
1688305038.592,-40.527,-50.293,-34.180,-42.969,-49.805
1688305038.596,-45.410,-41.504,-50.781,-5.371,309.082
1688305038.600,-41.016,-45.410,-47.852,-17.090,120.605
1688305038.632,-18.555,-32.715,-39.062,-43.945,-74.219
1688305038.636,-38.086,-21.973,-44.922,-52.734,-231.445
1688305038.640,-43.457,-28.320,-59.082,-45.410,-291.016
1688305038.644,-28.320,-28.809,-57.617,-9.277,-147.461
1688305038.648,-6.348,-28.809,-44.922,15.625,159.180
1688305038.652,23.926,-35.156,-41.504,-8.301,196.289
1688305038.656,15.625,-35.645,-40.039,-39.551,-107.910
1688305038.659,21.973,-20.996,-37.598,-28.320,-264.160
1688305038.663,11.230,-18.066,-43.945,9.277,-27.344
1688305038.667,-23.926,-34.180,-41.016,20.020,331.543
1688305038.671,-9.766,-36.133,-32.227,-8.789,22.461
1688305038.675,-13.672,-27.344,-28.320,-18.066,-335.938
1688305038.661,-3.418,-25.879,-20.508,5.859,-206.055
1688305038.665,3.418,-36.621,-20.996,33.203,23.926
1688305038.669,-7.812,-31.738,-27.832,39.551,111.328
1688305038.673,15.625,-28.320,-16.113,13.184,-19.043
1688305038.677,-5.859,-30.762,-19.043,-19.531,-233.887
1688305038.681,-9.277,-28.809,-34.180,-15.625,-201.172
1688305038.685,-9.766,-33.691,-34.180,9.766,-39.551
1688305038.688,-23.926,-34.180,-20.508,30.273,168.457
1688305038.692,5.859,-34.668,-16.602,1.953,215.820
1688305038.696,1.953,-37.598,-23.926,-45.410,-67.871
1688305038.700,-14.648,-33.691,-26.855,-18.555,-315.918
1688305038.704,-5.859,-32.227,-25.391,22.461,-226.074
1688305038.721,5.859,-22.949,-18.066,62.988,315.918
1688305038.725,14.648,-24.902,-13.184,40.039,549.316
1688305038.729,-1.465,-28.809,-18.555,-22.461,-55.176
1688305038.733,-8.789,-38.086,-30.273,-28.320,-370.117
1688305038.737,3.906,-49.805,-35.156,2.930,-125.000
1688305038.741,-1.953,-33.691,-25.391,28.809,85.449
1688305038.745,-2.441,-26.855,-34.668,7.812,65.918
1688305038.748,-12.207,-41.992,-36.621,-37.598,-89.355
1688305038.752,-13.672,-45.410,-21.484,-33.203,-22.949
1688305038.756,-1.953,-43.945,-21.484,-0.488,-46.875
1688305038.760,-13.184,-40.039,-16.113,18.066,-35.156
1688305038.764,-2.441,-28.809,-8.301,19.043,154.785
1688305038.751,4.883,-35.156,-21.973,-16.602,25.391
1688305038.755,-18.555,-54.199,-36.133,-28.320,-301.270
1688305038.759,-4.395,-47.363,-29.785,3.906,-293.945
1688305038.763,-3.906,-35.645,-30.273,27.344,17.578
1688305038.767,-4.883,-34.668,-43.457,20.996,129.883
1688305038.771,-4.395,-34.668,-49.316,-23.438,-53.711
1688305038.775,-24.414,-32.715,-38.086,-50.781,-153.320
1688305038.778,-7.812,-24.902,-24.414,-19.531,-5.859
1688305038.782,-10.742,-35.645,-26.367,7.812,100.098
1688305038.786,-16.113,-43.457,-29.785,8.301,49.805
1688305038.790,-6.836,-38.086,-27.344,-24.414,-158.203
1688305038.794,-15.137,-37.109,-32.227,-43.457,-69.336
1688305038.812,-10.742,-37.598,-41.016,-17.578,295.410
1688305038.816,-19.531,-37.598,-46.875,15.137,166.504
1688305038.820,-30.762,-43.457,-57.617,4.883,43.457
1688305038.824,-19.043,-46.387,-53.711,-31.250,-72.266
1688305038.828,-20.508,-50.781,-41.504,-46.387,-314.941
1688305038.832,-10.742,-48.340,-34.180,-27.832,-249.512
1688305038.836,0.488,-38.086,-38.574,5.371,62.988
1688305038.839,-2.930,-39.551,-33.203,22.949,369.629
1688305038.843,-4.883,-42.969,-20.020,-1.953,88.379
1688305038.847,-15.137,-39.062,-24.902,-31.250,-297.363
1688305038.851,-25.879,-38.574,-40.039,-18.555,-287.109
1688305038.855,6.348,-28.320,-30.273,34.668,-128.418
1688305038.842,-0.977,-27.344,-27.344,41.504,29.785
1688305038.846,-18.555,-41.992,-41.504,-21.484,13.672
1688305038.850,-11.719,-30.273,-41.016,-44.434,-12.695
1688305038.854,-19.043,-21.484,-33.691,-40.039,-119.141
1688305038.858,-10.742,-25.391,-35.645,-16.113,-215.820
1688305038.862,-7.324,-23.926,-44.922,10.742,67.383
1688305038.866,4.883,-24.414,-50.293,-9.766,210.938
1688305038.869,-8.789,-27.344,-55.176,-48.340,-50.293
1688305038.873,-13.672,-35.156,-43.457,-44.922,-288.574
1688305038.877,-5.371,-45.410,-42.480,-8.301,-272.461
1688305038.881,-12.207,-37.109,-40.527,32.715,231.934
1688305038.885,5.371,-28.809,-25.879,21.973,478.516
1688305038.887,3.906,-35.156,-22.949,-35.156,-99.121
1688305038.891,-16.602,-33.203,-22.461,-41.016,-363.770
1688305038.895,-9.277,-26.855,-24.902,-1.953,-205.078
1688305038.899,-14.160,-26.855,-25.391,26.855,-7.324
1688305038.903,2.441,-25.879,-20.508,18.066,124.023
1688305038.907,2.930,-27.832,-29.297,-24.414,61.035
1688305038.911,-19.531,-29.785,-23.926,-28.320,238.281
1688305038.914,-11.230,-27.344,-9.277,3.418,85.449
1688305038.918,-4.883,-23.438,-6.836,27.832,-132.812
1688305038.922,-2.441,-25.879,-14.160,17.090,-26.855
1688305038.926,1.953,-30.762,-18.555,-26.367,-216.797
1688305038.930,-4.883,-34.180,-16.113,-44.922,-419.922
1688305038.946,-8.301,-39.551,-31.738,-11.719,-377.441
1688305038.950,-15.625,-27.832,-30.273,38.086,-71.289
1688305038.954,-16.602,-25.879,-15.625,25.391,57.617
1688305038.958,0.977,-27.832,-11.719,-13.672,-194.336
1688305038.962,-0.488,-19.043,-10.742,-19.043,-383.301
1688305038.966,-0.977,-20.020,-6.348,-3.418,-228.516
1688305038.970,5.371,-18.066,-1.465,26.367,60.547
1688305038.973,-3.418,-20.020,5.859,34.668,167.480
1688305038.977,-16.113,-36.621,2.930,-16.602,41.992
1688305038.981,-31.250,-45.898,-2.441,-41.992,-103.027
1688305038.985,-14.648,-51.270,-6.348,-2.930,-233.398
1688305038.989,9.766,-32.227,-11.230,38.086,-141.602
1688305038.991,11.719,-9.766,-5.371,36.621,49.316
1688305038.995,6.836,-20.996,-8.789,-11.230,250.977
1688305038.999,-4.395,-19.043,-22.461,-53.223,208.008
1688305039.003,-2.930,-10.742,-26.367,-43.457,-234.863
1688305039.007,-11.230,-16.113,-30.762,1.465,-132.324
1688305039.011,-22.461,-16.113,-30.273,16.602,193.848
1688305039.015,0.000,-6.348,-24.902,-30.273,60.547
1688305039.018,-1.465,-4.395,-23.926,-78.613,-288.086
1688305039.022,-10.254,-17.090,-28.320,-78.613,-317.871
1688305039.026,-6.836,-22.949,-36.621,-40.039,301.758
1688305039.030,-3.418,-17.578,-38.086,-21.973,404.297
1688305039.034,13.672,-13.184,-37.598,-49.316,-36.133
1688305039.051,9.277,-14.160,-39.062,-68.848,-219.727
1688305039.055,11.719,-17.090,-43.945,-52.734,-333.496
1688305039.059,32.715,-13.672,-36.133,-10.742,-254.395
1688305039.063,9.277,-16.113,-37.598,9.766,19.043
1688305039.067,3.906,-21.973,-51.270,-10.742,81.055
1688305039.071,9.766,-19.531,-46.387,-45.410,-92.285
1688305039.075,3.418,-21.484,-47.852,-51.758,-202.637
1688305039.078,14.160,-24.902,-44.922,-20.020,-138.184
1688305039.082,-1.953,-30.273,-41.504,16.113,338.867
1688305039.086,-11.719,-38.574,-54.199,1.465,537.598
1688305039.090,-9.766,-37.109,-55.664,-34.180,-115.723
1688305039.094,-9.766,-38.086,-44.922,-37.109,-383.789
1688305039.081,0.000,-48.340,-46.387,-15.137,-107.422
1688305039.085,-14.160,-44.922,-45.410,17.578,47.363
1688305039.089,-11.719,-33.203,-40.039,3.418,57.617
1688305039.093,-0.488,-21.973,-39.062,-31.738,-78.125
1688305039.097,-12.695,-20.996,-44.922,-36.621,-214.355
1688305039.101,3.418,-29.785,-44.434,-13.184,-165.527
1688305039.105,-1.465,-39.062,-39.551,21.484,74.219
1688305039.108,-13.672,-41.016,-47.363,19.531,262.207
1688305039.112,5.859,-32.227,-47.852,-27.832,126.953
1688305039.116,3.418,-30.762,-37.598,-55.664,-226.562
1688305039.120,0.977,-33.691,-31.738,-19.531,-293.945
1688305039.124,-6.348,-41.992,-38.574,13.672,97.656
1688305039.127,-11.719,-41.504,-47.363,-1.465,444.824
1688305039.131,-1.953,-40.039,-37.598,-29.297,73.730
1688305039.135,-14.648,-48.340,-36.621,-50.293,-211.426
1688305039.139,5.371,-44.434,-44.434,-30.273,-74.707
1688305039.143,11.230,-43.945,-41.504,3.418,92.773
1688305039.147,-3.418,-45.898,-35.156,18.066,225.098
1688305039.151,5.859,-39.062,-33.691,-7.812,61.523
1688305039.154,-3.906,-31.738,-27.832,-30.762,27.344
1688305039.158,4.395,-33.691,-23.438,-3.906,236.328
1688305039.162,2.930,-39.551,-33.691,16.602,0.000
1688305039.166,-12.207,-31.250,-23.926,16.602,-19.043
1688305039.170,-1.465,-23.926,-13.184,-7.812,-19.531
1688305039.172,-13.672,-40.039,-31.250,-40.527,-284.180
1688305039.176,-21.484,-45.898,-47.363,-39.551,-365.723
1688305039.180,-7.324,-35.645,-34.668,0.488,-155.273
1688305039.184,-7.324,-26.367,-25.391,20.508,65.918
1688305039.188,-9.766,-25.879,-28.320,-11.719,7.324
1688305039.192,-18.066,-29.297,-34.180,-48.340,-182.129
1688305039.196,-25.391,-34.180,-38.086,-46.387,-130.371
1688305039.199,-12.695,-39.062,-29.785,-2.930,299.316
1688305039.203,-5.859,-39.062,-21.973,30.762,337.891
1688305039.207,-1.465,-43.457,-21.484,7.812,-46.875
1688305039.211,-11.230,-39.062,-26.367,-35.156,-262.695
1688305039.215,-20.996,-39.062,-27.832,-38.086,-314.941
1688305039.216,-1.953,-39.551,-32.715,-7.812,-243.164
1688305039.220,-5.859,-35.156,-33.203,17.578,-30.762
1688305039.224,-4.883,-41.016,-24.414,3.418,79.102
1688305039.228,-13.184,-45.898,-18.555,-31.250,-124.023
1688305039.232,-41.016,-42.480,-16.602,-35.645,-252.441
1688305039.236,-23.926,-44.434,-19.043,-10.742,-55.664
1688305039.240,-10.254,-42.480,-25.391,19.043,463.867
1688305039.243,-6.348,-38.574,-31.738,18.066,533.691
1688305039.247,0.977,-36.133,-29.785,-35.156,5.859
1688305039.251,-11.230,-47.363,-25.879,-54.688,-299.316
1688305039.255,-2.930,-47.363,-27.832,-16.113,-64.453
1688305039.259,-0.977,-29.785,-26.367,25.391,196.777
1688305039.261,-1.953,-28.320,-35.645,8.789,18.555
1688305039.265,-3.418,-42.969,-42.969,-46.387,-166.992
1688305039.269,-21.973,-40.039,-23.926,-49.316,-327.637
1688305039.273,-5.371,-29.297,-21.973,-18.066,-281.250
1688305039.277,1.465,-33.691,-45.410,13.184,-103.516
1688305039.281,-16.602,-37.109,-49.805,22.461,140.137
1688305039.285,-21.484,-42.969,-45.898,-8.789,291.504
1688305039.288,-20.996,-46.387,-52.734,-39.551,-87.891
1688305039.292,-20.020,-44.922,-45.898,-21.484,-398.438
1688305039.296,-22.949,-39.062,-36.621,26.855,47.363
1688305039.300,-22.949,-33.691,-47.363,37.598,373.535
1688305039.304,-13.672,-40.527,-45.898,0.488,-45.898
1688305039.321,-24.414,-51.270,-44.922,-35.156,-316.406
1688305039.325,-11.719,-37.598,-44.922,-22.949,-219.727
1688305039.329,3.906,-29.785,-34.668,17.578,-17.578
1688305039.333,-19.531,-37.109,-36.133,17.090,93.750
1688305039.337,-11.719,-43.945,-41.992,-26.367,-19.043
1688305039.341,-10.742,-38.086,-52.246,-58.594,-81.055
1688305039.345,-18.555,-37.109,-45.898,-34.668,-72.266
1688305039.348,-2.930,-41.016,-33.203,5.371,-0.977
1688305039.352,-7.324,-39.551,-37.109,9.766,37.109
1688305039.356,1.465,-43.457,-35.156,0.488,230.469
1688305039.360,4.883,-36.621,-21.973,-22.461,278.320
1688305039.364,-4.883,-38.574,-12.695,-30.273,-168.457
1688305039.366,-2.930,-47.852,-19.531,4.395,-101.074
1688305039.370,-10.742,-38.086,-19.531,29.785,172.852
1688305039.374,-4.883,-31.738,-19.043,-1.465,-0.977
1688305039.378,-17.578,-38.574,-30.273,-43.945,-307.129
1688305039.382,-18.066,-43.457,-26.855,-42.480,-351.562
1688305039.386,4.395,-34.180,-19.043,-11.719,-155.762
1688305039.390,3.418,-28.320,-22.461,13.184,84.473
1688305039.393,11.230,-28.809,-28.809,-3.418,57.617
1688305039.397,7.324,-34.668,-32.227,-38.574,-92.285
1688305039.401,-8.301,-31.250,-33.203,-39.062,17.090
1688305039.405,-4.883,-31.250,-33.691,-6.348,-89.355
1688305039.409,-23.438,-45.410,-37.109,31.250,-93.262
1688305039.412,-15.625,-38.574,-35.156,24.902,137.207
1688305039.416,-15.137,-33.691,-30.273,-17.578,-46.387
1688305039.420,-44.922,-47.852,-35.156,-32.715,-289.062
1688305039.424,-25.391,-40.527,-38.086,-11.230,-205.566
1688305039.428,-26.367,-32.715,-36.133,23.438,116.211
1688305039.432,-42.969,-57.129,-34.180,19.043,230.957
1688305039.436,-25.879,-60.059,-41.016,-26.855,-45.410
1688305039.439,-19.531,-31.738,-51.758,-38.086,-198.730
1688305039.443,-4.395,-25.391,-40.527,0.488,43.457
1688305039.447,-12.207,-41.016,-27.344,16.113,416.992
1688305039.451,-42.480,-39.062,-38.086,-13.672,200.684
1688305039.455,-23.438,-26.855,-42.969,-55.176,-134.277
1688305039.456,-42.480,-41.504,-45.898,-74.707,-291.504
1688305039.460,-51.270,-43.945,-45.898,-54.199,-337.891
1688305039.464,-36.133,-51.758,-29.785,-14.160,-123.047
1688305039.468,-57.617,-61.035,-28.809,-15.137,104.492
1688305039.472,-64.453,-45.898,-42.480,-71.289,22.949
1688305039.476,-83.008,-56.641,-59.082,-108.398,-158.691
1688305039.480,-81.055,-51.270,-60.547,-89.355,-143.555
1688305039.483,-70.312,-29.297,-50.781,-51.270,167.480
1688305039.487,-61.523,-33.203,-40.039,-32.715,579.590
1688305039.491,-41.016,-33.691,-39.551,-58.594,288.574
1688305039.495,-31.250,-38.086,-44.922,-77.637,-267.090
1688305039.499,-26.367,-45.898,-41.504,-54.688,-300.293
1688305039.501,-46.875,-56.152,-42.969,-25.391,-144.531
1688305039.505,-51.270,-54.688,-39.551,-0.977,19.043
1688305039.509,-16.113,-45.898,-40.527,-13.672,-52.734
1688305039.513,-26.855,-50.293,-48.828,-44.434,-252.441
1688305039.517,-34.180,-57.129,-40.039,-31.250,-338.867
1688305039.521,-28.809,-57.617,-43.457,4.395,-131.836
1688305039.525,-37.598,-56.152,-61.523,5.859,104.492
1688305039.528,-16.113,-45.410,-61.523,-24.414,256.348
1688305039.532,-10.742,-43.945,-42.480,-55.664,449.707
1688305039.536,-27.344,-63.477,-31.738,-68.848,-20.020
1688305039.540,-7.812,-58.105,-19.531,-29.297,-280.273
1688305039.544,3.906,-43.457,-6.348,25.391,24.414
1688305039.546,-4.883,-45.410,-23.438,11.230,56.152
1688305039.550,-20.508,-48.828,-33.203,-36.133,-217.773
1688305039.554,-40.039,-48.340,-31.738,-35.645,-333.496
1688305039.558,-35.156,-49.316,-38.086,-6.836,-145.020
1688305039.562,-18.066,-55.664,-38.086,24.414,23.926
1688305039.566,-17.090,-50.781,-35.645,11.230,104.004
1688305039.570,-18.066,-47.852,-39.062,-28.809,78.613
1688305039.573,-7.812,-43.457,-33.203,-35.156,88.867
1688305039.577,3.906,-36.621,-23.926,-17.090,-57.129
1688305039.581,-5.371,-46.875,-39.062,5.859,-48.340
1688305039.585,-14.648,-40.527,-55.664,10.742,218.262
1688305039.589,-15.625,-38.574,-59.082,-20.996,55.664
1688305039.591,-13.672,-36.621,-54.688,-63.965,-334.473
1688305039.595,-7.812,-34.180,-42.480,-42.969,-272.461
1688305039.599,-20.508,-53.711,-37.598,-3.906,14.648
1688305039.603,-14.160,-56.152,-35.645,-5.859,126.953
1688305039.607,-3.906,-37.109,-25.879,-30.273,-79.102
1688305039.611,-24.902,-43.457,-26.855,-51.270,-225.098
1688305039.615,-19.043,-54.199,-33.691,-25.391,85.938
1688305039.618,-9.277,-46.387,-21.973,27.832,450.195
1688305039.622,-22.949,-49.316,-17.578,23.438,226.074
1688305039.626,-22.949,-50.293,-35.156,-30.762,-129.395
1688305039.630,-24.414,-54.199,-47.363,-58.105,-232.422
1688305039.634,-18.555,-57.129,-35.645,-32.715,-290.039
1688305039.638,-6.348,-46.875,-25.879,-9.766,-158.691
1688305039.642,0.000,-49.805,-39.062,-5.859,105.957
1688305039.646,10.254,-40.039,-42.480,-17.578,93.262
1688305039.650,-9.277,-21.484,-27.344,-27.344,-143.066
1688305039.654,-27.832,-28.320,-20.996,-28.809,-294.922
1688305039.658,-22.949,-44.434,-21.484,-11.230,22.949
1688305039.662,-20.508,-43.945,-10.254,19.043,427.246
1688305039.665,-20.508,-39.062,-5.859,-1.465,140.625
1688305039.669,-22.461,-39.551,-15.625,-28.320,-288.574
1688305039.673,0.488,-38.086,-8.301,-5.371,-178.223
1688305039.677,-3.418,-60.059,-8.301,25.879,36.133
1688305039.681,-38.574,-73.730,-24.414,28.809,41.992
1688305039.697,-30.762,-60.547,-23.926,7.324,-5.859
1688305039.701,-14.160,-50.293,-24.414,-11.230,-168.945
1688305039.705,-16.602,-43.457,-26.855,0.000,-279.785
1688305039.709,-13.672,-43.945,-26.367,19.531,-190.918
1688305039.713,-26.855,-49.805,-31.738,26.855,-25.879
1688305039.717,-24.414,-47.852,-24.414,14.648,327.148
1688305039.721,-10.254,-49.805,-22.461,-24.902,279.297
1688305039.724,-22.949,-50.781,-23.438,-39.062,-198.730
1688305039.728,-21.484,-48.340,-22.461,7.324,-245.117
1688305039.732,-29.785,-57.129,-39.062,50.293,206.055
1688305039.736,-31.738,-62.988,-41.016,26.367,433.594
1688305039.740,-5.371,-62.988,-29.785,-28.320,-150.879
1688305039.756,-17.578,-62.500,-39.551,-53.711,-417.480
1688305039.760,-15.137,-53.711,-48.340,-34.180,-235.352
1688305039.764,-5.371,-45.410,-41.016,0.977,-13.184
1688305039.768,-13.184,-40.527,-20.020,-3.418,12.207
1688305039.772,-12.207,-30.273,-20.020,-36.621,-126.465
1688305039.776,0.488,-33.203,-35.645,-40.039,-155.762
1688305039.780,-9.766,-46.387,-37.109,-21.484,-59.082
1688305039.783,-30.273,-44.922,-41.992,2.441,108.887
1688305039.787,-23.926,-46.387,-40.039,8.301,225.586
1688305039.791,-17.578,-54.688,-40.527,-22.461,339.355
1688305039.795,-26.367,-58.594,-50.781,-49.805,29.297
1688305039.799,-8.789,-51.758,-36.621,-21.973,-249.512
1688305039.786,-4.395,-51.758,-21.484,21.973,63.477
1688305039.790,-18.066,-53.711,-12.207,22.949,227.051
1688305039.794,-3.906,-48.340,-18.066,-12.207,-25.391
1688305039.798,-0.488,-36.621,-21.484,-35.645,-270.996
1688305039.802,-4.395,-37.598,-18.066,-16.602,-218.750
1688305039.806,4.883,-40.039,-18.066,23.926,22.461
1688305039.810,-10.742,-58.594,-20.020,7.324,156.250
1688305039.813,3.418,-48.828,-12.695,-12.207,98.145
1688305039.817,-3.906,-25.391,-21.973,-26.855,-20.508
1688305039.821,-18.555,-37.109,-38.086,-45.898,-159.180
1688305039.825,-2.930,-44.434,-32.227,1.465,-155.762
1688305039.829,-24.902,-46.875,-43.457,7.812,-45.410
1688305039.846,-19.531,-43.457,-41.504,-17.578,149.902
1688305039.850,-20.996,-61.523,-24.902,-41.992,264.648
1688305039.854,-30.762,-64.453,-22.461,-47.363,-146.484
1688305039.858,-26.367,-49.316,-32.715,-13.184,-225.586
1688305039.862,-35.645,-44.434,-38.086,2.441,34.180
1688305039.866,-13.672,-40.039,-31.738,-12.695,-27.832
1688305039.870,-11.719,-40.527,-41.016,-53.711,-210.449
1688305039.873,-21.973,-41.504,-47.363,-63.477,-252.441
1688305039.877,-10.254,-40.527,-39.062,-24.414,58.105
1688305039.881,-12.695,-40.039,-45.898,8.789,74.219
1688305039.885,-12.695,-49.805,-44.922,-0.488,-20.508
1688305039.889,-18.066,-53.223,-26.855,-32.715,-44.922
1688305039.877,-35.645,-48.340,-25.879,-42.969,-275.879
1688305039.881,-31.250,-44.922,-24.902,-10.742,-305.664
1688305039.885,-41.016,-60.059,-26.855,22.461,-40.527
1688305039.889,-27.832,-63.477,-27.832,4.395,191.406
1688305039.893,-15.625,-51.758,-25.879,-25.391,21.973
1688305039.897,-30.273,-57.129,-29.297,-34.668,-196.777
1688305039.901,-20.508,-55.664,-34.668,-8.789,-61.523
1688305039.904,-18.066,-51.270,-33.203,35.645,277.344
1688305039.908,-20.508,-39.551,-40.527,29.785,260.742
1688305039.912,-16.602,-30.762,-41.992,-7.324,-166.504
1688305039.916,-20.020,-30.273,-27.832,-13.672,-410.645
1688305039.920,-1.465,-32.715,-15.137,4.883,-5.371
1688305039.922,-8.301,-44.434,-14.160,19.043,485.352
1688305039.926,-24.902,-50.781,-28.320,7.812,202.637
1688305039.930,-13.184,-49.805,-26.855,-20.508,-142.090
1688305039.934,-16.113,-44.922,-18.555,-39.551,-216.309
1688305039.938,-12.695,-38.574,-19.043,-17.578,-257.812
1688305039.942,-3.906,-30.273,-19.043,17.578,-91.797
1688305039.946,-7.324,-28.320,-24.414,30.762,230.957
1688305039.949,9.766,-46.875,-20.508,0.488,438.477
1688305039.953,4.395,-43.945,-18.555,-46.875,46.387
1688305039.957,1.465,-23.438,-25.391,-15.137,-329.102
1688305039.961,-0.977,-12.695,-32.227,45.898,-50.293
1688305039.965,-9.277,-19.043,-50.293,29.785,104.980
1688305039.966,-1.465,-42.480,-67.871,-23.438,-113.770
1688305039.970,-15.625,-56.641,-55.176,-54.688,-346.680
1688305039.974,-23.438,-50.781,-36.133,-34.668,-315.430
1688305039.978,-16.602,-36.133,-37.598,21.484,-51.270
1688305039.982,-11.719,-25.879,-43.457,36.133,162.598
1688305039.986,10.742,-28.320,-32.227,0.488,133.301
1688305039.990,-6.348,-39.551,-22.461,-33.203,91.309
1688305039.993,-24.414,-47.852,-32.227,-28.809,381.836
1688305039.997,-0.488,-42.480,-19.043,8.789,254.883
1688305040.001,-8.301,-27.832,-10.254,34.180,-33.203
1688305040.005,-9.766,-28.809,-29.297,-2.441,-21.973
1688305040.009,-13.672,-36.133,-42.480,-53.223,-225.098
1688305040.012,-15.137,-33.691,-37.598,-50.293,-428.711
1688305040.016,-17.090,-40.527,-33.203,-15.625,-298.828
1688305040.020,-25.879,-44.922,-39.062,2.930,9.277
1688305040.024,-6.348,-49.316,-29.785,-15.137,4.883
1688305040.028,-16.113,-57.129,-35.645,-49.805,-225.586
1688305040.032,-38.086,-55.176,-41.016,-65.918,-139.648
1688305040.036,-36.621,-56.641,-24.414,-26.367,105.957
1688305040.039,-40.039,-62.012,-29.297,13.184,152.344
1688305040.043,-18.066,-47.852,-29.297,-0.488,18.555
1688305040.047,-1.953,-25.879,-30.273,-31.738,-63.477
1688305040.051,-38.086,-39.551,-42.969,-51.758,-35.645
1688305040.055,-35.156,-46.387,-49.805,-32.715,-171.387
1688305040.072,-32.227,-39.062,-48.828,3.906,-41.992
1688305040.076,-19.531,-49.316,-55.664,1.953,59.082
1688305040.080,-7.812,-45.898,-64.941,-25.391,-105.469
1688305040.084,-58.594,-46.875,-74.219,-61.035,-270.996
1688305040.088,-54.199,-52.734,-58.105,-47.852,-249.023
1688305040.092,-26.855,-51.758,-31.738,13.672,69.336
1688305040.096,-21.484,-60.059,-37.109,5.859,314.453
1688305040.099,-17.090,-58.594,-43.457,-42.969,165.527
1688305040.103,-34.180,-59.082,-41.016,-60.547,-187.988
1688305040.107,-17.090,-54.688,-41.016,-18.066,-48.340
1688305040.111,-15.137,-53.711,-50.781,19.531,478.027
1688305040.115,-34.180,-57.129,-54.199,17.090,275.391
1688305040.116,-5.859,-53.711,-50.781,-9.766,-193.359
1688305040.120,10.742,-46.875,-45.410,-28.809,-319.336
1688305040.124,20.996,-37.598,-37.598,-7.812,-325.195
1688305040.128,27.832,-37.109,-41.504,26.367,-186.523
1688305040.132,14.160,-42.969,-41.992,39.551,89.355
1688305040.136,22.461,-41.016,-38.086,7.812,115.234
1688305040.140,14.160,-44.434,-43.945,-14.160,-190.918
1688305040.143,22.949,-43.945,-41.504,-3.906,-326.172
1688305040.147,29.297,-42.969,-35.156,23.438,-58.105
1688305040.151,1.953,-46.387,-49.316,30.273,369.629
1688305040.155,11.719,-45.410,-49.805,-12.695,205.078
1688305040.159,24.414,-43.945,-32.227,-51.270,-276.855
1688305040.161,22.461,-44.434,-46.387,-50.293,-248.047
1688305040.165,12.695,-41.992,-59.082,-11.719,-16.602
1688305040.169,0.488,-40.039,-49.316,5.371,-1.465
1688305040.173,3.906,-38.574,-43.457,-14.648,-52.734
1688305040.177,-13.672,-36.133,-49.805,-41.504,-191.406
1688305040.181,-27.832,-42.480,-49.805,-39.551,-229.980
1688305040.185,-1.465,-47.852,-39.551,-5.859,-119.629
1688305040.188,-6.836,-52.734,-41.504,17.578,95.703
1688305040.192,-3.906,-39.062,-44.434,-0.977,312.500
1688305040.196,-6.348,-37.598,-55.176,-41.504,308.105
1688305040.200,-31.738,-52.734,-60.547,-42.480,-126.465
1688305040.204,-20.020,-44.922,-42.969,-12.695,-238.281
1688305040.207,-15.137,-31.250,-36.133,12.207,24.414
1688305040.211,-0.977,-28.809,-36.133,6.348,124.023
1688305040.215,-8.301,-37.109,-37.109,-36.621,-148.438
1688305040.219,-17.090,-37.598,-39.062,-39.551,-305.176
1688305040.223,-9.277,-34.180,-36.621,3.906,-99.121
1688305040.227,-28.320,-37.109,-37.598,26.367,115.234
1688305040.231,-19.043,-33.691,-37.598,14.648,83.008
1688305040.234,-0.977,-34.180,-36.621,-26.367,-89.844
1688305040.238,-5.371,-29.297,-29.297,-35.645,-3.418
1688305040.242,-5.371,-24.902,-29.785,-5.859,-80.566
1688305040.246,-1.465,-24.414,-26.855,30.762,-94.238
1688305040.250,10.254,-22.461,-23.926,30.762,112.305
1688305040.251,7.324,-34.180,-36.133,-24.414,-61.523
1688305040.255,-17.090,-41.992,-37.598,-42.480,-349.121
1688305040.259,-4.883,-27.344,-33.691,-13.184,-331.543
1688305040.263,-14.648,-30.762,-32.715,23.438,50.781
1688305040.267,-18.555,-32.227,-32.227,29.785,205.078
1688305040.271,14.648,-20.508,-25.879,-2.930,48.828
1688305040.275,3.418,-30.273,-27.344,-24.414,-179.688
1688305040.278,6.348,-38.574,-24.414,-7.324,-75.195
1688305040.282,7.812,-34.180,-18.555,34.180,503.906
1688305040.286,-1.953,-25.391,-24.414,41.504,404.785
1688305040.290,5.859,-22.949,-25.391,-7.324,-110.352
1688305040.294,3.906,-23.438,-26.367,-38.086,-283.691
1688305040.296,10.254,-22.461,-30.762,-11.719,-265.625
1688305040.300,0.000,-24.414,-30.273,20.020,-113.281
1688305040.304,-20.020,-39.551,-29.785,25.879,74.707
1688305040.308,-8.301,-42.969,-32.227,-5.371,11.230
1688305040.312,-12.207,-38.574,-39.062,-40.527,-237.793
1688305040.316,-16.602,-37.598,-43.457,-27.832,-352.539
1688305040.320,-16.602,-35.156,-42.480,-2.441,-78.613
1688305040.323,-10.742,-41.016,-36.621,23.438,535.156
1688305040.327,18.066,-36.621,-32.227,7.324,324.219
1688305040.331,5.859,-23.438,-32.715,-39.062,-326.172
1688305040.335,-19.043,-25.391,-34.180,-47.852,-262.207
1688305040.339,-21.973,-33.203,-36.133,-17.090,-18.066
1688305040.341,-15.137,-29.297,-38.574,9.277,13.184
1688305040.345,0.977,-22.461,-40.527,-11.230,1.953
1688305040.349,-2.441,-22.461,-44.922,-49.316,-106.445
1688305040.353,-13.184,-29.785,-52.734,-64.941,-201.660
1688305040.357,-16.602,-37.598,-54.199,-27.832,-90.332
1688305040.361,-26.855,-42.969,-52.734,12.207,150.391
1688305040.365,-12.695,-37.598,-53.223,-4.395,421.875
1688305040.368,-17.090,-38.086,-53.711,-44.922,350.586
1688305040.372,-24.902,-40.527,-60.059,-62.988,-166.992
1688305040.376,-5.859,-43.457,-60.547,-36.133,-236.816
1688305040.380,-20.508,-45.410,-50.781,-2.441,173.340
1688305040.384,-10.742,-37.109,-43.945,-15.137,236.328
1688305040.386,-6.836,-35.156,-53.223,-47.852,-216.797
1688305040.390,-25.879,-22.949,-46.387,-49.805,-384.277
1688305040.394,0.977,-19.531,-33.691,-14.648,-200.195
1688305040.398,-5.371,-36.133,-41.992,13.672,5.859
1688305040.402,-12.207,-42.969,-52.246,-6.836,119.141
1688305040.406,-2.930,-46.387,-56.152,-39.062,104.492
1688305040.410,-6.836,-47.852,-51.758,-48.340,3.418
1688305040.413,5.859,-42.480,-48.340,-28.320,-136.719
1688305040.417,-15.137,-34.668,-39.551,21.973,-98.145
1688305040.421,-11.719,-27.832,-35.156,24.414,159.668
1688305040.425,0.488,-34.180,-45.898,-24.414,106.934
1688305040.429,-20.996,-37.109,-54.199,-42.969,-180.664
1688305040.432,-20.020,-38.086,-47.852,-26.855,-229.492
1688305040.436,-24.902,-41.016,-27.344,13.184,73.242
1688305040.440,-31.738,-51.270,-22.949,22.461,262.207
1688305040.444,-18.066,-64.941,-38.086,-24.902,-89.844
1688305040.448,-29.297,-53.223,-42.969,-57.617,-343.750
1688305040.452,-22.461,-41.992,-39.062,-40.527,-164.551
1688305040.456,-11.230,-44.434,-29.297,1.953,55.664
1688305040.459,-30.762,-43.457,-21.484,18.066,136.719
1688305040.463,-39.062,-47.852,-38.574,-30.273,-5.371
1688305040.467,-48.828,-52.734,-49.805,-70.312,-49.805
1688305040.471,-31.738,-46.875,-44.922,-39.062,41.016
1688305040.475,-19.531,-54.199,-44.434,-6.836,-161.621
1688305040.491,-38.086,-59.082,-40.039,18.555,-91.797
1688305040.495,-20.508,-49.316,-42.480,7.324,52.246
1688305040.499,-16.113,-38.086,-50.293,-38.574,-130.859
1688305040.503,-24.414,-37.109,-56.641,-41.992,-352.539
1688305040.507,-3.906,-42.969,-38.574,5.859,-105.469
1688305040.511,-24.902,-46.387,-28.320,27.344,354.980
1688305040.515,-15.137,-47.852,-33.691,-12.695,304.199
1688305040.518,-11.230,-48.340,-34.668,-63.965,-166.992
1688305040.522,-39.551,-47.852,-36.621,-61.035,-275.391
1688305040.526,-19.531,-38.086,-47.363,-23.926,75.684
1688305040.530,-21.973,-24.414,-38.086,3.906,105.957
1688305040.534,-1.465,-28.320,-27.832,1.953,-51.758
1688305040.536,4.395,-29.297,-33.203,-28.320,-152.832
1688305040.540,-24.414,-31.250,-39.062,-35.156,-260.254
1688305040.544,-11.719,-40.039,-36.621,-2.930,-231.445
1688305040.548,-12.207,-30.273,-22.461,30.273,-0.977
1688305040.552,-6.348,-28.809,-28.809,17.090,196.777
1688305040.556,-9.766,-55.176,-35.156,-14.648,55.664
1688305040.560,-20.508,-72.266,-37.109,-26.855,-210.938
1688305040.563,0.000,-48.340,-41.504,-5.371,-224.121
1688305040.567,-12.695,-30.762,-41.504,23.438,239.258
1688305040.571,-27.344,-37.109,-41.504,9.766,623.047
1688305040.575,-24.414,-34.180,-31.250,-19.043,102.051
1688305040.579,-34.668,-33.691,-32.227,-33.691,-398.926
1688305040.581,-23.926,-38.086,-42.480,-26.855,-275.879
1688305040.585,-16.602,-46.387,-42.969,-2.441,-52.734
1688305040.589,-24.902,-49.805,-40.039,-3.418,18.066
1688305040.593,-22.949,-40.039,-40.039,-50.293,-110.352
1688305040.597,-26.367,-37.109,-36.133,-71.289,-256.836
1688305040.601,-18.066,-40.039,-30.762,-32.227,-135.254
1688305040.605,-26.367,-42.480,-30.273,6.348,137.207
1688305040.608,-35.156,-39.062,-40.039,14.160,304.688
1688305040.612,-2.441,-37.109,-41.992,-14.648,448.730
1688305040.616,-13.672,-40.527,-42.480,-59.570,39.551
1688305040.620,-19.043,-37.598,-40.527,-48.340,-360.352
1688305040.624,-9.766,-44.434,-37.598,-7.812,-100.586
1688305040.626,-37.598,-56.152,-35.645,1.953,89.844
1688305040.630,-15.137,-51.270,-39.062,-30.273,-46.387
1688305040.634,-26.855,-61.035,-52.246,-61.035,-291.016
1688305040.638,-37.598,-68.848,-46.387,-38.086,-318.359
1688305040.642,-21.973,-55.176,-40.527,-10.742,-134.766
1688305040.646,-42.480,-41.016,-41.504,-1.465,108.398
1688305040.650,-22.461,-37.109,-41.992,-25.879,45.410
1688305040.653,-29.785,-42.969,-46.875,-53.223,32.227
1688305040.657,-37.109,-42.969,-42.480,-41.016,168.457
1688305040.661,-21.484,-40.039,-40.527,-15.137,-4.395
1688305040.665,-40.527,-40.039,-43.457,-0.977,-6.836
1688305040.669,-16.602,-40.527,-30.273,-16.113,218.750
1688305040.671,-14.648,-46.387,-34.180,-48.340,90.332
1688305040.675,-24.902,-51.270,-34.668,-50.781,-296.875
1688305040.679,-13.672,-49.316,-18.555,-10.742,-185.547
1688305040.683,-12.695,-41.992,-22.461,27.344,69.824
1688305040.687,0.977,-32.715,-20.020,8.301,53.711
1688305040.691,-3.418,-31.250,-16.113,-36.621,-164.062
1688305040.695,-21.973,-42.969,-19.531,-47.363,-187.988
1688305040.698,-15.625,-46.387,-14.160,-8.789,138.672
1688305040.702,-15.137,-31.738,-11.719,21.973,188.965
1688305040.706,-7.812,-30.273,-21.484,-3.418,33.203
1688305040.710,-21.973,-60.547,-33.691,-38.086,-125.977
1688305040.714,-40.527,-61.523,-39.062,-52.734,-242.676
1688305040.716,-16.602,-37.598,-30.762,-18.066,-205.566
1688305040.720,-6.836,-34.180,-26.367,32.715,-94.727
1688305040.724,-9.277,-31.738,-32.227,5.859,130.859
1688305040.728,-7.324,-30.273,-33.203,-47.363,30.762
1688305040.732,-15.625,-35.156,-34.668,-58.594,-276.855
1688305040.736,-20.996,-40.527,-42.480,-36.621,-229.980
1688305040.740,-23.926,-52.246,-48.828,-7.324,270.020
1688305040.743,-28.320,-54.688,-39.062,0.977,668.457
1688305040.747,-24.902,-42.969,-33.691,-33.691,79.102
1688305040.751,-31.738,-31.250,-29.297,-63.477,-381.348
1688305040.755,-26.855,-29.297,-32.715,-38.086,-253.906
1688305040.759,-10.742,-41.504,-38.086,9.766,-44.434
1688305040.776,-4.883,-47.852,-30.762,15.625,27.832
1688305040.780,6.348,-47.363,-34.180,-20.996,-119.629
1688305040.784,0.977,-47.852,-38.086,-37.109,-70.312
1688305040.788,9.766,-38.574,-25.879,-25.391,-107.422
1688305040.792,13.184,-30.762,-23.438,5.859,-191.895
1688305040.796,-18.066,-39.062,-26.367,20.996,115.723
1688305040.800,-14.160,-43.945,-34.180,-13.184,337.891
1688305040.803,-11.719,-38.086,-40.039,-43.457,-94.238
1688305040.807,-7.324,-37.109,-34.180,-30.762,-426.758
1688305040.811,4.883,-41.016,-32.715,14.160,-80.078
1688305040.815,-15.137,-35.645,-27.832,42.480,207.520
1688305040.819,-22.461,-52.734,-39.551,-20.508,9.277
1688305040.821,-19.043,-74.707,-47.363,-60.547,-237.305
1688305040.825,-19.531,-75.195,-45.898,-47.852,-304.688
1688305040.829,-13.184,-46.387,-57.617,-10.254,-102.051
1688305040.833,-30.273,-35.156,-66.406,17.090,115.234
1688305040.837,-30.762,-52.734,-50.293,-10.742,47.852
1688305040.841,-30.273,-53.711,-38.574,-42.480,-13.672
1688305040.845,-34.668,-50.293,-43.945,-41.016,-104.004
1688305040.848,-22.461,-42.969,-46.875,-16.602,-96.680
1688305040.852,-26.855,-40.039,-39.062,-0.488,101.562
1688305040.856,-18.066,-48.828,-33.203,-15.625,264.160
1688305040.860,-13.184,-55.664,-41.016,-43.457,241.211
1688305040.864,-22.461,-64.453,-48.828,-51.270,-211.426
1688305040.866,-16.602,-59.082,-45.898,-18.555,-284.668
1688305040.870,-16.602,-51.758,-40.527,13.672,30.273
1688305040.874,-9.766,-55.176,-42.480,-2.441,45.898
1688305040.878,-13.184,-50.293,-41.504,-37.109,-273.926
1688305040.882,-24.902,-48.340,-41.992,-55.664,-323.242
1688305040.886,-0.977,-41.992,-38.086,-5.371,-61.035
1688305040.890,-10.742,-41.016,-42.480,32.715,75.195
1688305040.893,-25.391,-61.035,-55.176,-4.883,89.844
1688305040.897,-19.531,-57.617,-56.641,-44.922,-32.715
1688305040.901,-30.762,-44.922,-54.688,-55.664,54.199
1688305040.905,-36.133,-55.664,-51.758,-24.902,-29.785
1688305040.909,-31.738,-63.477,-47.852,10.742,-96.680
1688305040.911,-12.207,-44.922,-38.086,17.090,177.734
1688305040.915,-18.066,-37.598,-34.180,-31.738,152.832
1688305040.919,-37.109,-45.898,-39.062,-63.965,-269.531
1688305040.923,-15.137,-44.922,-40.527,-32.715,-302.734
1688305040.927,-12.695,-40.527,-39.062,12.695,-16.602
1688305040.931,-18.555,-41.504,-35.156,26.855,110.352
1688305040.935,-7.324,-37.109,-36.133,-10.254,18.066
1688305040.938,-25.879,-45.898,-31.250,-36.133,-227.051
1688305040.942,-17.090,-44.922,-24.414,-22.949,-67.871
1688305040.946,-9.766,-33.691,-23.438,9.277,594.727
1688305040.950,-15.625,-38.086,-28.809,10.742,518.555
1688305040.954,-0.488,-42.480,-39.062,-27.344,-52.246
1688305040.956,-8.789,-45.898,-40.527,-53.223,-286.133
1688305040.960,-16.113,-55.176,-40.527,-49.316,-375.000
1688305040.964,-24.414,-50.293,-40.527,-13.184,-198.730
1688305040.968,-30.273,-41.504,-32.715,9.277,73.242
1688305040.972,-34.180,-55.176,-32.715,-24.414,15.137
1688305040.976,-45.898,-60.547,-35.156,-46.387,-233.887
1688305040.980,-34.180,-54.199,-28.809,-34.668,-265.625
1688305040.983,-26.367,-56.641,-38.086,-7.812,-74.219
1688305040.987,-31.250,-57.617,-50.293,19.043,326.660
1688305040.991,-16.113,-61.035,-41.992,-1.953,183.105
1688305040.995,-10.742,-56.641,-37.109,-38.086,-287.109
1688305040.999,-12.695,-43.457,-42.969,-39.062,-243.164
1688305041.001,-9.277,-39.551,-36.133,-9.277,-7.812
1688305041.005,-14.648,-44.434,-24.902,20.508,48.340
1688305041.009,-7.812,-56.152,-26.855,-6.348,11.230
1688305041.013,-16.602,-49.316,-32.227,-45.898,-36.133
1688305041.017,-47.852,-43.945,-32.227,-42.969,-140.137
1688305041.021,-33.203,-51.758,-22.461,-23.438,-101.074
1688305041.025,-22.949,-41.016,-21.973,4.883,121.582
1688305041.028,-24.414,-37.598,-27.832,-0.977,296.387
1688305041.032,-16.602,-45.410,-30.273,-42.969,263.184
1688305041.036,-17.578,-41.992,-34.668,-50.293,-212.891
1688305041.040,-1.465,-39.551,-42.480,-15.625,-269.531
1688305041.044,-9.277,-36.133,-38.086,20.508,15.137
1688305041.047,-4.883,-33.203,-21.973,10.742,63.477
1688305041.051,3.906,-40.039,-23.926,-21.973,-175.293
1688305041.055,-30.273,-52.734,-42.480,-47.363,-306.641
1688305041.059,-39.551,-55.176,-48.340,-40.039,-123.047
1688305041.063,-39.551,-57.617,-43.457,-10.742,17.578
1688305041.067,-34.180,-59.082,-51.758,-31.738,68.359
1688305041.071,-27.344,-52.734,-56.152,-66.895,79.102
1688305041.074,-38.086,-55.664,-53.711,-70.801,77.148
1688305041.078,-25.879,-59.570,-56.152,-53.711,-152.832
1688305041.082,-26.367,-51.758,-57.129,-13.184,-131.348
1688305041.086,-21.484,-42.969,-55.176,3.906,118.652
1688305041.090,-5.371,-45.410,-56.152,-37.598,-41.992
1688305041.092,-16.602,-41.504,-59.570,-58.594,-323.730
1688305041.096,-17.090,-50.293,-61.035,-36.621,-284.668
1688305041.100,-17.578,-54.199,-47.852,8.301,-62.012
1688305041.104,-25.879,-49.805,-30.762,9.277,107.422
1688305041.108,-17.090,-52.734,-41.504,-44.922,-6.836
1688305041.112,-25.391,-48.828,-55.176,-62.988,-217.285
1688305041.116,-31.250,-44.922,-45.410,-46.875,86.426
1688305041.119,-24.414,-51.270,-48.340,-12.695,526.367
1688305041.123,-29.785,-58.105,-54.199,-1.465,312.012
1688305041.127,-25.391,-62.500,-48.828,-39.062,-49.316
1688305041.131,-34.668,-61.035,-45.898,-61.523,-118.652
1688305041.135,-29.785,-52.734,-35.156,-36.133,-161.133
1688305041.136,-24.902,-53.223,-32.227,-9.277,-198.242
1688305041.140,-41.504,-53.223,-46.875,-2.441,30.762
1688305041.144,-28.809,-45.898,-49.805,-21.484,41.504
1688305041.148,-15.137,-41.504,-39.062,-51.758,-206.543
1688305041.152,-16.602,-43.945,-34.668,-43.457,-351.074
1688305041.156,-29.785,-49.316,-40.039,-11.230,-126.465
1688305041.160,-34.668,-53.711,-39.551,8.301,328.125
1688305041.163,-24.902,-65.430,-40.039,-20.996,260.742
1688305041.167,-28.320,-60.059,-46.875,-64.453,-168.457
1688305041.171,-23.438,-49.805,-44.434,-50.293,-272.461
1688305041.175,-12.695,-59.570,-33.691,-10.254,-20.020
1688305041.179,-23.438,-54.199,-35.645,3.906,60.547
1688305041.181,-22.949,-39.551,-41.992,-20.996,3.906
1688305041.185,-11.230,-43.457,-41.504,-60.059,-130.371
1688305041.189,-22.461,-46.387,-51.270,-56.152,-326.172
1688305041.193,-23.926,-55.176,-41.016,-21.973,-313.965
1688305041.197,-23.438,-60.059,-25.879,-2.441,-33.691
1688305041.201,-2.930,-41.504,-41.016,-7.324,243.652
1688305041.205,6.836,-48.828,-47.363,-33.203,134.766
1688305041.208,-26.855,-61.523,-37.109,-60.547,-143.066
1688305041.212,-43.945,-46.875,-31.738,-48.340,-183.105
1688305041.216,-38.574,-37.598,-27.344,8.301,277.344
1688305041.220,-44.922,-37.109,-32.715,5.859,699.707
1688305041.224,-51.270,-46.387,-53.711,-69.336,152.832
1688305041.241,-54.688,-50.293,-49.316,-85.449,-335.938
1688305041.245,-55.176,-56.641,-39.062,-54.199,-298.828
1688305041.249,-62.988,-57.617,-43.457,-30.762,-93.262
1688305041.253,-65.918,-50.781,-41.016,-32.227,27.344
1688305041.257,-54.199,-58.594,-38.086,-65.430,-23.438
1688305041.261,-70.312,-64.453,-45.410,-87.891,-110.840
1688305041.265,-52.246,-52.734,-44.922,-66.895,-124.023
1688305041.268,-45.898,-45.410,-34.180,-13.672,-37.109
1688305041.272,-55.664,-44.922,-28.320,3.906,168.457
1688305041.276,-41.992,-59.082,-38.574,-32.715,242.676
1688305041.280,-42.480,-57.129,-39.551,-56.152,-170.410
1688305041.284,-30.762,-43.945,-31.738,-35.645,-368.164
1688305041.286,-24.414,-40.527,-24.414,0.000,-1.465
1688305041.290,-34.180,-38.086,-23.438,19.531,241.211
1688305041.294,-21.484,-47.363,-25.879,-11.719,5.371
1688305041.298,-15.137,-51.270,-22.949,-46.387,-232.910
1688305041.302,-21.484,-39.062,-27.344,-32.227,-269.531
1688305041.306,-21.484,-33.203,-31.738,2.441,42.480
1688305041.310,-28.320,-45.410,-28.320,23.926,273.926
1688305041.313,-2.441,-50.781,-29.297,-2.441,135.742
1688305041.317,-9.766,-51.270,-34.668,-32.227,61.523
1688305041.321,-20.508,-48.828,-39.062,-21.484,146.973
1688305041.325,-14.160,-39.551,-39.551,-0.977,-28.809
1688305041.329,-30.762,-42.969,-28.809,13.672,-20.996
1688305041.331,-14.648,-41.504,-22.949,0.000,57.617
1688305041.335,-26.367,-45.410,-30.273,-41.504,-224.121
1688305041.339,-42.969,-51.758,-30.762,-50.293,-341.797
1688305041.343,-36.133,-59.570,-23.438,-13.184,-120.605
1688305041.347,-38.574,-56.152,-28.320,19.531,125.977
1688305041.351,-17.578,-41.504,-32.227,-5.371,147.949
1688305041.355,-10.742,-41.504,-20.508,-37.109,-93.750
1688305041.358,-15.625,-54.688,-15.625,-39.551,-231.934
1688305041.362,-5.859,-61.523,-35.645,-31.250,14.160
1688305041.366,-14.648,-45.410,-42.969,-3.906,105.469
1688305041.370,-9.766,-30.273,-36.621,-12.207,-58.105
1688305041.374,-12.207,-49.316,-33.203,-32.227,-196.777
1688305041.376,-39.062,-74.219,-34.180,-45.898,-348.633
1688305041.380,-37.109,-66.406,-42.480,-37.598,-362.305
1688305041.384,-26.367,-46.387,-43.945,1.953,-110.352
1688305041.388,-15.137,-38.574,-36.133,-1.953,60.059
1688305041.392,-10.254,-45.898,-31.738,-40.039,-107.910
1688305041.396,-22.461,-59.570,-43.945,-57.129,-277.344
1688305041.400,-17.090,-59.082,-56.641,-34.668,-169.922
1688305041.403,-21.973,-51.270,-50.781,19.531,238.770
1688305041.407,-27.832,-49.805,-44.434,18.555,780.273
1688305041.411,-16.113,-50.781,-45.410,-26.367,355.957
1688305041.415,-25.879,-53.711,-46.875,-38.574,-361.816
1688305041.419,-19.043,-48.340,-46.875,-26.367,-295.898
1688305041.421,-5.859,-35.645,-35.645,7.324,-68.848
1688305041.425,-15.625,-34.668,-31.738,13.184,62.012
1688305041.429,-32.227,-44.922,-41.992,-31.250,-38.086
1688305041.433,-41.504,-48.340,-52.246,-58.594,-248.047
1688305041.437,-19.531,-36.621,-44.922,-40.527,-315.430
1688305041.441,-14.160,-29.297,-33.203,6.836,-68.359
1688305041.445,-12.695,-46.387,-37.109,28.809,244.629
1688305041.448,-4.883,-55.176,-47.363,-16.602,322.754
1688305041.452,-36.133,-45.898,-47.363,-54.199,-13.672
1688305041.456,-42.480,-49.316,-48.340,-50.293,-369.141
1688305041.460,-23.926,-40.527,-49.805,-13.672,-41.504
1688305041.464,-27.832,-33.203,-49.805,9.277,270.508
1688305041.466,-2.441,-29.297,-51.758,-14.648,-13.184
1688305041.470,-9.277,-39.062,-47.363,-44.434,-268.066
1688305041.474,-16.113,-49.316,-55.176,-36.133,-274.414
1688305041.478,2.930,-46.875,-62.988,1.953,-125.977
1688305041.482,-18.066,-45.898,-54.688,34.668,88.867
1688305041.486,-9.277,-34.668,-60.059,17.090,89.355
1688305041.490,5.859,-39.551,-62.012,-24.414,53.711
1688305041.493,-12.207,-52.734,-48.828,-32.715,33.691
1688305041.497,-10.254,-45.898,-49.316,-1.465,-83.984
1688305041.501,-10.254,-43.457,-50.781,24.902,-19.531
1688305041.505,10.742,-42.969,-37.109,10.254,265.137
1688305041.509,14.160,-29.785,-23.438,-27.832,160.156
1688305041.511,-25.879,-32.227,-31.738,-44.922,-344.238
1688305041.515,-33.203,-41.992,-44.922,-25.879,-259.766
1688305041.519,-26.855,-41.016,-47.852,13.184,-0.977
1688305041.523,-4.395,-31.738,-40.039,7.324,51.270
1688305041.527,-0.488,-25.391,-30.762,-38.574,-137.695
1688305041.531,-21.973,-44.434,-50.293,-43.945,-174.805
1688305041.535,-13.672,-61.035,-55.176,-24.902,127.930
1688305041.538,-20.508,-47.852,-31.250,14.160,184.570
1688305041.542,-2.930,-40.527,-28.809,15.625,48.828
1688305041.546,10.254,-44.922,-28.809,-24.414,-52.246
1688305041.550,-23.926,-38.574,-30.762,-41.504,-207.520
1688305041.554,-17.578,-35.645,-38.086,-26.855,-275.391
1688305041.557,-12.695,-31.250,-31.738,14.160,-34.668
1688305041.561,-16.113,-33.691,-19.043,24.902,212.402
1688305041.565,-4.883,-38.086,-7.324,-15.137,42.480
1688305041.569,-20.020,-27.832,-8.301,-41.016,-342.773
1688305041.573,-8.789,-26.367,-21.973,-15.137,-345.215
1688305041.577,0.977,-37.598,-29.785,19.531,56.152
1688305041.581,-13.672,-48.340,-32.227,22.461,254.395
1688305041.584,-1.953,-41.016,-36.133,-5.859,24.414
1688305041.588,-9.277,-37.109,-45.410,-47.363,-265.137
1688305041.592,-7.812,-50.781,-50.293,-40.039,-16.113
1688305041.596,-6.348,-45.898,-40.527,1.953,375.488
1688305041.600,-30.273,-33.691,-36.133,9.766,191.895
1688305041.616,-21.484,-32.715,-26.855,-20.020,-32.715
1688305041.620,-24.902,-36.621,-22.949,-42.480,-198.242
1688305041.624,-14.160,-39.551,-25.879,-26.367,-310.059
1688305041.628,-10.254,-38.574,-30.762,4.883,-123.535
1688305041.632,-27.344,-36.621,-41.992,16.113,167.969
1688305041.636,-18.555,-45.410,-47.363,-13.184,326.660
1688305041.640,-14.648,-50.781,-45.898,-39.551,36.133
1688305041.643,-8.301,-41.016,-42.480,-27.832,-317.383
1688305041.647,-4.395,-32.227,-35.645,10.254,-90.332
1688305041.651,-13.184,-32.715,-29.297,30.762,189.941
1688305041.655,-10.742,-40.039,-38.086,-0.488,67.871
1688305041.659,-19.531,-38.086,-39.551,-41.992,-236.816
1688305041.662,-24.414,-45.898,-32.227,-29.297,-248.535
1688305041.666,-2.441,-49.316,-27.832,8.789,-5.859
1688305041.670,-5.859,-33.691,-20.020,24.902,47.852
1688305041.674,-19.531,-27.344,-31.738,-6.836,32.715
1688305041.678,-30.273,-35.645,-42.480,-52.246,-120.117
1688305041.682,-33.691,-36.133,-38.086,-59.082,-201.660
1688305041.686,-9.766,-36.133,-36.133,-27.832,-95.703
1688305041.689,-7.812,-41.016,-37.598,13.184,51.758
1688305041.693,-5.371,-42.480,-36.133,-15.137,315.918
1688305041.697,-9.766,-54.199,-33.691,-114.258,500.488
1688305041.701,-42.969,-57.129,-42.969,-181.641,23.438
1688305041.705,-39.062,-43.945,-62.012,-179.199,-293.457
1688305041.706,-29.785,-49.805,-64.941,-160.645,33.203
1688305041.710,-37.109,-52.246,-53.223,-179.199,118.652
1688305041.714,-41.504,-59.570,-52.734,-225.098,-178.223
1688305041.718,-44.434,-57.617,-45.898,-238.281,-369.141
1688305041.722,-20.020,-42.969,-38.574,-198.242,-219.727
1688305041.726,-20.996,-40.527,-41.992,-163.574,58.105
1688305041.730,-31.738,-43.457,-40.039,-156.738,143.066
1688305041.733,-24.902,-44.434,-33.203,-179.199,-14.648
1688305041.737,-27.344,-62.988,-38.574,-191.406,171.875
1688305041.741,-27.344,-75.684,-47.852,-168.945,149.902
1688305041.745,-36.133,-54.199,-38.574,-118.652,-103.516
1688305041.749,-36.133,-43.457,-40.527,-94.727,75.684
1688305041.766,-23.438,-42.480,-54.688,-147.949,5.371
1688305041.770,-21.484,-50.781,-54.199,-166.504,-315.918
1688305041.774,-15.625,-62.500,-49.316,-136.230,-330.566
1688305041.778,-19.043,-61.523,-53.711,-106.445,-72.266
1688305041.782,-16.602,-50.293,-58.594,-87.891,74.219
1688305041.786,-7.812,-42.969,-53.711,-100.586,1.465
1688305041.790,-39.062,-45.898,-42.480,-101.074,-184.570
1688305041.793,-40.527,-47.852,-39.062,-79.102,4.395
1688305041.797,-39.062,-46.875,-37.109,-55.664,353.027
1688305041.801,-42.480,-41.992,-34.180,-51.270,173.340
1688305041.805,-15.137,-30.273,-28.320,-63.965,-45.410
1688305041.809,-35.645,-35.156,-31.250,-96.680,94.238
1688305041.796,-40.527,-41.016,-36.133,-83.008,18.066
1688305041.800,-23.926,-39.062,-41.016,-39.551,-185.059
1688305041.804,-46.387,-44.434,-43.457,-27.832,50.781
1688305041.808,-36.621,-37.598,-33.691,-41.016,72.266
1688305041.812,-20.020,-27.832,-31.738,-70.801,-243.652
1688305041.816,-23.926,-31.250,-38.574,-64.941,-366.699
1688305041.820,-14.648,-41.992,-37.109,-24.414,-39.062
1688305041.823,-12.695,-51.758,-31.250,1.465,216.309
1688305041.827,-3.906,-47.852,-36.133,-14.648,65.430
1688305041.831,-12.695,-38.086,-50.293,-61.035,-202.148
1688305041.835,-17.090,-33.691,-46.387,-53.711,-225.098
1688305041.839,-15.625,-43.457,-36.621,-17.578,142.578
1688305041.842,-22.949,-47.363,-28.320,9.766,229.004
1688305041.846,-9.277,-38.574,-42.480,-17.090,78.125
1688305041.850,-18.555,-40.527,-57.617,-62.988,-9.766
1688305041.854,-27.344,-55.176,-51.270,-60.547,-157.715
1688305041.858,-17.578,-55.176,-46.875,-23.438,-202.637
1688305041.862,-28.809,-42.480,-51.270,16.113,-11.230
1688305041.866,-28.809,-30.762,-41.016,-0.488,322.266
1688305041.869,-9.766,-21.973,-21.973,-30.762,285.156
1688305041.873,-20.508,-37.598,-20.508,-40.039,-223.633
1688305041.877,-8.789,-51.758,-33.691,-21.973,-342.773
1688305041.881,-14.160,-47.852,-46.387,-1.465,20.508
1688305041.885,-18.555,-43.457,-41.016,4.395,154.297
1688305041.886,-0.977,-45.898,-34.180,-21.484,-194.824
1688305041.890,-16.602,-37.598,-32.715,-51.758,-394.043
1688305041.894,-27.344,-32.715,-40.039,-24.414,-273.926
1688305041.898,-32.227,-41.016,-54.199,8.789,7.812
1688305041.902,-32.715,-41.992,-50.293,0.977,142.578
1688305041.906,-28.809,-54.199,-45.898,-41.016,-22.461
1688305041.910,-30.762,-53.223,-44.922,-49.805,91.309
1688305041.913,-9.277,-31.250,-41.504,-18.555,38.574
1688305041.917,-4.883,-25.391,-36.621,16.113,-199.707
1688305041.921,-20.020,-27.832,-24.902,24.902,33.691
1688305041.925,-3.906,-26.855,-21.484,-10.742,7.812
1688305041.929,-23.438,-54.688,-24.902,-39.551,-325.195
1688305041.931,-37.109,-66.895,-35.645,-30.273,-329.590
1688305041.935,-21.973,-44.434,-39.062,4.395,-24.902
1688305041.939,-29.785,-27.344,-39.551,11.719,150.879
1688305041.943,-18.066,-23.926,-42.480,-21.484,-21.973
1688305041.947,-16.113,-29.297,-25.879,-58.105,-241.699
1688305041.951,-22.949,-37.598,-17.090,-45.898,-126.465
1688305041.955,-20.508,-39.551,-17.090,-2.930,65.918
1688305041.958,-39.551,-52.734,-29.297,5.859,190.430
1688305041.962,-40.039,-58.594,-31.250,-35.645,122.070
1688305041.966,-37.598,-52.246,-31.738,-69.336,41.992
1688305041.970,-32.715,-57.129,-47.852,-47.363,175.781
1688305041.974,-24.414,-60.059,-40.527,-0.977,-25.391
1688305041.991,-41.504,-58.594,-36.621,16.113,-40.527
1688305041.995,-25.391,-57.617,-41.992,-4.883,41.992
1688305041.999,-8.301,-48.828,-33.691,-30.273,-226.562
1688305042.003,-29.297,-45.898,-24.902,-40.039,-425.293
1688305042.007,-40.527,-57.617,-32.715,-20.508,-225.586
1688305042.011,-56.152,-61.523,-39.551,20.020,152.344
1688305042.015,-54.199,-59.082,-37.598,-4.883,166.992
1688305042.018,-42.480,-49.805,-26.367,-40.527,-169.922
1688305042.022,-49.316,-53.711,-18.066,-27.832,-214.355
1688305042.026,-41.992,-61.523,-23.438,3.418,-69.336
1688305042.030,-38.086,-56.152,-24.414,32.715,-12.207
1688305042.034,-29.785,-51.270,-19.531,12.695,26.855
1688305042.037,-45.898,-53.223,-27.832,-28.809,-45.898
1688305042.041,-75.195,-56.152,-37.598,-33.203,92.285
1688305042.045,-39.551,-49.316,-30.762,1.953,-66.406
1688305042.049,-43.945,-58.105,-23.438,41.992,-87.402
1688305042.053,-66.406,-62.500,-29.297,18.555,124.512
1688305042.057,-50.781,-50.781,-33.691,-37.109,30.762
1688305042.061,-55.176,-52.734,-37.109,-49.805,-115.723
1688305042.064,-28.320,-45.898,-30.273,-22.461,-136.230
1688305042.068,-33.691,-39.551,-16.602,18.066,203.613
1688305042.072,-50.293,-52.246,-26.367,19.531,542.480
1688305042.076,-38.574,-65.918,-34.180,-33.203,80.566
1688305042.080,-56.152,-64.941,-34.180,-61.035,-275.879
1688305042.081,-41.992,-51.270,-37.598,-20.996,-119.141
1688305042.085,-38.086,-47.363,-42.480,20.508,-11.230
1688305042.089,-44.922,-41.992,-36.133,20.508,-7.324
1688305042.093,-30.273,-39.551,-25.879,-4.395,-104.980
1688305042.097,-41.992,-38.574,-27.832,-18.555,-267.090
1688305042.101,-36.133,-38.086,-31.250,-3.906,-216.309
1688305042.105,-36.133,-55.664,-39.551,23.438,35.156
1688305042.108,-34.668,-51.758,-41.016,39.551,210.449
1688305042.112,-19.531,-46.875,-25.879,10.254,257.812
1688305042.116,-33.691,-60.059,-23.438,-34.668,-105.957
1688305042.120,-48.828,-57.617,-40.527,-42.480,-396.973
1688305042.124,-44.922,-54.688,-43.945,0.977,-148.926
1688305042.127,-52.246,-61.523,-38.574,28.809,79.102
1688305042.131,-55.664,-61.523,-54.688,-20.020,13.184
1688305042.135,-53.711,-52.246,-59.570,-61.523,-187.500
1688305042.139,-38.574,-49.316,-37.109,-45.410,-182.617
1688305042.143,-26.855,-55.176,-26.855,-20.020,21.973
1688305042.147,-53.711,-49.316,-33.203,-8.301,144.531
1688305042.151,-34.668,-42.969,-34.668,-14.160,75.684
1688305042.154,-26.367,-41.016,-26.367,-31.738,154.785
1688305042.158,-47.363,-46.875,-34.180,-41.992,265.137
1688305042.162,-36.621,-48.828,-37.598,-4.395,-18.555
1688305042.166,-31.250,-38.574,-31.738,33.691,-5.371
1688305042.170,-26.367,-44.434,-34.668,5.371,55.664
1688305042.171,-36.621,-54.688,-42.480,-33.203,-209.961
1688305042.175,-23.926,-58.594,-35.156,-28.320,-377.441
1688305042.179,-2.930,-59.570,-24.414,4.883,-230.957
1688305042.183,-19.531,-44.434,-19.043,22.949,29.297
1688305042.187,-23.926,-47.852,-23.926,7.324,146.973
1688305042.191,-23.438,-52.734,-35.156,-31.738,-17.090
1688305042.195,-43.457,-46.387,-35.156,-48.340,-181.152
1688305042.198,-39.062,-34.668,-38.086,-11.719,199.219
1688305042.202,-27.344,-36.621,-39.551,20.508,377.930
1688305042.206,-18.555,-55.664,-40.039,2.930,41.016
1688305042.210,-20.508,-51.758,-36.621,-34.180,-138.184
1688305042.214,-24.414,-37.598,-30.762,-41.992,-272.949
1688305042.216,-13.184,-36.133,-33.203,-16.602,-282.715
1688305042.220,-15.137,-41.992,-30.273,19.531,-54.688
1688305042.224,-12.695,-44.922,-31.250,23.926,162.109
1688305042.228,-18.066,-49.805,-38.574,-24.902,-14.160
1688305042.232,-42.969,-62.012,-35.645,-54.688,-326.660
1688305042.236,-17.090,-54.688,-29.297,-13.184,-311.035
1688305042.240,-5.859,-57.617,-46.387,36.621,278.320
1688305042.243,-33.203,-54.199,-55.664,33.203,591.797
1688305042.247,-32.227,-42.480,-52.734,-30.273,145.996
1688305042.251,-36.133,-50.293,-53.223,-62.500,-280.273
1688305042.255,-37.109,-54.688,-55.176,-33.691,-130.859
1688305042.259,-39.062,-54.688,-54.688,8.789,222.656
1688305042.261,-32.227,-46.387,-52.734,18.555,44.922
1688305042.265,-20.020,-41.016,-50.293,-25.879,-98.633
1688305042.269,-34.180,-48.828,-50.781,-61.035,-243.164
1688305042.273,-24.414,-54.688,-56.152,-33.203,-328.125
1688305042.277,-20.996,-47.363,-58.105,12.695,-190.430
1688305042.281,-29.785,-52.246,-49.316,28.320,131.348
1688305042.285,-11.230,-61.035,-43.457,-1.465,375.000
1688305042.288,-27.832,-53.711,-45.410,-43.945,-17.090
1688305042.292,-47.363,-64.941,-57.129,-53.711,-380.371
1688305042.296,-29.297,-67.383,-66.406,-23.926,3.418
1688305042.300,-22.949,-49.805,-54.688,14.648,383.789
1688305042.304,-25.879,-42.480,-59.570,-2.441,85.449
1688305042.306,-28.809,-40.039,-65.918,-40.527,-277.832
1688305042.310,-25.879,-48.340,-47.852,-37.109,-275.879
1688305042.314,-25.391,-48.828,-36.133,-8.301,-144.531
1688305042.318,-27.832,-32.227,-39.551,22.949,-14.160
1688305042.322,-16.602,-35.156,-46.387,7.324,45.898
1688305042.326,-34.668,-56.152,-51.758,-48.828,-12.695
1688305042.330,-33.691,-51.758,-45.898,-54.199,-110.840
1688305042.333,-18.555,-42.969,-41.016,-32.227,-80.078
1688305042.337,-31.738,-45.898,-41.504,-4.395,66.895
1688305042.341,-22.949,-38.574,-38.086,-1.953,329.590
1688305042.345,-21.484,-36.621,-41.992,-42.480,296.875
1688305042.349,-28.809,-39.551,-37.109,-42.480,-209.961
1688305042.366,-14.160,-44.922,-24.414,-7.812,-313.965
1688305042.370,-20.508,-46.387,-27.344,17.578,7.812
1688305042.374,-28.320,-40.039,-31.250,6.836,68.359
1688305042.378,-21.973,-27.344,-26.367,-38.574,-190.918
1688305042.382,-28.809,-30.762,-40.039,-71.289,-299.316
1688305042.386,-28.320,-36.621,-41.016,-28.320,-106.934
1688305042.390,-21.973,-28.320,-24.902,17.090,111.328
1688305042.393,-30.762,-27.344,-19.043,5.859,73.242
1688305042.397,-20.020,-29.785,-17.090,-27.832,-67.871
1688305042.401,-17.090,-37.109,-17.578,-41.016,-50.293
1688305042.405,-12.695,-37.598,-15.625,-17.578,-184.570
1688305042.409,-0.488,-29.785,-17.090,21.484,-121.094
1688305042.412,-12.207,-22.949,-24.414,18.555,126.953
1688305042.416,-6.836,-18.555,-27.832,-34.180,-1.465
1688305042.420,-20.996,-39.551,-39.551,-76.172,-229.004
1688305042.424,-29.297,-53.711,-41.992,-61.035,-299.805
1688305042.428,-25.391,-38.086,-34.180,-7.812,8.301
1688305042.432,-36.133,-37.598,-31.738,12.207,370.117
1688305042.436,-18.555,-39.551,-30.273,-21.484,125.977
1688305042.439,-24.902,-38.086,-40.527,-62.500,-235.840
1688305042.443,-29.785,-33.691,-35.645,-39.551,-47.852
1688305042.447,-28.809,-32.715,-28.809,7.324,393.555
1688305042.451,-37.598,-43.945,-29.785,5.371,228.516
1688305042.455,-24.414,-48.340,-32.227,-26.367,-78.125
1688305042.471,-26.367,-47.852,-32.227,-48.828,-213.867
1688305042.475,-30.762,-45.898,-33.691,-38.086,-327.148
1688305042.479,-21.484,-39.062,-31.250,11.719,-239.258
1688305042.483,-23.438,-26.855,-25.879,26.367,2.441
1688305042.487,-13.672,-27.344,-29.785,-16.602,109.863
1688305042.491,-12.695,-33.691,-31.738,-39.551,-120.605
1688305042.495,-19.043,-23.926,-43.945,-39.551,-247.559
1688305042.498,-21.973,-29.785,-50.781,-23.438,-88.867
1688305042.502,-28.320,-44.434,-32.715,25.879,430.176
1688305042.506,-11.230,-44.434,-26.367,24.414,417.969
1688305042.510,-16.113,-40.039,-36.133,-29.297,-208.008
1688305042.514,-45.898,-39.551,-43.945,-53.711,-313.477
1688305042.501,-29.297,-45.410,-37.109,-20.508,-180.176
1688305042.505,-20.508,-44.434,-29.785,22.949,4.883
1688305042.509,-28.809,-52.246,-36.133,4.395,45.898
1688305042.513,-25.391,-56.641,-38.574,-42.969,-144.531
1688305042.517,-27.832,-39.551,-31.738,-38.086,-245.605
1688305042.521,-2.441,-23.926,-22.461,9.766,-138.184
1688305042.525,-9.766,-37.598,-25.391,38.574,82.520
1688305042.528,-13.184,-51.758,-33.691,17.578,268.066
1688305042.532,6.348,-40.527,-44.434,-27.832,101.074
1688305042.536,-2.441,-26.855,-47.852,-35.645,-246.582
1688305042.540,-19.043,-40.039,-42.969,-25.879,-309.082
1688305042.544,-32.715,-58.594,-34.668,0.000,155.762
1688305042.546,-20.996,-49.805,-31.250,11.719,648.438
1688305042.550,-7.812,-46.875,-38.574,-41.504,196.777
1688305042.554,-20.020,-60.059,-47.852,-75.195,-342.773
1688305042.558,-9.766,-52.734,-41.992,-40.039,-255.371
1688305042.562,-10.254,-43.945,-37.109,4.395,-47.852
1688305042.566,-20.508,-44.922,-37.598,7.812,106.445
1688305042.570,-15.137,-42.969,-42.480,-24.902,87.891
1688305042.573,-30.273,-59.570,-52.734,-46.387,21.484
1688305042.577,-34.180,-68.848,-49.805,-26.367,-165.039
1688305042.581,-40.039,-56.641,-38.574,5.859,-174.316
1688305042.585,-62.012,-54.688,-42.480,10.254,166.016
1688305042.589,-47.852,-56.641,-55.664,-12.207,138.184
1688305042.592,-50.293,-46.387,-57.617,-46.875,-248.047
1688305042.596,-61.035,-55.664,-52.246,-50.781,-341.309
1688305042.600,-41.016,-73.242,-50.293,-11.719,-79.102
1688305042.604,-35.645,-66.895,-47.852,1.953,147.949
1688305042.608,-25.391,-53.223,-42.969,-29.297,66.895
1688305042.612,-29.785,-51.270,-42.480,-48.340,-205.078
1688305042.616,-40.527,-53.223,-54.199,-52.246,-45.898
1688305042.619,-33.691,-47.363,-49.316,-24.902,376.465
1688305042.623,-37.598,-53.223,-43.457,-2.930,229.492
1688305042.627,-14.648,-48.340,-41.504,-24.414,-25.879
1688305042.631,-30.762,-44.922,-42.480,-58.594,-108.398
1688305042.635,-51.758,-62.988,-47.363,-51.758,-160.645
1688305042.637,-20.996,-58.105,-46.875,-16.113,-143.555
1688305042.641,-21.484,-38.086,-31.738,16.113,43.457
1688305042.645,-7.324,-33.691,-25.879,0.488,113.281
1688305042.649,-1.953,-43.945,-49.316,-57.129,-152.344
1688305042.653,-26.855,-57.617,-49.805,-48.828,-362.305
1688305042.657,-40.527,-58.594,-33.691,-13.184,-154.785
1688305042.661,-49.805,-53.711,-20.020,-2.930,528.809
1688305042.664,-38.086,-52.246,-17.090,-33.203,528.320
1688305042.668,-28.320,-54.688,-19.531,-59.082,-206.055
1688305042.672,-44.922,-59.570,-11.230,-54.199,-326.660
1688305042.676,-42.480,-62.012,-16.113,-16.113,-151.367
1688305042.680,-24.902,-54.199,-26.855,27.344,-21.484
1688305042.711,-27.344,-43.457,-25.391,8.301,16.113
1688305042.715,-30.762,-53.711,-31.250,-44.922,-109.375
1688305042.719,-38.086,-48.828,-36.133,-56.152,-167.969
1688305042.723,-20.996,-41.504,-35.156,-20.996,-173.340
1688305042.727,-20.996,-53.223,-33.203,21.484,-91.797
1688305042.731,-30.273,-45.410,-25.391,24.902,311.523
1688305042.735,-18.555,-30.273,-18.066,-19.531,415.527
1688305042.738,-22.949,-30.762,-36.621,-52.246,-159.668
1688305042.742,-13.672,-28.320,-50.293,-23.438,-306.152
1688305042.746,-17.090,-30.273,-39.062,17.578,148.438
1688305042.750,-21.484,-47.852,-36.621,8.789,383.301
1688305042.754,-10.742,-50.781,-38.086,-33.203,-99.609
1688305042.741,-39.062,-38.574,-42.480,-50.781,-389.160
1688305042.745,-25.879,-42.969,-34.180,-29.785,-262.695
1688305042.749,-23.438,-83.984,-32.715,-3.906,-100.098
1688305042.753,-41.992,-76.660,-39.062,-1.953,-28.320
1688305042.757,-25.391,-31.250,-36.133,-28.809,-30.273
1688305042.761,-28.320,-23.438,-31.738,-54.688,-91.797
1688305042.765,-16.602,-16.113,-21.484,-41.016,-175.781
1688305042.768,-23.926,-19.043,-23.438,7.324,-63.965
1688305042.772,-42.969,-28.320,-32.715,18.555,186.035
1688305042.776,-28.320,-33.203,-35.156,-19.531,154.785
1688305042.780,-28.320,-33.691,-28.320,-50.293,-183.594
1688305042.784,-39.551,-46.387,-25.879,-58.105,-353.516
1688305042.786,-50.293,-59.082,-26.855,-24.414,-28.320
1688305042.790,-58.105,-46.387,-13.672,3.418,488.281
1688305042.794,-42.480,-39.551,-3.906,-43.457,236.328
1688305042.798,-65.918,-45.410,-20.020,-104.492,-270.508
1688305042.802,-90.820,-48.340,-33.203,-108.398,-319.824
1688305042.806,-89.844,-43.945,-19.043,-82.031,-33.203
1688305042.810,-109.375,-49.805,-14.160,-71.777,213.867
1688305042.813,-101.074,-44.922,-12.695,-102.051,55.176
1688305042.817,-110.352,-44.922,-11.719,-134.277,-80.078
1688305042.821,-132.324,-54.688,-26.367,-133.789,132.324
1688305042.825,-129.395,-53.223,-33.691,-110.840,-4.883
1688305042.829,-120.605,-50.293,-28.320,-81.543,-161.621
1688305042.831,-89.355,-49.805,-21.973,-73.730,-46.875
1688305042.835,-91.797,-73.242,-26.855,-104.980,-256.348
1688305042.839,-93.750,-91.797,-31.738,-113.770,-468.750
1688305042.843,-61.523,-94.727,-25.391,-63.965,-335.449
1688305042.847,-56.641,-68.359,-27.832,-12.695,2.441
1688305042.851,-44.922,-21.973,-26.855,-13.184,94.238
1688305042.855,-44.434,-16.113,-28.809,-42.480,-60.059
1688305042.858,-55.664,-26.855,-41.016,-71.777,-172.852
1688305042.862,-37.109,-22.949,-53.223,-44.922,42.480
1688305042.866,-29.297,-52.734,-56.641,8.789,204.102
1688305042.870,-14.648,-40.527,-30.762,7.324,115.234
1688305042.874,-3.906,-30.762,-20.996,-27.344,14.160
1688305042.876,-23.438,-51.758,-34.180,-36.621,-122.070
1688305042.880,-12.207,-45.898,-37.109,-5.371,-293.945
1688305042.884,0.488,-54.199,-30.762,32.715,-135.254
1688305042.888,4.395,-57.129,-33.203,47.852,167.969
1688305042.892,16.113,-45.410,-35.645,7.324,45.898
1688305042.896,12.695,-50.293,-40.039,-23.438,-229.492
1688305042.900,22.949,-51.270,-44.922,2.441,-143.066
1688305042.903,22.949,-35.645,-46.875,42.969,303.711
1688305042.907,7.812,-28.809,-50.293,45.898,604.004
1688305042.911,13.184,-47.363,-57.617,0.977,79.590
1688305042.915,11.230,-50.781,-59.570,-27.344,-445.312
1688305042.919,11.719,-48.828,-48.828,0.977,-386.230
1688305042.921,12.207,-47.363,-45.898,29.785,-89.355
1688305042.925,1.953,-51.758,-57.129,26.855,53.711
1688305042.929,20.020,-51.270,-40.527,7.324,-50.293
1688305042.933,5.371,-39.551,-22.949,-20.996,-166.016
1688305042.937,2.441,-29.297,-33.203,-18.066,-245.605
1688305042.941,2.930,-24.414,-41.016,11.719,-145.996
1688305042.945,-21.484,-30.273,-37.109,28.320,146.484
1688305042.948,18.555,-35.156,-30.273,13.184,334.961
1688305042.952,17.578,-41.504,-35.156,-17.090,-76.660
1688305042.956,-12.695,-33.691,-48.340,-17.578,-479.492
1688305042.960,-1.465,-26.855,-47.363,11.719,-264.648
1688305042.964,-12.207,-43.457,-44.434,25.879,22.461
1688305042.966,-14.160,-53.223,-41.992,-8.789,-10.742
1688305042.970,-2.930,-38.574,-31.250,-36.133,-243.164
1688305042.974,-5.859,-31.250,-36.621,-27.344,-206.055
1688305042.978,-11.230,-48.340,-52.246,-7.324,-2.930
1688305042.982,-17.578,-47.363,-46.387,19.043,61.523
1688305042.986,-7.324,-44.434,-36.133,10.742,109.863
1688305042.990,-5.371,-63.965,-29.297,-34.180,137.695
1688305042.993,-17.090,-53.711,-34.668,-58.594,203.613
1688305042.997,-10.254,-32.227,-41.504,-37.598,9.766
1688305043.001,3.418,-22.461,-27.344,14.160,-32.227
1688305043.005,9.766,-18.555,-24.414,6.836,181.152
1688305043.009,7.812,-37.109,-28.320,-35.156,-33.691
1688305043.011,-16.113,-47.363,-32.715,-46.387,-382.812
1688305043.015,-7.324,-34.180,-33.691,-20.996,-322.754
1688305043.019,-1.465,-45.898,-25.391,22.949,8.301
1688305043.023,-8.789,-50.293,-29.785,21.973,175.781
1688305043.027,-8.301,-35.156,-38.086,-32.715,-90.332
1688305043.031,-23.438,-32.715,-51.758,-60.059,-281.250
1688305043.035,-16.113,-38.086,-48.340,-31.250,30.762
1688305043.038,-14.160,-44.922,-28.320,8.301,257.324
1688305043.042,-10.742,-42.480,-14.160,20.020,92.773
1688305043.046,6.348,-32.715,-13.672,-3.418,-8.301
1688305043.050,-7.812,-34.668,-26.855,-26.855,-54.199
1688305043.054,-22.461,-45.410,-31.250,-14.648,-231.934
1688305043.056,-11.230,-50.293,-24.902,27.344,-118.652
1688305043.060,-1.465,-52.246,-34.668,34.668,158.203
1688305043.064,-8.789,-43.945,-43.457,-18.555,61.035
1688305043.068,-22.461,-23.926,-30.762,-45.898,-258.301
1688305043.072,-27.344,-28.320,-41.992,-36.133,-313.965
1688305043.076,-38.086,-43.457,-54.688,-15.137,6.836
1688305043.080,-42.480,-48.340,-43.457,-0.488,291.992
1688305043.083,-26.855,-45.410,-34.668,-27.344,117.188
1688305043.087,-26.367,-35.156,-29.785,-51.758,-165.039
1688305043.091,-8.789,-33.691,-30.762,-31.738,-42.480
1688305043.095,-1.465,-45.410,-37.598,9.766,347.656
1688305043.099,-26.367,-60.547,-43.457,19.531,247.070
1688305043.116,-21.484,-60.547,-43.457,-15.137,-69.336
1688305043.120,-21.973,-51.270,-45.898,-50.293,-198.242
1688305043.124,-27.344,-54.688,-44.922,-54.688,-322.754
1688305043.128,-16.602,-50.293,-41.504,-23.926,-233.887
1688305043.132,-21.484,-39.062,-45.898,6.836,51.758
1688305043.136,-20.508,-40.527,-55.176,-12.695,163.086
1688305043.140,-29.785,-46.387,-53.223,-43.945,-95.703
1688305043.143,-37.109,-54.199,-55.664,-49.316,-348.145
1688305043.147,-21.973,-54.688,-57.617,-21.973,-188.477
1688305043.151,-29.297,-64.941,-47.363,13.184,242.676
1688305043.155,-43.457,-65.918,-47.852,-3.906,191.406
1688305043.159,-51.758,-63.965,-50.293,-50.293,-194.824
1688305043.161,-49.316,-66.895,-45.410,-46.875,-233.398
1688305043.165,-36.133,-47.363,-52.734,-9.277,-90.820
1688305043.169,-42.969,-43.457,-64.941,15.625,-7.812
1688305043.173,-39.551,-51.270,-59.570,-3.418,24.414
1688305043.177,-28.320,-51.270,-56.152,-41.992,-46.387
1688305043.181,-32.715,-45.898,-54.199,-48.828,-64.941
1688305043.185,-15.137,-38.574,-55.664,-21.973,-9.277
1688305043.188,-3.906,-36.133,-56.641,8.301,129.883
1688305043.192,2.441,-29.297,-37.598,22.461,377.930
1688305043.196,-9.277,-38.086,-38.086,-10.742,443.848
1688305043.200,-49.805,-64.453,-53.223,-59.570,-43.945
1688305043.204,-43.457,-53.711,-50.781,-34.180,-277.832
1688305043.206,-35.156,-45.898,-50.781,0.000,52.246
1688305043.210,-42.480,-51.758,-49.805,-6.836,191.895
1688305043.214,-31.738,-46.875,-52.246,-38.086,-96.191
1688305043.218,-22.461,-43.945,-49.805,-41.992,-291.016
1688305043.222,-10.742,-52.734,-35.645,-16.602,-153.320
1688305043.226,-20.996,-49.316,-34.180,23.926,30.762
1688305043.230,-24.902,-40.527,-36.621,33.691,125.488
1688305043.233,-15.137,-54.688,-38.574,-15.625,41.992
1688305043.237,-29.785,-46.875,-30.762,-40.527,44.922
1688305043.241,-42.480,-37.598,-33.203,-29.297,-99.121
1688305043.245,-30.762,-34.180,-31.738,2.930,-164.551
1688305043.249,-16.602,-31.738,-17.578,22.461,135.742
1688305043.251,-16.113,-43.457,-21.973,-11.719,77.148
1688305043.255,-16.113,-36.621,-28.809,-39.551,-211.914
1688305043.259,-7.324,-21.484,-29.297,-23.438,-302.246
1688305043.263,-15.625,-26.855,-27.832,8.789,67.383
1688305043.267,-20.996,-37.109,-26.367,38.086,347.656
1688305043.271,0.000,-32.715,-30.273,0.488,100.586
1688305043.275,-28.809,-33.691,-40.527,-53.711,-145.996
1688305043.278,-36.621,-34.180,-44.434,-43.945,38.574
1688305043.282,-12.207,-40.527,-38.086,-7.324,468.262
1688305043.286,-27.344,-53.711,-30.273,-2.930,293.945
