timestamps,TP9,AF7,AF8,TP10,Right AUX
1688252965.611,190.430,-25.879,-58.594,-36.133,-154.297
1688252965.615,44.922,-34.668,-65.430,-55.176,-145.020
1688252965.619,-176.758,-41.992,-62.500,8.301,-125.488
1688252965.623,-183.594,-50.781,-56.641,71.777,-60.547
1688252965.627,78.125,-52.734,-53.711,31.250,15.137
1688252965.631,192.383,-44.922,-51.270,-34.180,-16.602
1688252965.635,70.312,-34.668,-46.387,-48.828,-65.918
1688252965.638,-149.902,-40.039,-52.734,-6.836,-76.660
1688252965.642,-201.172,-58.594,-63.965,58.105,114.746
1688252965.646,37.598,-66.406,-64.453,50.293,560.059
1688252965.650,179.688,-53.223,-56.641,-35.156,308.594
1688252965.654,80.566,-36.133,-55.176,-72.266,-220.215
1688252965.656,-133.789,-35.645,-60.547,-27.832,-150.391
1688252965.660,-225.098,-41.992,-63.965,30.762,-34.180
1688252965.664,9.277,-42.480,-63.965,26.855,-98.633
1688252965.668,199.219,-40.527,-64.941,-39.551,-180.664
1688252965.672,112.793,-45.898,-61.035,-71.289,-187.500
1688252965.676,-101.562,-51.758,-60.059,-21.973,-39.551
1688252965.680,-228.516,-54.199,-63.477,47.363,82.031
1688252965.683,-28.809,-49.316,-56.641,35.156,-7.324
1688252965.687,181.641,-52.246,-55.176,-36.133,133.301
1688252965.691,117.188,-51.758,-55.664,-79.102,62.012
1688252965.695,-89.844,-41.992,-51.758,-45.898,-276.367
1688252965.699,-220.215,-32.227,-43.945,42.969,-80.078
1688252965.701,-30.762,-22.949,-35.645,78.125,128.906
1688252965.705,190.430,-27.344,-39.062,13.184,-22.461
1688252965.709,148.438,-37.109,-46.875,-57.129,-240.723
1688252965.713,-45.410,-47.852,-56.641,-38.086,-108.887
1688252965.717,-200.195,-51.270,-63.965,51.758,99.121
1688252965.721,-60.547,-51.758,-48.828,80.078,102.539
1688252965.725,157.227,-49.805,-40.039,7.324,7.812
1688252965.728,156.250,-46.875,-50.293,-55.176,-60.547
1688252965.732,-10.254,-58.105,-51.758,-37.598,175.781
1688252965.736,-197.266,-61.523,-37.598,46.387,77.148
1688252965.740,-99.121,-61.035,-23.926,95.703,-93.262
1688252965.744,159.180,-62.500,-27.344,39.551,44.922
1688252965.746,199.219,-57.129,-33.203,-30.762,-23.438
1688252965.750,26.367,-57.129,-39.551,-27.832,-256.348
1688252965.754,-181.152,-65.430,-42.969,27.832,-199.219
1688252965.758,-133.789,-69.336,-45.410,67.383,63.965
1688252965.762,125.000,-62.988,-44.434,34.668,92.285
1688252965.766,192.383,-56.641,-44.922,-32.227,-55.176
1688252965.770,31.738,-55.664,-52.734,-47.852,-153.809
1688252965.773,-178.711,-61.035,-55.664,23.926,96.680
1688252965.777,-167.480,-60.547,-52.734,82.031,267.578
1688252965.781,90.332,-54.688,-48.340,35.645,-104.492
1688252965.785,197.266,-52.246,-45.898,-35.645,-238.281
1688252965.789,57.129,-62.012,-46.875,-53.711,-178.711
1688252965.791,-170.898,-73.730,-52.734,-1.953,-130.859
1688252965.795,-201.172,-68.848,-55.664,63.965,-33.203
1688252965.799,61.035,-68.848,-51.270,33.203,8.301
1688252965.803,198.730,-70.312,-55.664,-50.293,-60.059
1688252965.807,71.777,-68.359,-62.012,-70.312,-166.016
1688252965.811,-146.973,-69.336,-62.988,-25.391,-106.934
1688252965.815,-215.820,-66.406,-64.453,40.527,234.863
1688252965.818,22.949,-59.082,-60.059,44.434,577.148
1688252965.822,193.359,-54.199,-51.270,-28.320,217.285
1688252965.826,107.910,-46.875,-45.410,-60.547,-285.645
1688252965.830,-101.562,-41.504,-46.875,-10.742,-80.078
1688252965.834,-197.266,-34.668,-43.945,72.754,138.672
1688252965.837,19.043,-31.250,-34.668,78.125,-91.797
1688252965.841,207.031,-36.133,-31.738,4.395,-203.125
1688252965.845,141.602,-36.621,-38.086,-38.574,-218.262
1688252965.849,-67.871,-28.809,-41.016,-4.395,-187.500
1688252965.853,-208.008,-32.227,-42.969,67.383,-81.055
1688252965.857,-20.996,-40.527,-52.734,69.336,-24.414
1688252965.861,209.473,-37.109,-54.688,10.254,234.375
1688252965.864,168.945,-36.621,-47.363,-44.434,201.172
1688252965.868,-46.387,-38.086,-44.434,-36.133,-161.621
1688252965.872,-217.773,-39.062,-47.363,41.016,-94.238
1688252965.876,-65.918,-38.086,-45.410,63.477,77.637
1688252965.880,183.105,-32.715,-46.387,0.488,-38.086
1688252965.881,171.875,-32.227,-56.152,-55.664,-243.652
1688252965.885,-24.414,-38.574,-63.965,-35.156,-209.473
1688252965.889,-207.031,-42.480,-62.012,32.227,-17.090
1688252965.893,-92.285,-37.598,-50.293,52.246,8.789
1688252965.897,168.457,-35.156,-49.316,-5.371,-128.906
1688252965.901,187.500,-40.039,-54.199,-55.664,-11.230
1688252965.905,0.977,-41.992,-56.641,-48.828,124.023
1688252965.908,-196.289,-37.598,-54.688,18.555,-49.805
1688252965.912,-119.629,-39.551,-51.758,76.172,-74.219
1688252965.916,140.625,-49.316,-53.223,32.715,125.977
1688252965.920,199.219,-47.852,-53.711,-44.922,276.367
1688252965.924,24.902,-48.828,-55.664,-64.453,-48.340
1688252965.942,-200.195,-60.547,-58.594,-2.441,-231.934
1688252965.946,-168.945,-64.941,-58.105,58.105,90.820
1688252965.950,101.074,-60.059,-50.293,14.160,133.301
1688252965.954,197.266,-56.152,-47.363,-54.688,-162.109
1688252965.958,47.852,-57.129,-57.617,-61.035,-291.992
1688252965.962,-184.570,-66.406,-68.359,-2.930,-99.609
1688252965.966,-203.613,-71.289,-66.406,43.945,139.648
1688252965.969,63.477,-70.312,-56.641,9.277,-70.801
1688252965.973,188.965,-76.660,-59.082,-63.965,-251.953
1688252965.977,61.035,-83.496,-64.941,-86.426,-27.344
1688252965.981,-159.180,-81.055,-60.059,-28.320,23.438
1688252965.985,-211.426,-74.219,-52.734,46.875,-114.258
1688252965.987,48.340,-72.266,-51.758,41.992,-2.441
1688252965.991,211.426,-72.754,-57.617,-35.156,12.207
1688252965.995,99.121,-73.242,-60.547,-74.707,-193.359
1688252965.999,-138.672,-75.195,-62.988,-33.203,-239.746
1688252966.003,-225.098,-73.242,-65.430,41.992,8.301
1688252966.007,18.555,-69.824,-66.895,42.480,222.656
1688252966.011,198.242,-66.895,-64.453,-35.156,84.473
1688252966.014,119.141,-65.430,-65.430,-80.078,-174.805
1688252966.018,-110.840,-72.266,-74.219,-37.109,-11.230
1688252966.022,-255.859,-75.684,-68.848,34.668,492.188
1688252966.026,-44.434,-63.477,-56.152,33.691,340.332
1688252966.030,193.359,-58.105,-50.293,-34.180,-148.926
1688252966.031,136.230,-60.547,-51.270,-75.684,-258.301
1688252966.035,-86.426,-60.547,-49.316,-48.340,-265.625
1688252966.039,-249.512,-63.477,-54.199,28.809,-156.250
1688252966.043,-80.078,-62.500,-57.617,51.758,-38.574
1688252966.047,175.781,-61.035,-54.199,-6.836,-14.160
1688252966.051,162.109,-57.617,-56.152,-48.340,-25.391
1688252966.055,-48.828,-54.199,-58.594,-40.527,-47.852
1688252966.058,-243.652,-58.594,-61.035,8.301,-84.473
1688252966.062,-123.535,-65.430,-61.035,37.598,186.523
1688252966.066,146.484,-59.570,-53.711,-14.648,180.176
1688252966.070,159.668,-52.734,-51.270,-84.473,-273.926
1688252966.074,-45.898,-63.477,-55.176,-72.754,-255.371
1688252966.077,-248.047,-69.336,-54.688,2.441,-69.336
1688252966.081,-152.344,-63.477,-47.852,41.504,19.043
1688252966.085,142.090,-57.129,-48.340,3.906,-0.977
1688252966.089,193.359,-59.570,-55.176,-50.781,-62.500
1688252966.093,2.930,-66.895,-59.570,-60.059,-106.934
1688252966.097,-213.379,-68.359,-57.617,0.977,17.090
1688252966.101,-174.316,-70.801,-57.129,49.805,96.191
1688252966.104,110.352,-69.336,-61.035,18.066,121.582
1688252966.108,198.242,-69.824,-60.547,-34.668,227.539
1688252966.112,27.344,-72.754,-53.711,-58.105,-26.855
1688252966.116,-206.055,-69.824,-55.176,-19.531,-220.215
1688252966.120,-208.008,-70.801,-62.500,53.223,44.434
1688252966.121,76.172,-65.918,-56.152,40.527,310.547
1688252966.125,206.543,-55.664,-47.852,-33.691,-23.926
1688252966.129,67.871,-50.781,-44.922,-51.270,-307.129
1688252966.133,-166.992,-49.316,-40.039,-5.371,-183.105
1688252966.137,-212.402,-53.223,-42.480,52.246,-38.574
1688252966.141,61.523,-52.734,-38.086,46.875,-3.418
1688252966.145,212.402,-52.734,-36.621,-12.207,-75.195
1688252966.148,79.590,-61.035,-47.852,-42.480,58.594
1688252966.152,-161.133,-56.641,-47.852,-18.555,143.066
1688252966.156,-245.605,-48.340,-42.969,38.086,-60.547
1688252966.160,11.719,-55.176,-44.434,42.969,-56.152
1688252966.164,215.332,-54.688,-41.504,-11.230,-15.137
1688252966.166,123.047,-46.387,-44.922,-53.223,-162.109
1688252966.170,-128.418,-48.828,-56.152,-36.621,-260.742
1688252966.174,-260.254,-49.805,-58.594,31.250,-68.359
1688252966.178,-18.555,-39.062,-48.828,60.059,118.164
1688252966.182,228.516,-30.273,-43.457,0.488,-79.102
1688252966.186,143.066,-33.691,-53.223,-52.734,-167.480
1688252966.190,-105.957,-40.039,-61.523,-35.645,125.488
1688252966.193,-253.418,-42.969,-66.406,17.578,370.605
1688252966.197,-56.641,-33.691,-65.918,44.434,235.352
1688252966.201,197.754,-35.645,-54.688,6.836,-52.734
1688252966.205,153.320,-53.223,-48.828,-48.340,3.418
1688252966.209,-75.195,-59.082,-52.734,-46.387,240.234
1688252966.226,-269.043,-57.617,-46.387,15.137,-73.242
1688252966.230,-113.770,-59.570,-31.738,49.805,-186.523
1688252966.234,166.992,-63.477,-31.738,-4.883,-151.367
1688252966.238,168.457,-62.500,-39.062,-62.500,-238.281
1688252966.242,-46.875,-59.570,-37.598,-57.129,-286.133
1688252966.246,-257.324,-63.477,-35.156,-3.906,-134.277
1688252966.250,-144.531,-71.289,-34.668,42.480,293.945
1688252966.253,144.531,-66.406,-36.133,19.043,255.859
1688252966.257,188.965,-53.711,-40.039,-41.504,-220.215
1688252966.261,-9.766,-56.152,-46.387,-62.988,-280.762
1688252966.265,-249.512,-61.035,-45.410,-20.996,-131.836
1688252966.269,-187.012,-63.477,-50.293,23.438,-15.625
1688252966.257,108.887,-59.570,-52.734,12.207,-116.211
1688252966.261,190.918,-56.641,-50.293,-37.109,-102.051
1688252966.265,15.137,-59.082,-52.246,-68.848,-42.969
1688252966.269,-226.562,-55.176,-49.805,-24.902,-130.859
1688252966.273,-211.426,-54.199,-51.270,38.086,-135.254
1688252966.277,87.402,-54.688,-56.152,29.297,83.008
1688252966.281,207.031,-49.805,-58.105,-33.203,100.586
1688252966.284,46.875,-42.480,-61.523,-69.336,-189.453
1688252966.288,-207.520,-48.828,-60.059,-33.203,-151.367
1688252966.292,-243.652,-59.082,-56.152,35.156,119.141
1688252966.296,44.922,-54.688,-60.547,43.945,435.547
1688252966.300,204.102,-45.898,-64.453,-17.090,205.078
1688252966.316,74.707,-50.293,-61.523,-71.289,-222.168
1688252966.320,-179.199,-61.523,-65.430,-50.781,-170.898
1688252966.324,-255.859,-62.988,-62.500,18.066,4.395
1688252966.328,12.207,-63.477,-56.152,31.738,68.848
1688252966.332,210.449,-65.430,-57.617,-17.578,-143.066
1688252966.336,106.445,-66.895,-58.105,-54.199,-18.555
1688252966.340,-145.996,-62.012,-53.711,-31.738,97.168
1688252966.343,-257.812,-50.781,-47.363,23.926,-180.176
1688252966.347,-10.742,-44.434,-45.410,47.852,-191.406
1688252966.351,218.750,-43.945,-45.898,13.184,-109.863
1688252966.355,143.555,-47.363,-45.410,-38.574,-148.438
1688252966.359,-102.051,-57.129,-44.922,-43.945,-226.074
1688252966.361,-266.602,-62.012,-48.340,9.766,-100.098
1688252966.365,-59.082,-60.059,-50.293,39.551,4.883
1688252966.369,212.402,-57.129,-47.852,3.418,-81.543
1688252966.373,162.598,-54.688,-52.734,-43.457,-228.516
1688252966.377,-80.566,-63.477,-63.477,-54.688,-184.570
1688252966.381,-265.625,-69.824,-66.895,-2.930,26.855
1688252966.385,-97.168,-63.477,-58.594,45.898,131.348
1688252966.388,175.781,-56.152,-56.152,5.859,19.043
1688252966.392,164.551,-62.500,-65.430,-48.340,-6.836
1688252966.396,-58.105,-74.707,-73.730,-57.129,368.164
1688252966.400,-270.020,-66.406,-67.383,-19.531,340.332
1688252966.404,-136.719,-49.316,-56.152,23.926,-23.438
1688252966.406,160.156,-45.410,-49.805,11.719,-72.754
1688252966.410,183.594,-52.734,-49.805,-31.250,-166.016
1688252966.414,-20.508,-57.129,-55.664,-46.387,-273.926
1688252966.418,-242.188,-59.082,-55.664,-7.812,-206.055
1688252966.422,-168.457,-56.641,-55.664,31.738,-49.805
1688252966.426,129.883,-50.781,-62.500,6.348,54.688
1688252966.430,201.660,-49.805,-55.176,-42.969,-26.855
1688252966.433,14.160,-50.781,-48.340,-68.359,-244.141
1688252966.437,-218.262,-58.105,-54.688,-24.414,106.445
1688252966.441,-187.500,-55.176,-52.246,41.992,386.719
1688252966.445,99.609,-41.016,-41.016,20.508,-65.918
1688252966.449,213.867,-31.250,-37.598,-41.992,-180.664
1688252966.451,47.852,-34.668,-39.062,-62.500,-165.527
1688252966.455,-207.031,-41.992,-35.645,-34.668,-200.684
1688252966.459,-226.074,-40.039,-31.738,17.090,-149.414
1688252966.463,64.453,-38.086,-42.480,27.832,-16.602
1688252966.467,212.891,-37.598,-44.922,-25.391,-39.551
1688252966.471,66.895,-37.598,-42.480,-63.477,-110.840
1688252966.475,-182.617,-38.086,-46.387,-28.809,-52.734
1688252966.478,-251.953,-36.621,-50.293,25.879,74.219
1688252966.482,19.043,-32.715,-49.805,35.156,447.266
1688252966.486,212.402,-24.414,-41.504,-3.906,160.645
1688252966.490,100.098,-24.414,-41.504,-43.457,-329.102
1688252966.494,-144.531,-36.133,-52.246,-36.133,-35.645
1688252966.497,-249.512,-32.227,-51.270,9.277,133.301
1688252966.501,-12.207,-25.391,-41.992,26.855,-103.516
1688252966.505,205.078,-23.438,-40.039,-14.160,-170.410
1688252966.509,124.023,-21.973,-40.527,-52.734,-193.848
1688252966.513,-104.980,-25.879,-39.551,-39.062,-179.199
1688252966.517,-243.164,-26.855,-40.527,18.555,-42.480
1688252966.521,-39.551,-24.414,-41.992,42.480,54.199
1688252966.524,200.195,-26.855,-46.387,11.719,233.398
1688252966.528,143.555,-25.391,-51.758,-42.969,161.133
1688252966.532,-83.008,-23.438,-47.852,-54.688,-191.895
1688252966.536,-250.977,-32.227,-51.270,3.418,-155.762
1688252966.540,-84.961,-37.598,-54.688,41.504,6.348
1688252966.542,168.945,-38.086,-53.711,8.789,-46.387
1688252966.546,145.508,-40.527,-55.664,-51.758,-144.531
1688252966.550,-64.453,-46.875,-62.500,-58.105,-109.375
1688252966.554,-256.836,-49.805,-62.988,-0.977,-37.109
1688252966.558,-128.906,-47.852,-58.105,40.039,-8.789
1688252966.562,156.738,-51.270,-62.500,10.742,-43.457
1688252966.566,179.199,-54.688,-65.430,-44.434,29.785
1688252966.569,-16.602,-50.781,-63.477,-49.316,313.965
1688252966.573,-226.074,-44.434,-54.688,5.371,227.539
1688252966.577,-142.578,-38.086,-44.434,47.363,-27.344
1688252966.581,147.461,-35.645,-44.922,30.762,109.375
1688252966.585,209.961,-37.109,-52.246,-28.320,85.449
1688252966.586,16.113,-42.969,-56.152,-60.547,-246.094
1688252966.590,-215.820,-46.875,-57.617,-13.672,-204.590
1688252966.594,-178.223,-45.898,-60.547,35.645,-22.949
1688252966.598,98.145,-39.062,-53.223,11.719,-10.254
1688252966.602,199.707,-36.621,-48.340,-36.621,-136.719
1688252966.606,40.527,-46.387,-52.246,-59.570,-214.844
1688252966.610,-189.453,-50.781,-54.688,-25.391,158.203
1688252966.613,-201.172,-49.316,-53.223,28.320,377.930
1688252966.617,61.523,-43.457,-46.875,7.812,-80.078
1688252966.621,190.430,-34.180,-51.758,-48.828,-220.215
1688252966.625,53.223,-36.621,-59.082,-71.289,-125.977
1688252966.629,-183.594,-41.504,-58.105,-48.828,-136.230
1688252966.632,-231.934,-43.457,-58.105,14.160,-114.258
1688252966.636,39.551,-43.945,-53.223,29.297,-76.660
1688252966.640,209.961,-41.992,-47.852,-31.738,-110.840
1688252966.644,107.910,-50.293,-44.922,-56.152,-138.672
1688252966.648,-114.746,-55.664,-48.340,-4.395,-176.270
1688252966.652,-223.145,-46.875,-65.430,35.156,72.266
1688252966.656,6.836,-42.480,-68.359,22.461,388.672
1688252966.659,216.797,-40.527,-58.594,-15.625,161.133
1688252966.663,134.766,-40.527,-68.848,-43.457,-24.902
1688252966.667,-94.727,-41.992,-78.613,-16.113,89.355
1688252966.671,-217.773,-38.086,-78.125,44.434,384.277
1688252966.675,0.977,-28.320,-78.125,44.922,162.109
1688252966.691,227.051,-32.715,-82.520,-10.742,-169.922
1688252966.695,164.551,-33.203,-88.867,-46.387,-198.242
1688252966.699,-55.176,-23.926,-83.008,-32.227,-198.242
1688252966.703,-208.984,-13.672,-78.125,21.484,-131.348
1688252966.707,-42.969,-8.301,-82.031,33.203,-81.055
1688252966.711,209.473,-12.695,-81.543,-3.906,-7.812
1688252966.715,197.266,-9.277,-79.590,-33.691,3.906
1688252966.718,-21.973,-14.648,-85.938,-38.574,-103.027
1688252966.722,-211.426,-24.414,-87.891,4.395,-108.398
1688252966.726,-74.219,-27.832,-81.055,49.805,293.945
1688252966.730,191.895,-25.879,-71.777,12.207,295.410
1688252966.734,197.266,-21.973,-67.871,-45.898,-216.309
1688252966.736,-4.883,-22.461,-66.406,-40.039,-211.426
1688252966.740,-204.590,-20.996,-65.430,6.836,-0.977
1688252966.744,-113.770,-19.531,-61.523,57.617,-8.301
1688252966.748,157.715,-14.160,-55.664,36.133,-127.441
1688252966.752,203.613,-13.672,-56.641,-33.691,-133.301
1688252966.756,21.973,-19.043,-60.059,-50.293,-34.668
1688252966.760,-201.172,-24.902,-61.523,1.465,67.383
1688252966.763,-153.320,-27.832,-56.152,41.504,47.852
1688252966.767,129.883,-26.367,-48.828,18.066,87.402
1688252966.771,214.844,-24.414,-49.316,-30.273,420.410
1688252966.775,39.551,-20.020,-46.875,-53.223,122.559
1688252966.779,-195.312,-25.391,-51.758,-12.207,-207.031
1688252966.781,-180.664,-34.668,-59.570,46.875,51.758
1688252966.785,97.168,-35.156,-57.129,20.020,45.898
1688252966.789,221.680,-28.809,-53.711,-47.852,-245.117
1688252966.793,86.426,-26.855,-55.176,-54.688,-306.641
1688252966.797,-149.414,-34.180,-62.988,-9.277,-144.043
1688252966.801,-197.754,-35.645,-61.035,43.945,41.504
1688252966.805,64.453,-29.785,-51.758,34.668,-6.836
1688252966.808,214.844,-26.855,-55.664,-17.578,-198.242
1688252966.812,98.633,-36.621,-63.965,-39.551,23.926
1688252966.816,-126.465,-35.645,-55.664,-8.301,119.629
1688252966.820,-212.402,-31.738,-47.363,41.504,-91.797
1688252966.824,29.785,-30.762,-42.480,37.598,-39.062
1688252966.828,214.355,-23.438,-39.062,-16.113,-87.891
1688252966.832,118.652,-23.926,-43.945,-52.246,-129.883
1688252966.836,-101.074,-34.180,-51.758,-16.113,-74.219
1688252966.840,-221.191,-39.551,-52.734,46.387,60.547
1688252966.844,-3.906,-35.156,-43.945,44.922,199.707
1688252966.848,196.777,-30.273,-41.016,-9.277,117.676
1688252966.852,113.770,-33.203,-50.293,-46.387,-17.090
1688252966.855,-86.426,-44.434,-59.570,-15.625,18.066
1688252966.859,-226.562,-55.664,-63.965,42.480,381.836
1688252966.863,-51.758,-47.363,-59.082,34.180,200.684
1688252966.867,175.293,-43.457,-57.617,-25.879,-203.125
1688252966.871,158.203,-54.688,-64.941,-32.715,-137.695
1688252966.871,-24.414,-53.711,-58.105,8.301,-53.223
1688252966.875,-216.797,-42.969,-47.363,18.066,-99.121
1688252966.879,-113.770,-41.504,-55.176,-2.441,-33.203
1688252966.883,102.051,-49.316,-62.012,-66.406,-94.727
1688252966.887,66.895,-66.895,-63.477,-135.742,-151.855
1688252966.891,-144.531,-76.660,-64.453,-153.809,-17.578
1688252966.895,-347.656,-84.961,-66.895,-120.605,-0.977
1688252966.898,-262.695,-93.750,-80.078,-109.863,242.676
1688252966.902,-18.555,-82.520,-81.543,-175.293,323.730
1688252966.906,-9.277,-79.590,-70.801,-255.371,-156.250
1688252966.910,-194.824,-86.426,-78.613,-266.113,-253.418
1688252966.914,-402.832,-83.008,-80.566,-222.656,-74.707
1688252966.916,-353.516,-84.961,-69.824,-189.941,-4.395
1688252966.920,-96.191,-86.426,-72.266,-223.633,-84.961
1688252966.924,-37.598,-90.332,-62.012,-286.133,-164.551
1688252966.928,-189.453,-98.145,-49.316,-291.992,-150.879
1688252966.932,-399.902,-103.027,-70.801,-230.469,-91.309
1688252966.936,-371.582,-106.934,-88.867,-183.594,68.848
1688252966.940,-99.121,-103.027,-64.941,-215.332,222.168
1688252966.943,-4.883,-99.121,-54.199,-258.789,322.266
1688252966.947,-137.207,-106.445,-62.988,-268.555,60.059
1688252966.951,-358.398,-120.117,-69.336,-225.586,-190.918
1688252966.955,-371.094,-121.094,-68.848,-155.762,53.223
1688252966.959,-107.910,-104.980,-65.430,-167.969,127.441
1688252966.961,24.902,-94.727,-58.105,-226.074,-280.762
1688252966.965,-67.871,-86.914,-60.059,-219.727,-365.723
1688252966.969,-281.738,-84.961,-65.430,-175.781,-205.566
1688252966.973,-344.238,-94.727,-67.871,-116.699,-93.750
1688252966.977,-100.586,-104.004,-68.848,-121.582,-136.230
1688252966.981,74.707,-92.773,-81.055,-172.363,-163.086
1688252966.985,-16.113,-76.172,-80.078,-188.965,117.676
1688252966.988,-236.328,-76.172,-64.941,-150.391,117.188
1688252966.992,-330.566,-72.754,-73.242,-85.938,-41.504
1688252966.996,-99.609,-62.500,-81.543,-76.172,32.227
1688252967.000,113.281,-58.594,-78.125,-116.211,152.344
1688252967.004,59.082,-47.852,-66.895,-139.648,-13.672
1688252967.007,-134.277,-36.133,-67.383,-86.914,-228.027
1688252967.011,-268.555,-47.852,-82.520,-12.207,-57.617
1688252967.015,-82.520,-50.781,-86.426,-2.441,8.301
1688252967.019,152.344,-41.992,-76.172,-50.293,-142.090
1688252967.023,120.605,-45.410,-74.219,-74.707,-289.551
1688252967.027,-79.102,-55.176,-83.008,-38.574,-37.109
1688252967.031,-237.305,-55.664,-85.449,24.414,282.715
1688252967.034,-80.566,-44.434,-77.637,30.273,58.105
1688252967.038,164.062,-38.086,-72.266,-22.949,-144.043
1688252967.042,158.203,-46.875,-76.172,-54.688,24.414
1688252967.046,-33.691,-53.711,-89.844,-35.645,179.688
1688252967.050,-210.938,-38.086,-78.613,27.832,20.996
1688252967.053,-91.797,-35.156,-66.406,53.223,-23.926
1688252967.057,162.109,-37.598,-68.848,5.371,42.480
1688252967.061,179.199,-41.504,-71.777,-55.176,-23.438
1688252967.065,-5.371,-41.504,-71.289,-49.805,-212.891
1688252967.069,-189.941,-41.016,-63.477,20.996,-158.203
1688252967.073,-115.723,-52.734,-70.801,48.340,70.312
1688252967.077,135.742,-56.152,-79.102,4.395,15.137
1688252967.080,190.918,-50.293,-72.754,-43.945,-189.453
1688252967.084,27.832,-53.711,-65.430,-45.410,-227.051
1688252967.088,-175.781,-57.129,-64.941,26.855,88.867
1688252967.092,-136.719,-39.551,-49.316,80.566,159.180
1688252967.096,121.094,-25.391,-38.086,34.180,-129.883
1688252967.113,202.148,-39.062,-50.781,-29.297,-168.945
1688252967.117,58.594,-46.875,-58.594,-43.457,-53.223
1688252967.121,-153.809,-38.086,-55.664,10.742,-53.223
1688252967.125,-169.434,-32.715,-52.246,62.988,-51.758
1688252967.129,83.008,-31.738,-40.527,38.574,0.488
1688252967.133,202.637,-37.598,-39.062,-23.926,46.387
1688252967.137,77.148,-44.434,-43.457,-48.828,-65.918
1688252967.140,-138.184,-52.734,-38.086,-2.930,-170.898
1688252967.144,-193.848,-53.223,-34.668,59.082,122.070
1688252967.148,41.504,-45.410,-32.715,47.363,486.328
1688252967.152,196.777,-39.551,-23.438,-17.578,57.617
1688252967.156,94.727,-45.898,-28.320,-50.293,-275.391
1688252967.171,-121.094,-60.059,-34.668,-0.977,-138.184
1688252967.175,-215.332,-47.852,-30.762,55.664,-59.570
1688252967.179,1.465,-27.832,-22.949,32.715,-57.129
1688252967.183,185.547,-31.738,-24.902,-42.969,-162.109
1688252967.187,113.770,-37.598,-34.180,-62.012,-194.336
1688252967.191,-81.055,-33.691,-30.273,-5.859,-56.152
1688252967.195,-206.055,-32.227,-26.855,46.387,42.480
1688252967.198,-38.086,-40.527,-25.391,31.738,-34.180
1688252967.202,145.996,-54.199,-31.250,-49.316,119.629
1688252967.206,104.004,-53.223,-32.715,-79.102,181.641
1688252967.210,-100.586,-59.082,-29.785,-58.105,-154.297
1688252967.214,-257.812,-66.406,-33.203,1.953,-71.777
1688252967.201,-95.703,-62.988,-35.156,20.996,15.625
1688252967.205,133.789,-58.594,-30.273,-39.062,-129.395
1688252967.209,113.770,-57.617,-32.227,-75.684,-210.938
1688252967.213,-68.359,-56.641,-37.598,-50.781,-148.438
1688252967.217,-227.051,-50.781,-37.109,10.254,-13.672
1688252967.221,-102.539,-43.457,-38.086,26.855,20.508
1688252967.225,145.020,-30.762,-32.227,-21.484,-14.160
1688252967.228,162.109,-27.344,-29.297,-58.594,41.504
1688252967.232,-18.555,-43.945,-40.039,-37.598,85.449
1688252967.236,-207.520,-46.875,-40.527,22.949,-24.902
1688252967.240,-122.070,-32.227,-31.250,48.828,-97.656
1688252967.244,130.859,-35.156,-32.715,12.207,29.297
1688252967.246,168.457,-44.434,-32.715,-41.992,259.766
1688252967.250,1.953,-40.039,-27.832,-49.805,-4.883
1688252967.254,-193.359,-35.645,-29.785,14.648,-261.719
1688252967.258,-145.020,-44.922,-37.109,56.152,79.590
1688252967.262,110.352,-52.246,-40.039,9.277,172.852
1688252967.266,187.500,-51.758,-34.180,-53.223,-105.469
1688252967.270,45.410,-48.828,-27.344,-58.594,-227.539
1688252967.273,-166.016,-53.711,-29.785,11.230,75.684
1688252967.277,-149.414,-51.758,-28.809,58.594,233.398
1688252967.281,109.863,-31.738,-24.902,20.996,-117.188
1688252967.285,194.824,-35.645,-32.227,-37.598,-184.570
1688252967.289,58.594,-48.340,-38.574,-53.223,-148.438
1688252967.306,-156.738,-43.945,-40.527,7.324,-164.551
1688252967.310,-194.336,-48.340,-42.480,60.059,-118.164
1688252967.314,42.480,-57.617,-42.969,32.715,-11.719
1688252967.318,177.734,-49.805,-41.016,-27.344,-38.574
1688252967.322,83.984,-36.133,-40.039,-40.039,-173.828
1688252967.326,-119.141,-28.809,-44.434,-2.441,-85.449
1688252967.330,-198.242,-25.879,-42.969,46.875,176.758
1688252967.333,22.461,-44.434,-40.039,33.203,335.449
1688252967.337,199.219,-49.805,-36.133,-20.996,60.059
1688252967.341,116.211,-37.598,-40.039,-41.992,-199.219
1688252967.345,-106.445,-38.086,-55.176,-11.719,-29.785
1688252967.349,-218.750,-33.203,-53.223,45.410,145.508
1688252967.337,-5.859,-32.715,-40.527,40.039,34.180
1688252967.341,187.500,-26.367,-33.691,-16.113,-94.727
1688252967.345,123.047,-26.367,-41.504,-51.758,-96.680
1688252967.349,-67.871,-45.898,-54.688,-32.227,-112.305
1688252967.353,-201.172,-55.176,-53.711,49.316,-174.805
1688252967.357,-41.992,-44.922,-47.852,67.383,41.016
1688252967.361,163.086,-17.090,-46.387,-14.648,136.230
1688252967.364,125.977,-3.418,-44.922,-70.312,-105.957
1688252967.368,-72.266,-5.371,-43.945,-55.664,-175.781
1688252967.372,-237.793,-27.344,-47.852,2.930,-74.219
1688252967.376,-101.074,-40.527,-46.387,28.320,223.145
1688252967.380,140.625,-12.695,-32.715,-24.414,184.082
1688252967.381,141.113,-0.977,-30.273,-73.242,-222.656
1688252967.385,-40.039,-20.508,-39.551,-50.293,-178.223
1688252967.389,-217.773,-26.367,-39.551,23.926,11.719
1688252967.393,-123.535,-17.090,-43.945,42.480,34.668
1688252967.397,123.535,-16.602,-46.875,-10.254,-110.840
1688252967.401,162.109,-22.949,-44.434,-54.199,-85.938
1688252967.405,-3.418,-31.250,-47.852,-50.781,300.293
1688252967.408,-212.402,-38.086,-53.711,-5.859,231.934
1688252967.412,-164.551,-52.246,-49.805,17.578,-59.570
1688252967.416,97.168,-51.758,-46.387,-13.184,74.219
1688252967.420,168.945,-25.879,-41.504,-55.664,-10.742
1688252967.424,5.371,-26.367,-45.410,-69.336,-269.531
1688252967.441,-200.195,-34.668,-50.781,-6.348,-161.133
1688252967.445,-178.223,-40.527,-44.434,60.059,-17.578
1688252967.449,78.125,-21.973,-33.203,20.996,-76.172
1688252967.453,180.664,15.625,-24.414,-54.688,-219.238
1688252967.457,45.898,23.926,-30.762,-59.082,-254.395
1688252967.461,-167.480,12.207,-37.109,1.953,-12.207
1688252967.465,-196.777,9.277,-36.133,45.898,161.621
1688252967.468,47.363,9.277,-41.016,11.719,68.359
1688252967.472,177.734,2.441,-38.574,-47.363,-131.836
1688252967.476,60.547,-5.371,-41.992,-57.617,76.660
1688252967.480,-155.762,-11.230,-57.129,-24.414,209.961
1688252967.484,-211.426,-18.066,-49.316,29.785,-75.195
1688252967.486,34.180,-22.461,-35.645,32.715,-55.664
1688252967.490,190.430,-24.414,-45.898,-34.180,-95.703
1688252967.494,81.543,-4.883,-59.570,-69.824,-221.680
1688252967.498,-133.301,19.531,-62.012,-35.645,-180.176
1688252967.502,-229.004,2.930,-57.129,26.855,5.371
1688252967.506,-20.020,-3.906,-54.199,20.996,176.270
1688252967.510,168.457,2.930,-57.617,-53.223,31.250
1688252967.513,97.656,-3.906,-59.570,-83.496,-250.488
1688252967.517,-99.609,-6.348,-48.340,-32.715,-121.582
1688252967.521,-229.492,-6.348,-43.457,35.156,429.688
1688252967.525,-59.570,10.742,-44.922,20.020,365.234
1688252967.529,156.738,17.578,-44.922,-44.434,-166.016
1688252967.546,113.281,2.441,-46.875,-81.055,-252.930
1688252967.550,-79.102,2.930,-45.410,-49.316,-193.359
1688252967.554,-226.562,-9.277,-38.574,16.602,-156.738
1688252967.558,-80.566,-21.484,-41.992,19.043,-99.609
1688252967.562,147.949,16.113,-49.316,-38.086,-134.277
1688252967.566,146.484,54.199,-43.457,-62.012,-152.344
1688252967.570,-35.645,59.082,-44.922,-41.016,-114.258
1688252967.573,-219.727,50.781,-41.992,13.672,-63.965
1688252967.577,-119.629,32.227,-41.992,31.738,235.840
1688252967.581,121.094,17.578,-50.781,-26.855,208.496
1688252967.585,147.949,20.508,-52.734,-80.566,-185.547
1688252967.589,-18.066,12.207,-56.152,-65.918,-177.246
1688252967.591,-212.891,3.418,-55.176,3.418,24.414
1688252967.595,-145.508,18.066,-46.875,32.227,10.742
1688252967.599,107.422,27.344,-47.852,-12.207,-78.125
1688252967.603,159.180,16.602,-48.828,-60.547,-107.910
1688252967.607,11.719,15.625,-56.152,-67.383,-180.664
1688252967.611,-178.711,27.832,-55.176,-10.742,-74.219
1688252967.615,-154.785,35.645,-38.574,46.387,116.699
1688252967.618,87.891,32.227,-41.992,8.301,122.559
1688252967.622,174.316,33.691,-48.340,-44.922,-16.113
1688252967.626,34.668,32.227,-41.504,-45.898,-144.531
1688252967.630,-170.410,34.668,-38.574,5.859,-164.551
1688252967.634,-183.594,28.809,-34.668,73.730,26.855
1688252967.622,53.223,12.695,-34.180,52.246,428.711
1688252967.626,170.410,7.324,-34.180,-31.250,183.105
1688252967.630,47.363,-10.254,-40.527,-61.035,-284.668
1688252967.634,-163.574,-10.254,-44.922,-10.254,-159.180
1688252967.638,-214.355,-2.441,-42.480,44.922,-27.344
1688252967.642,21.973,-3.418,-46.387,20.996,-13.672
1688252967.646,175.781,3.418,-54.688,-43.945,-30.273
1688252967.649,71.777,0.977,-57.617,-67.383,-90.332
1688252967.653,-136.230,-7.324,-48.828,-25.879,-177.246
1688252967.657,-221.191,-7.324,-45.410,32.715,-120.605
1688252967.661,-10.254,-7.812,-50.293,25.391,-83.496
1688252967.665,168.457,-11.719,-58.105,-32.227,83.008
1688252967.667,90.820,-16.602,-51.758,-67.871,45.410
1688252967.671,-107.910,-20.020,-42.480,-33.691,-238.770
1688252967.675,-229.004,-26.855,-47.852,29.785,-86.914
1688252967.679,-47.852,-39.551,-56.641,22.949,77.637
1688252967.683,153.320,-39.551,-58.105,-43.457,-79.590
1688252967.687,93.750,-37.109,-62.988,-82.520,-168.457
1688252967.691,-106.934,-41.504,-64.453,-48.828,42.480
1688252967.694,-250.000,-41.016,-62.012,34.668,351.562
1688252967.698,-91.309,-34.668,-60.059,39.551,248.535
1688252967.702,145.020,-37.598,-54.688,-28.320,-127.441
1688252967.706,141.113,-40.527,-45.898,-62.012,-118.164
1688252967.710,-51.758,-42.969,-48.340,-40.527,46.875
1688252967.711,-235.840,-50.293,-55.664,22.461,-47.852
1688252967.715,-116.211,-42.480,-52.246,42.480,-76.660
1688252967.719,132.812,-41.016,-45.898,-6.348,-88.867
1688252967.723,151.367,-49.805,-33.691,-51.758,-202.148
1688252967.727,-18.066,-44.922,-27.344,-27.832,-216.797
1688252967.731,-202.637,-41.992,-41.504,23.926,-57.617
1688252967.735,-129.395,-45.898,-44.922,45.410,275.391
1688252967.738,110.352,-37.598,-40.039,-6.836,306.152
1688252967.742,145.020,-20.996,-43.457,-80.566,-191.406
1688252967.746,-10.742,-26.855,-50.781,-67.871,-295.410
1688252967.750,-202.637,-36.133,-51.270,0.977,-83.984
1688252967.754,-159.668,-52.734,-46.875,34.668,13.184
1688252967.771,86.426,-62.988,-47.852,-11.230,-125.488
1688252967.775,161.133,-60.059,-52.246,-71.777,-178.711
1688252967.779,23.926,-60.547,-44.434,-65.918,-18.555
1688252967.783,-179.199,-41.504,-35.156,-2.930,-0.488
1688252967.787,-183.105,-26.855,-42.969,35.156,-42.969
1688252967.791,62.012,-32.227,-45.410,6.836,80.078
1688252967.795,169.922,-42.969,-41.016,-48.828,139.648
1688252967.798,37.598,-48.340,-43.945,-77.637,-121.582
1688252967.802,-170.898,-48.828,-50.781,-20.996,-165.527
1688252967.806,-215.332,-64.941,-58.594,41.992,232.910
1688252967.810,19.043,-83.008,-58.594,7.324,315.430
1688252967.814,170.410,-58.105,-46.387,-51.270,-150.879
1688252967.817,66.406,-49.805,-48.828,-67.383,-343.750
1688252967.821,-143.555,-57.129,-58.594,-21.484,-49.316
1688252967.825,-219.238,-49.805,-50.781,37.598,299.316
1688252967.829,3.906,-40.039,-45.898,4.883,55.664
1688252967.833,159.668,-31.250,-51.270,-62.988,-175.781
1688252967.837,58.594,-25.391,-54.199,-74.707,-65.918
1688252967.841,-116.699,-23.438,-56.152,-19.531,36.133
1688252967.844,-206.543,-22.461,-54.688,49.805,15.625
1688252967.848,-22.949,-22.461,-54.688,36.621,-91.797
1688252967.852,174.805,-22.461,-48.828,-26.855,73.730
1688252967.856,125.488,-24.414,-43.945,-43.945,73.730
1688252967.860,-75.684,-28.809,-51.270,-17.090,-191.895
1688252967.861,-226.562,-27.832,-56.641,29.785,-69.824
1688252967.865,-55.664,-15.137,-49.805,48.828,115.234
1688252967.869,176.758,-22.949,-39.551,-1.465,-41.504
1688252967.873,142.090,-31.250,-36.621,-55.664,-259.277
1688252967.877,-54.688,-48.828,-45.898,-39.062,-127.441
1688252967.881,-216.309,-68.359,-51.270,37.598,145.508
1688252967.885,-86.914,-40.527,-42.969,42.480,181.152
1688252967.888,148.438,-7.324,-37.598,-30.762,-21.973
1688252967.892,154.297,2.441,-37.109,-63.477,-28.809
1688252967.896,-21.484,-7.324,-38.086,-31.738,370.117
1688252967.900,-202.148,-14.648,-36.133,28.320,219.727
1688252967.904,-116.699,-20.996,-32.227,56.152,-157.715
1688252967.907,134.766,-24.902,-25.879,6.836,-189.941
1688252967.911,168.457,-18.066,-36.621,-50.293,-179.199
1688252967.915,-0.977,-19.531,-41.504,-32.227,-220.703
1688252967.919,-215.332,-38.086,-36.621,32.227,-189.453
1688252967.923,-144.531,-40.039,-44.434,41.016,40.527
1688252967.927,121.582,-32.227,-46.387,-18.066,117.676
1688252967.931,148.926,-23.926,-45.898,-60.547,-1.953
1688252967.934,3.418,-30.762,-55.176,-54.688,-127.441
1688252967.938,-193.359,-59.082,-55.664,11.719,32.227
1688252967.942,-180.664,-60.059,-55.176,46.875,117.676
1688252967.946,56.641,-33.203,-60.059,-6.348,-156.250
1688252967.950,154.297,-20.508,-52.734,-65.918,-242.188
1688252967.951,40.039,-30.273,-52.246,-70.801,-147.949
1688252967.955,-185.547,-42.480,-62.500,-19.531,-135.254
1688252967.959,-155.762,-44.922,-53.223,35.156,-23.926
1688252967.963,135.742,-59.570,-42.480,-12.695,104.980
1688252967.967,143.555,-60.059,-43.457,-81.055,-90.820
1688252967.971,-61.523,-49.316,-50.293,-53.223,-99.121
1688252967.975,-230.469,-58.105,-54.199,10.254,-19.043
1688252967.978,-119.141,-60.059,-45.410,48.828,278.320
1688252967.982,131.836,-40.039,-39.062,-4.883,546.875
1688252967.986,160.156,-32.715,-36.621,-72.754,15.625
1688252967.990,7.324,-29.297,-40.039,-53.711,-252.930
1688252967.994,-181.641,-34.668,-49.316,8.789,-43.945
1688252967.996,-135.742,-57.617,-52.246,36.133,-59.082
1688252968.000,108.398,-33.691,-47.852,-8.789,-155.273
1688252968.004,171.875,-8.301,-45.410,-53.711,-202.148
1688252968.008,19.531,-3.906,-50.293,-50.293,-204.102
1688252968.012,-196.777,-19.043,-55.664,-7.812,-154.297
1688252968.016,-172.363,-31.738,-54.199,36.133,-49.805
1688252968.020,94.727,-17.578,-48.828,15.137,101.074
1688252968.023,194.336,-10.742,-38.574,-30.273,336.914
1688252968.027,61.035,-25.879,-31.250,-34.668,37.598
1688252968.031,-156.250,-55.176,-42.480,-0.488,-186.035
1688252968.035,-187.988,-49.316,-43.945,30.273,-19.043
1688252968.039,56.641,-10.742,-40.527,7.324,-8.789
1688252968.041,177.246,0.000,-44.434,-52.246,-148.926
1688252968.045,60.059,-22.461,-47.363,-67.871,-216.797
1688252968.049,-148.926,-44.434,-53.711,-16.602,-29.785
1688252968.053,-201.172,-25.879,-50.781,34.668,58.105
1688252968.057,26.367,2.930,-31.738,33.203,-54.688
1688252968.061,170.410,-0.977,-37.109,-28.809,-71.777
1688252968.065,78.613,-10.742,-53.223,-58.105,87.402
1688252968.068,-117.676,-11.230,-43.457,-17.578,138.184
1688252968.072,-216.797,-31.738,-48.828,28.320,9.766
1688252968.076,-10.254,-22.949,-51.270,26.855,61.523
1688252968.080,184.570,-18.066,-41.504,-27.344,172.852
1688252968.084,120.117,-22.949,-37.109,-61.523,-28.320
1688252968.086,-85.449,-14.648,-33.691,-29.785,-233.398
1688252968.090,-214.355,-8.789,-46.387,22.949,-87.402
1688252968.094,-39.551,0.488,-56.641,21.973,-11.719
1688252968.098,170.898,-15.625,-63.965,-39.551,-176.270
1688252968.102,133.301,-26.855,-63.965,-76.172,-288.086
1688252968.106,-60.059,-18.555,-56.152,-44.922,-134.766
1688252968.110,-209.961,-19.043,-47.363,21.484,173.828
1688252968.113,-68.848,-10.254,-41.992,31.738,112.793
1688252968.117,172.363,0.977,-33.691,-17.090,-167.480
1688252968.121,164.551,-17.578,-33.203,-51.270,-158.203
1688252968.125,-37.109,-35.156,-51.758,-37.109,110.840
1688252968.129,-212.891,-16.113,-61.035,24.414,34.180
1688252968.135,-105.469,-1.465,-51.270,43.945,-52.734
1688252968.139,134.766,-19.531,-48.828,-3.418,30.273
1688252968.143,156.738,-31.738,-48.828,-46.387,-78.613
1688252968.147,-16.602,-42.969,-49.805,-46.875,-220.703
1688252968.151,-201.660,-47.852,-50.293,16.113,-172.852
1688252968.155,-135.254,-22.949,-54.688,45.898,131.348
1688252968.159,116.699,5.859,-52.734,0.977,120.605
1688252968.162,165.527,11.230,-55.664,-64.453,-160.645
1688252968.166,1.465,-10.254,-66.895,-75.684,-86.426
1688252968.170,-203.613,-38.574,-72.266,-18.555,74.707
1688252968.174,-169.434,-28.809,-59.082,21.484,0.488
1688252968.178,83.008,-3.418,-51.758,-16.602,-114.258
1688252968.191,154.785,3.418,-55.664,-71.777,-108.887
1688252968.195,25.879,1.465,-57.129,-59.570,162.598
1688252968.199,-179.688,-0.977,-55.176,-8.301,76.660
1688252968.203,-190.918,17.090,-49.805,30.273,-61.523
1688252968.207,61.035,15.625,-48.828,1.465,-33.691
1688252968.211,175.293,-8.301,-53.223,-41.992,256.348
1688252968.215,59.082,8.789,-48.828,-39.062,346.680
1688252968.218,-147.461,26.367,-34.668,6.348,-83.008
1688252968.222,-191.895,4.395,-30.273,52.734,-34.668
1688252968.226,43.945,-5.859,-44.922,23.438,53.711
1688252968.230,181.152,-4.395,-48.340,-48.340,-183.105
1688252968.234,77.148,-22.949,-42.969,-83.984,-287.109
1688252968.236,-121.094,-8.301,-44.434,-22.949,-167.480
1688252968.240,-198.730,21.484,-39.551,53.711,-47.363
1688252968.244,11.719,1.953,-38.086,33.203,-94.238
1688252968.248,190.430,-28.809,-36.133,-31.738,-144.531
1688252968.252,115.234,-2.441,-38.574,-55.664,-59.082
1688252968.256,-100.586,19.043,-46.387,-13.672,-35.645
1688252968.260,-210.938,20.996,-33.691,54.688,48.340
1688252968.263,-18.066,21.973,-31.250,43.457,44.434
1688252968.267,176.270,4.395,-49.316,-16.113,201.172
1688252968.271,129.883,9.277,-49.316,-39.551,337.891
1688252968.275,-66.406,10.742,-48.340,-26.367,-65.430
1688252968.279,-210.449,-3.418,-51.270,33.691,-132.324
1688252968.281,-44.434,-2.441,-38.574,58.105,-9.277
1688252968.285,161.133,-9.277,-38.574,-22.461,-121.094
1688252968.289,117.676,-22.949,-51.758,-94.238,-224.609
1688252968.293,-78.613,-24.414,-59.570,-64.453,-192.383
1688252968.297,-247.559,-34.668,-61.035,3.906,-16.113
1688252968.301,-78.125,-32.227,-50.781,19.531,146.484
1688252968.305,148.438,-26.367,-45.898,-31.250,80.566
1688252968.308,129.883,-40.527,-47.852,-71.289,42.480
1688252968.312,-27.344,-45.898,-45.410,-35.645,253.418
1688252968.316,-219.727,-47.363,-46.875,15.137,107.910
1688252968.320,-146.973,-52.734,-49.805,27.344,-42.969
1688252968.324,103.516,-53.711,-52.734,-22.461,-19.043
1688252968.326,146.484,-51.758,-57.617,-76.660,-187.500
1688252968.330,-19.043,-55.176,-59.570,-73.730,-263.672
1688252968.334,-213.379,-53.711,-54.199,-10.254,-164.551
1688252968.338,-161.133,-64.941,-47.363,37.109,6.348
1688252968.342,96.680,-74.219,-40.527,-5.859,-50.781
1688252968.346,162.598,-66.895,-47.363,-71.289,-175.293
1688252968.350,13.184,-63.965,-59.082,-73.730,-172.852
1688252968.353,-193.848,-65.430,-63.477,-0.977,222.168
1688252968.357,-188.477,-45.410,-57.617,37.109,427.734
1688252968.361,70.312,-25.879,-46.875,-10.254,-3.906
1688252968.365,177.734,-32.715,-37.598,-56.641,-156.250
1688252968.369,49.805,-34.180,-37.598,-56.152,43.457
1688252968.372,-156.738,-4.883,-36.133,-9.277,12.207
1688252968.376,-193.359,2.930,-37.109,40.039,-102.539
1688252968.380,39.062,-13.672,-39.551,11.230,-77.148
1688252968.384,170.410,-28.320,-43.945,-60.547,-166.016
1688252968.388,66.406,-43.945,-45.410,-66.406,-248.535
1688252968.392,-132.812,-77.637,-44.922,2.441,-93.262
1688252968.396,-204.590,-73.242,-52.246,49.316,138.672
1688252968.399,24.902,-32.715,-39.062,24.414,396.973
1688252968.403,193.359,-21.484,-39.062,-32.715,41.992
1688252968.407,84.473,-23.438,-62.012,-69.824,-305.176
1688252968.411,-125.977,-12.207,-61.523,-41.016,-112.305
1688252968.415,-226.562,-14.160,-62.012,10.742,109.863
1688252968.416,-39.062,-24.902,-66.895,0.000,-7.324
1688252968.420,153.809,-30.762,-57.617,-47.363,-168.457
1688252968.424,101.562,-54.199,-62.500,-72.754,-53.711
1688252968.428,-92.285,-68.359,-62.500,-34.180,-90.820
1688252968.432,-228.027,-84.961,-48.828,33.203,-138.184
1688252968.436,-69.824,-76.172,-49.805,40.039,66.406
1688252968.440,156.250,-14.160,-51.758,-21.484,289.551
1688252968.443,128.418,15.137,-50.293,-70.801,150.391
1688252968.447,-68.848,9.277,-57.129,-41.992,-153.320
1688252968.451,-220.703,16.602,-57.617,34.668,-139.648
1688252968.455,-83.984,19.531,-45.898,60.059,117.188
1688252968.459,149.414,2.930,-35.645,0.488,-31.738
1688252968.462,111.816,-49.316,-46.387,-66.895,-265.137
1688252968.466,-62.988,-85.449,-52.734,-52.246,-91.797
1688252968.470,-210.449,-48.340,-44.434,27.832,79.102
1688252968.474,-104.980,-0.977,-42.969,58.594,-36.621
1688252968.478,157.715,13.184,-31.738,20.020,-146.973
1688252968.482,175.293,11.719,-28.809,-32.715,-3.906
1688252968.486,-3.418,0.977,-45.898,-38.086,143.066
1688252968.489,-210.449,0.000,-47.363,14.160,-18.066
1688252968.493,-142.090,2.930,-37.598,47.363,-95.703
1688252968.497,131.836,-9.277,-41.016,10.254,-64.453
1688252968.501,176.270,-27.832,-45.410,-48.340,-115.234
1688252968.505,20.020,-37.598,-45.898,-55.176,-242.188
1688252968.521,-185.059,-36.621,-51.270,8.789,-152.832
1688252968.525,-180.664,-36.133,-49.805,52.246,42.480
1688252968.529,101.562,-11.719,-32.715,22.461,-32.715
1688252968.533,190.918,-19.043,-46.875,-38.086,-172.852
1688252968.537,43.457,-59.082,-58.105,-60.059,-159.668
1688252968.541,-170.410,-88.867,-45.898,-10.254,190.918
1688252968.545,-195.312,-77.148,-40.039,44.434,390.625
1688252968.548,65.430,-34.180,-31.738,20.508,14.648
1688252968.552,195.312,-7.812,-40.527,-38.086,-141.602
1688252968.556,67.383,-20.020,-55.176,-71.289,105.469
1688252968.560,-167.480,-27.344,-51.758,-41.016,51.758
1688252968.564,-228.027,-17.578,-34.180,25.391,-145.508
1688252968.566,22.461,-33.203,-30.762,19.043,-127.930
1688252968.570,197.266,-46.387,-30.273,-28.809,-132.812
1688252968.574,98.633,-52.246,-37.109,-61.035,-222.168
1688252968.578,-139.648,-72.754,-54.199,-48.340,-224.609
1688252968.582,-230.957,-84.961,-53.223,16.602,-33.691
1688252968.586,-3.906,-86.426,-48.340,20.508,66.406
1688252968.590,186.035,-93.750,-49.316,-32.715,2.930
1688252968.593,118.164,-93.262,-48.828,-63.965,-171.387
1688252968.597,-107.910,-98.145,-40.039,-39.551,-151.367
1688252968.601,-251.953,-113.770,-43.945,20.508,288.574
1688252968.605,-51.758,-112.305,-51.758,27.832,166.992
1688252968.609,187.988,-105.957,-43.945,-27.344,-182.617
1688252968.611,138.184,-109.863,-51.758,-62.012,-179.688
1688252968.615,-97.168,-100.098,-65.918,-54.688,-150.879
1688252968.619,-261.719,-96.191,-64.941,-8.789,-125.488
1688252968.623,-89.355,-104.492,-50.781,23.438,-25.879
1688252968.627,174.805,-74.219,-43.457,-12.695,11.230
1688252968.631,176.270,-43.945,-36.621,-50.293,0.000
1688252968.635,-47.363,-62.500,-54.688,-55.664,-43.457
1688252968.638,-255.859,-68.848,-71.289,-26.367,-134.766
1688252968.642,-122.070,-79.102,-64.453,14.648,313.965
1688252968.646,147.461,-87.402,-53.711,-1.465,634.766
1688252968.650,173.340,-84.473,-37.598,-54.688,34.668
1688252968.654,-9.277,-88.867,-38.574,-50.781,-259.277
1688252968.656,-223.145,-62.012,-50.293,-2.441,18.066
1688252968.660,-153.320,-32.715,-49.316,28.809,6.348
1688252968.664,135.742,-22.949,-42.480,4.395,-84.473
1688252968.668,191.406,-24.414,-54.199,-44.434,-107.422
1688252968.672,7.324,-28.809,-66.895,-50.293,-167.969
1688252968.676,-213.379,-28.320,-66.895,-0.977,-81.543
1688252968.680,-182.617,-43.945,-52.734,44.434,44.434
1688252968.683,102.051,-57.617,-43.945,22.949,72.754
1688252968.687,194.336,-54.199,-48.340,-36.621,178.711
1688252968.691,43.457,-38.086,-44.922,-54.199,-89.844
1688252968.695,-183.594,-33.203,-46.387,-9.766,-225.586
1688252968.699,-199.707,-52.734,-48.340,39.062,-5.371
1688252968.701,82.520,-55.176,-50.293,25.879,11.230
1688252968.705,213.379,-27.832,-44.922,-37.109,-167.969
1688252968.709,70.312,-12.207,-44.922,-63.965,-240.723
1688252968.713,-170.898,-43.945,-59.570,-27.832,-143.555
1688252968.717,-213.379,-53.223,-49.805,37.109,-120.117
1688252968.721,45.410,-22.949,-30.273,39.062,-75.684
1688252968.725,187.012,-16.602,-36.133,-24.414,-115.234
1688252968.728,70.312,-21.973,-46.875,-53.223,41.992
1688252968.732,-141.113,-31.250,-46.875,-14.648,290.039
1688252968.736,-201.660,-28.320,-35.156,47.852,-42.480
1688252968.740,29.785,-28.809,-26.855,41.992,-161.133
1688252968.744,192.383,-54.199,-46.387,-42.480,-96.191
1688252968.747,91.309,-50.781,-61.523,-94.238,-299.316
1688252968.751,-126.465,-21.484,-54.688,-50.781,-274.414
1688252968.755,-219.238,-2.930,-44.922,34.180,17.578
1688252968.759,-14.648,-3.418,-41.992,39.062,132.324
1688252968.763,177.246,-23.926,-49.805,-36.621,-67.383
1688252968.767,115.234,-46.387,-59.082,-79.102,-185.059
1688252968.771,-93.750,-53.223,-62.988,-49.805,-25.391
1688252968.774,-238.281,-60.059,-69.824,14.648,354.004
1688252968.778,-68.848,-69.336,-55.176,22.949,124.023
1688252968.782,166.016,-62.988,-47.363,-22.949,-224.609
1688252968.786,139.648,-38.574,-48.340,-61.523,-262.695
1688252968.790,-50.781,-17.090,-34.180,-43.945,-234.863
1688252968.791,-212.402,-32.227,-27.832,26.367,-158.203
1688252968.795,-94.238,-58.594,-39.062,47.363,-70.312
1688252968.799,155.762,-45.898,-56.152,-11.230,-24.414
1688252968.803,157.227,-31.738,-63.477,-72.266,-127.441
1688252968.807,-41.016,-58.105,-60.547,-62.988,-145.508
1688252968.811,-223.633,-78.125,-54.688,4.395,28.320
1688252968.815,-128.418,-65.430,-54.688,40.039,412.598
1688252968.818,138.672,-75.195,-55.664,-0.488,568.848
1688252968.822,174.805,-54.688,-43.945,-56.152,53.223
1688252968.826,-4.883,-37.109,-37.598,-54.199,-218.262
1688252968.830,-212.891,-53.223,-46.875,3.418,74.707
1688252968.834,-168.457,-46.875,-55.664,28.320,92.773
1688252968.836,117.676,-26.367,-43.945,0.977,-131.348
1688252968.840,200.195,-20.996,-36.133,-35.156,-196.777
1688252968.844,44.922,-17.090,-40.527,-34.180,-172.363
1688252968.848,-172.852,-36.621,-43.457,7.812,-161.621
1688252968.852,-177.246,-39.062,-46.387,50.781,-110.840
1688252968.856,80.566,-18.555,-47.363,24.414,24.902
1688252968.860,189.941,-35.645,-50.781,-33.691,103.516
1688252968.863,47.852,-30.273,-54.688,-58.105,-51.270
1688252968.867,-175.781,-20.508,-51.270,-18.066,-172.852
1688252968.871,-193.848,-41.992,-41.016,50.781,-1.953
1688252968.875,48.340,-47.852,-43.457,27.344,193.359
1688252968.879,173.340,-28.809,-48.340,-49.316,-101.562
1688252968.896,72.754,-22.949,-42.480,-66.406,-290.039
1688252968.900,-143.066,-24.414,-49.805,-17.090,-142.090
1688252968.904,-215.332,-38.086,-61.035,32.227,14.160
1688252968.908,17.578,-65.918,-53.711,11.230,-19.043
1688252968.912,190.918,-37.598,-37.109,-32.715,-120.117
1688252968.916,106.934,-12.695,-27.344,-41.504,74.707
1688252968.920,-123.047,-34.668,-35.645,-17.090,103.027
1688252968.923,-247.070,-45.410,-51.758,17.090,-41.016
1688252968.927,-37.598,-48.828,-56.152,18.555,8.789
1688252968.931,188.965,-67.383,-52.246,-10.254,241.211
1688252968.935,132.324,-82.520,-54.688,-39.551,349.121
1688252968.939,-106.934,-63.965,-62.012,-61.523,-21.973
1688252968.941,-249.512,-44.922,-57.617,-9.766,-145.996
1688252968.945,-57.129,-26.367,-47.363,26.367,-5.859
1688252968.949,166.992,-10.254,-51.270,-46.875,-112.305
1688252968.953,124.512,-42.969,-54.688,-97.168,-270.508
1688252968.957,-84.961,-59.082,-56.641,-74.219,-267.578
1688252968.961,-267.090,-45.898,-68.359,-35.156,-4.395
1688252968.965,-127.441,-39.551,-78.613,-33.691,147.949
1688252968.968,131.348,-36.133,-79.102,-83.008,-74.219
1688252968.972,124.512,-46.875,-81.543,-125.977,-156.250
1688252968.976,-73.730,-34.668,-86.426,-110.352,133.301
1688252968.980,-256.348,-1.465,-87.402,-51.758,-24.414
1688252968.984,-148.438,-1.465,-83.984,-24.414,-94.727
1688252968.986,119.141,1.953,-74.219,-58.105,60.059
1688252968.990,138.672,3.418,-81.055,-125.977,-92.773
1688252968.994,-34.668,-2.930,-83.496,-126.953,-279.297
1688252968.998,-217.773,0.000,-70.312,-32.715,-154.785
1688252969.002,-161.133,-19.531,-74.707,13.672,105.957
1688252969.006,99.121,-31.738,-79.590,-43.945,119.629
1688252969.010,164.062,-18.555,-68.848,-95.703,-41.504
1688252969.013,14.160,-7.324,-55.176,-92.773,-138.184
1688252969.017,-176.758,-16.602,-53.223,-22.949,131.348
1688252969.021,-145.996,-14.160,-48.340,35.156,200.195
1688252969.025,112.305,2.930,-40.039,8.301,-24.414
1688252969.029,203.125,-3.906,-36.621,-37.598,-143.066
1688252969.032,62.500,-46.387,-47.363,-54.688,113.770
1688252969.036,-164.062,-53.711,-51.758,-15.137,166.992
1688252969.040,-185.059,-12.207,-45.410,46.387,6.348
1688252969.044,70.801,-2.930,-44.922,28.809,-36.133
1688252969.048,207.520,-29.785,-38.574,-32.715,-80.078
1688252969.052,91.797,-33.203,-45.898,-53.711,-89.844
1688252969.056,-148.926,-32.715,-64.453,-18.066,-117.188
1688252969.059,-213.379,-20.996,-47.363,48.340,64.453
1688252969.063,43.945,3.906,-30.273,49.805,406.738
1688252969.067,207.520,12.207,-34.180,-17.578,10.254
1688252969.071,108.398,7.812,-41.992,-47.852,-352.051
1688252969.075,-106.934,-11.230,-45.898,-15.625,-187.012
1688252969.076,-201.660,-22.949,-38.086,48.828,-68.359
1688252969.080,20.996,-23.438,-42.480,56.152,-102.051
1688252969.084,207.031,-33.691,-50.293,-8.301,-162.598
1688252969.088,119.141,-48.828,-54.688,-45.410,-157.715
1688252969.092,-99.609,-40.039,-56.152,-18.066,-126.465
1688252969.096,-224.609,-37.598,-55.176,40.527,-26.855
1688252969.100,-30.273,-46.387,-58.105,45.898,57.617
1688252969.103,183.105,-50.293,-56.152,-6.348,350.586
1688252969.107,141.113,-62.988,-47.363,-29.297,524.902
1688252969.111,-62.500,-61.035,-43.945,-18.555,48.340
1688252969.115,-229.980,-57.129,-52.734,21.484,-181.152
1688252969.119,-80.566,-39.062,-61.035,30.762,-87.402
1688252969.122,173.828,-20.996,-54.688,-26.367,-179.688
1688252969.126,162.109,-21.484,-50.781,-74.707,-236.328
1688252969.130,-35.645,-21.484,-51.270,-59.082,-183.105
1688252969.134,-215.332,-9.277,-51.270,17.578,-46.875
1688252969.138,-99.609,-16.113,-46.875,54.199,39.551
1688252969.142,153.320,-55.664,-43.945,-8.789,54.688
1688252969.146,158.691,-67.383,-47.852,-59.570,69.824
1688252969.149,-24.902,-60.059,-55.664,-40.039,340.332
1688252969.153,-226.562,-53.223,-56.641,3.906,242.188
1688252969.157,-148.926,-43.457,-52.246,27.344,-26.367
1688252969.161,130.859,-43.945,-41.992,0.000,-71.777
1688252969.165,174.316,-35.156,-43.945,-57.129,-161.133
1688252969.181,0.977,-33.203,-49.316,-62.988,-235.352
1688252969.185,-210.449,-61.035,-50.293,-8.789,-114.746
1688252969.189,-180.176,-68.359,-56.641,33.203,85.449
1688252969.193,100.098,-44.434,-49.805,-0.488,19.531
1688252969.197,186.523,-34.180,-36.621,-55.664,-137.207
1688252969.201,32.715,-19.531,-43.457,-62.500,-101.562
1688252969.205,-181.641,-10.254,-49.805,-6.836,194.824
1688252969.208,-182.129,-4.395,-41.992,36.621,343.750
1688252969.212,67.871,-15.137,-45.410,-1.953,98.145
1688252969.216,181.641,-27.344,-45.898,-50.293,-131.836
1688252969.220,62.988,-20.508,-44.434,-39.062,16.602
1688252969.224,-149.414,-11.719,-33.691,13.672,86.914
1688252969.212,-191.895,-6.836,-26.367,52.734,-66.406
1688252969.216,53.223,1.465,-28.809,34.668,-69.336
1688252969.220,198.242,-2.930,-29.785,-20.996,-97.168
1688252969.224,82.520,-26.367,-37.109,-60.547,-209.961
1688252969.228,-123.535,-31.738,-36.621,-7.324,-227.051
1688252969.232,-204.590,-20.020,-38.574,68.359,49.805
1688252969.236,-9.277,-3.906,-42.480,32.715,192.871
1688252969.239,162.598,0.488,-38.086,-48.340,-39.551
1688252969.243,94.727,-11.719,-37.598,-81.543,-223.145
1688252969.247,-115.723,-24.414,-54.199,-50.293,-97.168
1688252969.251,-233.887,-38.086,-56.641,26.855,263.184
1688252969.255,-37.109,-33.691,-40.039,38.086,86.914
1688252969.271,166.992,-20.996,-44.922,-40.527,-134.277
1688252969.275,114.258,-18.066,-56.641,-86.426,-90.332
1688252969.279,-89.844,-23.926,-52.246,-49.805,-37.109
1688252969.283,-235.840,-24.414,-54.688,11.230,-42.480
1688252969.287,-78.125,-33.691,-68.359,17.578,-44.434
1688252969.291,148.438,-36.133,-66.406,-35.645,25.391
1688252969.295,122.070,-25.879,-63.965,-83.496,-15.625
1688252969.298,-73.242,-22.949,-62.012,-62.988,-132.812
1688252969.302,-237.305,-29.297,-48.828,20.020,-54.199
1688252969.306,-106.934,-38.086,-48.340,55.176,282.227
1688252969.310,138.672,-31.738,-53.223,-12.695,307.129
1688252969.314,135.254,-29.785,-61.035,-89.355,-131.348
1688252969.316,-44.434,-26.855,-62.012,-65.430,-219.238
1688252969.320,-227.539,-24.414,-51.758,17.578,-98.145
1688252969.324,-145.020,-31.250,-49.805,42.480,-30.762
1688252969.328,126.465,-25.879,-50.293,-7.812,-47.363
1688252969.332,178.223,-26.855,-40.039,-55.664,-126.465
1688252969.336,4.395,-44.434,-45.410,-56.641,69.336
1688252969.340,-209.473,-48.828,-61.035,-0.488,152.344
1688252969.343,-168.457,-39.551,-58.105,36.621,-5.371
1688252969.347,102.051,-41.016,-53.223,-2.930,-13.672
1688252969.351,189.453,-25.879,-41.016,-37.598,176.270
1688252969.355,43.457,-9.766,-32.227,-37.109,-65.430
1688252969.359,-185.547,-46.875,-51.758,-5.371,-212.891
1688252969.361,-191.895,-59.082,-62.012,36.621,-37.109
1688252969.365,76.660,-37.109,-53.711,18.066,-55.664
1688252969.369,190.430,-21.484,-44.434,-37.109,-228.516
1688252969.373,61.035,-19.531,-41.016,-55.176,-250.000
1688252969.377,-159.668,-37.109,-53.711,-7.324,-96.191
1688252969.381,-199.707,-36.621,-57.617,40.527,75.684
1688252969.385,46.387,-37.598,-50.293,20.996,88.379
1688252969.388,179.199,-44.434,-48.340,-41.016,-96.680
1688252969.392,60.547,-52.246,-54.688,-66.406,83.008
1688252969.396,-157.227,-73.730,-63.965,-24.902,428.223
1688252969.400,-211.426,-45.410,-46.387,37.109,157.227
1688252969.404,39.062,-15.625,-24.414,43.945,-107.910
1688252969.406,207.031,-29.785,-29.785,-27.832,-153.809
1688252969.410,97.168,-22.949,-43.457,-73.730,-256.348
1688252969.414,-113.281,-8.789,-36.133,-25.879,-237.305
1688252969.418,-200.195,-13.184,-35.645,40.527,-88.867
1688252969.422,11.719,-4.883,-41.504,52.734,-8.789
1688252969.426,187.500,-18.555,-33.203,-9.277,-95.703
1688252969.430,103.516,-33.203,-18.555,-56.152,-226.562
1688252969.433,-102.051,-32.715,-22.949,-29.297,-66.895
1688252969.437,-234.863,-47.363,-35.156,22.949,355.957
1688252969.441,-65.430,-46.387,-23.438,22.949,195.801
1688252969.445,138.672,-43.457,-22.461,-47.363,-206.055
1688252969.449,98.633,-59.082,-33.203,-93.262,-250.977
1688252969.451,-90.820,-79.102,-37.598,-55.664,-175.781
1688252969.455,-266.113,-83.984,-31.738,5.371,-131.836
1688252969.459,-126.953,-83.008,-20.020,24.414,-103.027
1688252969.463,125.488,-80.566,-16.602,-20.996,-63.477
1688252969.467,109.863,-70.312,-26.855,-84.961,-147.461
1688252969.471,-81.055,-72.266,-36.621,-69.336,-115.234
1688252969.475,-247.070,-83.496,-31.250,15.137,17.578
1688252969.478,-139.160,-72.754,-36.621,49.805,352.539
1688252969.482,110.352,-42.969,-39.551,-7.812,541.016
1688252969.486,130.371,-54.688,-35.645,-68.359,4.883
1688252969.490,-39.062,-88.379,-38.574,-58.105,-168.457
1688252969.494,-224.609,-74.707,-33.203,10.742,167.969
1688252969.496,-166.016,-61.523,-34.668,39.551,83.496
1688252969.500,97.656,-60.059,-43.945,-14.160,-155.762
1688252969.504,166.504,-38.574,-41.992,-64.453,-214.355
1688252969.508,2.930,-48.828,-47.363,-61.523,-201.660
1688252969.512,-210.938,-59.570,-58.105,-13.184,-172.363
1688252969.516,-185.547,-41.016,-44.434,37.109,-47.852
1688252969.520,87.891,-36.621,-34.668,19.531,106.445
1688252969.523,191.895,-31.738,-44.922,-43.457,176.270
1688252969.527,28.809,-31.250,-49.316,-76.660,-57.129
1688252969.531,-196.777,-54.688,-47.363,-28.809,-170.898
1688252969.535,-208.008,-62.500,-44.434,37.109,-1.953
1688252969.539,53.223,-43.945,-42.480,25.391,5.371
1688252969.542,180.664,-35.645,-42.480,-45.898,-101.562
1688252969.546,58.594,-51.270,-49.805,-79.590,-169.434
1688252969.550,-146.973,-51.270,-44.434,-19.043,-44.922
1688252969.554,-200.684,-25.391,-29.785,59.082,61.035
1688252969.558,34.180,-14.648,-37.598,39.062,-67.871
1688252969.562,185.059,-25.391,-49.316,-44.922,-115.723
1688252969.566,82.520,-44.922,-52.734,-64.941,112.793
1688252969.569,-134.277,-66.895,-62.012,-18.066,193.359
1688252969.573,-228.516,-53.223,-56.152,37.598,20.508
1688252969.577,-8.301,-28.320,-43.457,43.945,24.414
1688252969.581,184.570,-35.645,-42.480,-13.672,128.906
1688252969.585,123.535,-31.738,-40.039,-49.316,-80.078
1688252969.586,-85.938,-28.809,-40.039,-15.137,-229.004
1688252969.590,-217.773,-44.922,-41.504,50.781,-64.453
1688252969.594,-16.602,-48.340,-39.062,50.293,37.598
1688252969.598,180.664,-44.434,-43.945,-12.695,-50.781
1688252969.602,112.305,-49.316,-58.105,-67.383,-286.621
1688252969.606,-95.215,-54.688,-67.383,-50.781,-145.508
1688252969.610,-231.445,-40.527,-61.523,29.297,411.621
1688252969.613,-75.195,-28.809,-41.992,42.969,283.691
1688252969.617,144.043,-32.715,-38.574,-20.508,-182.129
1688252969.621,138.184,-35.645,-41.016,-59.570,-282.715
1688252969.625,-40.527,-33.691,-35.156,-42.480,-254.883
1688252969.629,-232.422,-43.945,-43.457,11.719,-122.070
1688252969.646,-124.023,-48.340,-40.527,49.805,-12.207
1688252969.650,152.344,-35.645,-21.973,15.137,-13.672
1688252969.654,171.387,-34.668,-34.180,-48.828,-112.793
1688252969.658,-10.742,-24.414,-42.480,-46.875,-157.715
1688252969.662,-203.613,-17.578,-40.527,24.902,-90.820
1688252969.666,-136.230,-19.043,-42.969,66.895,153.809
1688252969.670,127.441,-20.508,-46.387,27.832,161.133
1688252969.673,181.152,-20.020,-41.504,-27.832,-80.078
1688252969.677,10.742,-21.484,-34.668,-46.387,-104.980
1688252969.681,-192.871,-40.527,-35.156,12.207,259.277
1688252969.685,-163.086,-37.109,-40.527,64.941,570.312
1688252969.689,98.633,-28.809,-36.133,20.508,89.355
1688252969.691,181.641,-67.871,-38.574,-51.758,-296.387
1688252969.695,35.156,-69.824,-45.410,-62.012,-236.816
1688252969.699,-173.828,-36.133,-39.551,1.953,-130.371
1688252969.703,-180.664,-31.738,-33.691,46.875,-56.641
1688252969.707,72.266,-20.508,-37.598,14.648,-87.402
1688252969.711,182.129,-25.879,-40.039,-41.504,-117.188
1688252969.715,65.918,-46.387,-31.250,-42.480,-116.211
1688252969.718,-137.695,-35.156,-38.574,3.906,-86.426
1688252969.722,-202.148,-20.020,-57.129,28.320,88.867
1688252969.726,27.344,-30.762,-56.152,7.812,402.344
1688252969.730,182.129,-38.574,-52.246,-56.152,95.215
1688252969.734,82.520,-34.668,-52.246,-83.984,-285.156
1688252969.737,-126.953,-24.414,-56.641,-29.785,-191.406
1688252969.741,-208.984,-27.344,-57.129,41.016,-83.008
1688252969.745,7.812,-17.578,-45.898,32.227,-62.988
1688252969.749,179.199,-2.441,-45.410,-39.062,-157.715
1688252969.753,95.703,-20.020,-53.223,-72.754,-172.852
1688252969.757,-118.652,-31.738,-51.270,-28.320,-61.035
1688252969.761,-229.980,-44.922,-41.992,39.551,113.281
1688252969.764,-40.039,-38.574,-38.574,31.738,48.340
1688252969.768,167.480,-34.180,-59.570,-27.832,189.941
1688252969.772,125.000,-29.297,-61.035,-61.523,287.598
1688252969.776,-101.074,-33.691,-68.848,-69.336,-87.402
1688252969.780,-250.977,-61.523,-73.242,-5.859,-49.316
1688252969.781,-73.242,-45.410,-46.875,30.273,155.273
1688252969.785,152.832,-24.414,-32.715,-37.598,-47.363
1688252969.789,126.465,-26.855,-39.062,-81.055,-250.977
1688252969.793,-58.105,-11.719,-45.898,-49.316,-200.684
1688252969.797,-218.262,-1.465,-37.598,27.832,-40.039
1688252969.801,-95.215,-12.695,-34.180,51.758,47.363
1688252969.805,145.508,-26.855,-43.457,-18.555,-57.617
1688252969.808,157.715,-39.551,-46.387,-68.848,-87.891
1688252969.812,-15.137,-46.875,-41.016,-39.551,149.414
1688252969.816,-199.219,-15.137,-33.691,28.320,29.785
1688252969.820,-114.746,-7.324,-23.438,62.012,-90.820
1688252969.824,138.672,-26.855,-24.902,10.254,-57.617
1688252969.827,177.734,-27.832,-28.320,-41.992,-134.766
1688252969.831,3.418,-38.574,-29.785,-48.340,-109.863
1688252969.835,-204.102,-24.902,-42.480,2.441,-100.586
1688252969.839,-162.109,-15.137,-60.059,52.734,58.105
1688252969.843,106.934,-13.672,-46.875,18.066,77.148
1688252969.847,189.941,-16.602,-33.691,-38.574,-56.641
1688252969.851,32.227,-41.992,-45.898,-48.340,-86.914
1688252969.854,-188.965,-51.758,-62.988,0.977,186.035
1688252969.858,-189.453,-43.457,-64.453,41.504,427.246
1688252969.862,57.129,-39.551,-53.711,-12.695,28.809
1688252969.866,167.969,-36.621,-44.922,-68.848,-219.727
1688252969.870,44.434,-33.203,-48.340,-66.895,-101.562
1688252969.886,-164.551,-43.457,-45.410,-18.066,-159.180
1688252969.890,-193.359,-58.594,-39.062,34.668,-173.828
1688252969.894,46.387,-62.988,-40.527,22.461,-134.766
1688252969.898,180.176,-53.223,-45.410,-37.109,-163.574
1688252969.902,89.844,-38.574,-60.547,-56.641,-200.195
1688252969.906,-114.258,-34.668,-62.988,-3.906,-70.312
1688252969.910,-210.449,-40.527,-48.828,39.062,92.285
1688252969.913,-8.789,-41.504,-47.852,19.043,330.566
1688252969.917,163.574,-29.297,-44.922,-37.109,173.828
1688252969.921,89.355,-44.434,-42.480,-64.453,-172.852
1688252969.925,-124.512,-75.195,-48.828,-29.785,-163.086
1688252969.929,-225.098,-71.289,-45.898,44.922,-69.824
1688252969.916,-7.324,-72.266,-35.645,69.336,-78.125
1688252969.920,192.871,-77.637,-41.016,5.859,-145.996
1688252969.924,131.836,-56.641,-39.551,-32.227,-198.730
1688252969.928,-68.848,-42.480,-32.715,5.371,-180.176
1688252969.932,-208.984,-44.434,-38.574,81.543,-50.781
1688252969.936,-44.922,-46.875,-38.086,86.426,60.059
1688252969.940,178.223,-53.223,-37.598,22.461,134.277
1688252969.943,147.949,-56.152,-34.180,-26.855,0.977
1688252969.947,-38.574,-53.711,-31.250,-1.465,-120.117
1688252969.951,-191.406,-43.457,-28.809,81.055,-63.965
1688252969.955,-62.012,-55.664,-31.738,109.863,254.883
1688252969.959,174.316,-80.566,-32.227,52.734,412.598
1688252969.961,167.480,-74.219,-30.273,-20.020,-43.945
1688252969.965,-26.855,-62.500,-45.410,-24.414,-284.668
1688252969.969,-212.891,-71.289,-57.129,41.016,-113.281
1688252969.973,-108.398,-96.191,-46.875,76.660,-20.996
1688252969.977,150.879,-101.562,-37.109,15.137,-162.598
1688252969.981,172.363,-80.566,-45.410,-46.387,-137.207
1688252969.985,0.977,-50.781,-46.387,-29.785,183.594
1688252969.988,-199.219,-32.227,-48.828,31.250,60.547
1688252969.992,-141.602,-31.250,-50.781,63.477,-72.266
1688252969.996,129.395,-37.109,-44.434,25.391,22.461
1688252970.000,190.430,-42.969,-53.223,-22.949,108.887
1688252970.004,24.414,-70.801,-65.430,-47.852,-134.277
1688252970.021,-182.129,-81.543,-60.059,3.418,-207.031
1688252970.025,-158.203,-44.922,-56.641,62.012,0.000
1688252970.029,96.680,-39.551,-44.922,29.297,-28.320
1688252970.033,194.824,-57.129,-33.691,-21.484,-178.223
1688252970.037,68.848,-52.734,-41.016,-27.344,-188.965
1688252970.041,-148.926,-41.504,-50.293,19.043,-0.977
1688252970.045,-173.828,-36.621,-50.293,58.594,81.055
1688252970.048,73.242,-26.855,-46.387,24.902,13.184
1688252970.052,191.406,-19.043,-48.340,-31.250,-17.578
1688252970.056,79.590,-26.367,-60.059,-40.039,136.230
1688252970.060,-135.254,-50.293,-58.594,-0.977,314.941
1688252970.064,-208.008,-59.082,-54.688,40.527,122.070
1688252970.066,24.902,-51.270,-56.152,25.879,-56.152
1688252970.070,195.801,-49.316,-53.223,-27.344,-21.484
1688252970.074,103.516,-57.617,-46.387,-50.293,-214.355
1688252970.078,-120.605,-82.031,-51.270,-8.789,-271.973
1688252970.082,-227.051,-90.332,-63.965,41.992,-78.613
1688252970.086,-12.695,-61.035,-56.152,29.297,94.727
1688252970.090,183.105,-32.227,-44.434,-27.832,30.273
1688252970.093,109.863,-19.531,-46.387,-68.359,-235.352
1688252970.097,-103.516,-50.781,-54.199,-49.316,-139.648
1688252970.101,-235.840,-78.613,-55.664,16.602,344.727
1688252970.105,-60.059,-48.828,-46.387,17.090,171.875
1688252970.109,159.668,-22.949,-47.363,-47.852,-162.598
1688252970.127,138.672,-35.156,-41.504,-62.500,-177.246
1688252970.131,-60.059,-63.477,-44.434,-38.574,-77.148
1688252970.135,-231.934,-54.199,-55.664,4.395,40.039
1688252970.139,-90.332,-34.180,-54.199,22.949,30.762
1688252970.143,142.090,-30.762,-56.152,-30.273,42.969
1688252970.147,131.836,-24.902,-55.176,-68.848,31.738
1688252970.151,-43.945,-34.180,-51.270,-51.270,-49.316
1688252970.154,-228.027,-40.039,-46.387,11.719,-48.340
1688252970.158,-118.652,-40.527,-45.410,54.199,280.762
1688252970.162,151.855,-39.551,-31.250,10.742,416.504
1688252970.166,172.363,-20.508,-20.996,-57.617,-136.719
1688252970.170,-14.648,-11.230,-33.691,-66.406,-364.746
1688252970.156,-201.660,-23.926,-40.039,14.160,-129.395
1688252970.160,-121.094,-27.832,-32.715,77.148,-29.785
1688252970.164,131.348,-6.836,-42.480,17.090,-137.207
1688252970.168,153.809,-17.090,-61.035,-75.195,-187.012
1688252970.172,-10.254,-30.273,-52.734,-70.312,-88.379
1688252970.176,-207.031,-26.367,-47.363,-12.207,-1.465
1688252970.180,-192.383,-41.016,-52.734,8.301,98.633
1688252970.183,67.383,-40.039,-51.758,-33.691,58.594
1688252970.187,137.695,-27.832,-64.453,-110.840,-66.406
1688252970.191,-14.648,-20.996,-68.359,-128.906,-203.125
1688252970.195,-227.051,-5.859,-71.289,-79.590,-213.379
1688252970.199,-238.770,-7.812,-84.473,-35.645,36.621
1688252970.201,23.438,-23.438,-79.590,-48.340,312.500
1688252970.205,151.367,-12.207,-60.547,-106.934,-41.016
1688252970.209,31.738,8.301,-58.594,-128.906,-300.781
1688252970.213,-178.223,7.324,-66.406,-88.379,-165.039
1688252970.217,-228.027,-25.879,-66.406,-32.715,-58.594
1688252970.221,6.836,-36.621,-61.523,-39.062,26.367
1688252970.225,152.344,-15.137,-62.500,-98.145,-64.941
1688252970.228,55.176,-18.066,-81.055,-115.723,134.277
1688252970.232,-152.832,-14.160,-81.543,-66.895,462.402
1688252970.236,-227.539,9.766,-63.477,-1.953,182.617
1688252970.240,-3.906,-4.395,-62.500,-11.719,-20.508
1688252970.244,173.828,-34.668,-63.965,-69.824,-21.973
1688252970.246,107.910,-28.809,-55.664,-86.914,-191.895
1688252970.250,-100.586,-26.855,-44.922,-48.828,-218.262
1688252970.254,-222.168,-41.504,-46.875,6.348,-83.984
1688252970.258,-24.902,-40.527,-47.363,3.906,7.812
1688252970.262,185.059,-22.461,-38.086,-41.504,-103.027
1688252970.266,139.648,-49.316,-44.922,-62.988,-169.922
1688252970.270,-63.965,-69.824,-52.734,-35.156,38.574
1688252970.273,-214.844,-55.176,-53.711,23.438,355.469
1688252970.277,-68.359,-44.434,-54.199,26.855,147.949
1688252970.281,163.574,-29.785,-43.945,-23.438,-167.480
1688252970.285,151.855,-37.109,-46.387,-59.082,-201.172
1688252970.289,-43.945,-48.340,-55.664,-45.410,-59.082
1688252970.291,-221.191,-35.645,-48.828,12.695,-66.406
1688252970.295,-92.285,-18.555,-37.598,52.734,-100.586
1688252970.299,165.527,-19.531,-35.645,11.719,-119.141
1688252970.303,162.598,-29.785,-45.898,-58.594,-198.242
1688252970.307,-25.879,-46.387,-52.246,-58.105,-221.680
1688252970.311,-190.918,-61.523,-39.551,22.949,-32.227
1688252970.315,-99.121,-42.480,-37.598,64.941,320.801
1688252970.318,141.113,-49.316,-41.016,8.789,325.195
1688252970.322,178.223,-58.594,-39.062,-59.082,-62.500
1688252970.326,17.090,-19.043,-39.062,-53.223,-209.473
1688252970.330,-187.500,-7.812,-50.293,17.578,85.449
1688252970.334,-155.762,-28.809,-50.293,56.641,164.062
1688252970.337,103.027,-8.301,-39.551,8.301,-110.352
1688252970.341,186.523,9.766,-35.156,-51.758,-179.688
1688252970.345,44.922,-3.418,-42.969,-57.617,-88.379
1688252970.349,-169.922,-13.672,-41.992,-1.465,-137.207
1688252970.353,-166.992,-16.113,-27.344,45.898,-133.789
1688252970.357,88.379,-32.715,-29.297,21.484,89.844
1688252970.361,183.594,-41.016,-42.969,-32.715,300.781
1688252970.364,50.781,-42.969,-42.969,-61.035,-49.316
1688252970.368,-166.504,-52.246,-50.293,-21.484,-250.000
1688252970.372,-194.336,-29.297,-39.551,36.133,-71.289
1688252970.376,51.758,-21.973,-27.832,16.113,-21.484
1688252970.380,178.711,-30.273,-33.203,-45.410,-188.965
1688252970.383,75.684,-30.273,-37.109,-58.594,-271.973
1688252970.387,-137.207,-45.410,-46.387,-21.484,-102.539
1688252970.391,-212.402,-54.688,-44.434,33.691,83.984
1688252970.395,29.785,-43.457,-33.203,31.250,-52.734
1688252970.399,218.262,-32.227,-38.574,-13.184,-165.527
1688252970.403,130.371,-41.504,-31.738,-26.855,78.613
1688252970.407,-103.516,-39.062,-27.832,-5.859,195.312
1688252970.410,-225.586,-25.879,-32.227,39.551,-1.465
1688252970.414,-24.902,-33.203,-35.645,41.016,-30.762
1688252970.418,164.551,-55.664,-41.992,-6.348,122.070
1688252970.422,107.422,-68.848,-41.016,-48.828,-31.738
1688252970.426,-83.984,-71.777,-38.574,-22.461,-278.809
1688252970.441,-214.355,-70.801,-33.691,57.129,-116.211
1688252970.445,-52.734,-74.219,-36.133,62.988,34.668
1688252970.449,162.109,-78.125,-36.621,3.906,-58.594
1688252970.453,148.926,-65.918,-39.062,-23.438,-171.875
1688252970.457,-46.387,-72.266,-44.434,-0.488,-8.789
1688252970.461,-212.891,-89.844,-46.387,61.035,290.527
1688252970.465,-81.055,-84.473,-40.039,79.590,221.680
1688252970.468,159.668,-66.406,-37.109,17.578,-36.133
1688252970.472,167.480,-53.711,-45.898,-26.855,-93.262
1688252970.476,-21.973,-55.176,-62.988,-17.090,64.941
1688252970.480,-211.426,-43.457,-63.965,23.438,-26.855
1688252970.484,-118.164,-41.992,-52.734,56.152,-47.852
1688252970.486,139.648,-48.340,-40.527,22.949,-23.438
1688252970.490,175.293,-39.551,-31.250,-35.156,-136.230
1688252970.494,-0.977,-39.062,-41.016,-41.992,-235.352
1688252970.498,-208.496,-56.641,-60.059,8.301,-145.996
1688252970.502,-160.156,-68.848,-56.641,45.898,86.914
1688252970.506,104.980,-60.547,-43.945,10.742,90.332
1688252970.510,176.758,-52.734,-50.293,-52.734,-116.211
1688252970.513,26.367,-59.082,-53.223,-53.711,-153.809
1688252970.517,-182.129,-74.219,-57.129,9.766,174.316
1688252970.521,-171.875,-60.059,-54.199,62.012,495.117
1688252970.525,93.750,-24.414,-33.691,37.109,97.656
1688252970.529,193.848,-22.461,-37.109,-28.809,-256.836
1688252970.531,53.711,-37.109,-52.246,-51.758,-217.773
1688252970.535,-161.621,-34.180,-44.434,3.418,-200.684
1688252970.539,-187.012,-19.531,-40.039,61.523,-47.363
1688252970.543,60.547,-15.625,-40.039,35.645,-6.836
1688252970.547,186.523,-28.320,-38.574,-30.762,-128.906
1688252970.551,72.266,-34.668,-40.039,-49.805,-124.023
1688252970.555,-149.414,-30.762,-46.875,-10.742,-72.266
1688252970.558,-207.031,-29.297,-47.363,47.852,55.176
1688252970.562,41.992,-23.926,-34.180,57.617,350.098
1688252970.566,188.965,-26.367,-36.133,-14.160,148.438
1688252970.570,85.938,-36.621,-49.805,-56.641,-241.699
1688252970.574,-122.070,-39.551,-54.199,-19.531,-154.785
1688252970.576,-215.820,-37.109,-55.176,34.668,48.828
1688252970.580,-15.625,-40.039,-61.523,24.902,-69.824
1688252970.584,166.992,-45.898,-58.594,-35.645,-207.031
1688252970.588,114.258,-34.668,-48.828,-58.594,-119.629
1688252970.592,-84.473,-41.504,-46.875,-17.090,-84.473
1688252970.596,-223.633,-64.453,-44.922,43.457,11.719
1688252970.600,-60.547,-64.453,-59.082,38.086,135.254
1688252970.603,156.738,-54.199,-69.824,-22.461,266.602
1688252970.607,134.277,-43.457,-58.594,-56.641,257.812
1688252970.611,-62.988,-22.461,-48.340,-39.062,-108.887
1688252970.615,-229.980,-15.137,-54.199,30.273,-62.500
1688252970.619,-78.613,-10.254,-56.641,47.852,227.051
1688252970.637,154.297,-10.742,-54.688,-17.578,50.781
1688252970.641,142.090,-29.297,-55.176,-62.012,-270.020
1688252970.645,-35.156,-37.109,-62.988,-37.598,-223.145
1688252970.649,-224.609,-45.898,-69.336,12.207,33.691
1688252970.653,-121.582,-43.457,-57.129,33.203,-13.184
1688252970.657,140.137,-41.504,-52.734,-9.277,-157.715
1688252970.661,163.086,-63.965,-61.035,-57.617,-31.738
1688252970.664,-14.648,-77.637,-68.848,-47.363,189.453
1688252970.668,-214.844,-53.223,-58.594,0.488,35.645
1688252970.672,-155.273,-22.949,-50.293,26.855,-127.930
1688252970.676,82.031,-25.391,-62.500,-40.039,-140.137
1688252970.680,127.441,-46.387,-68.359,-96.191,-247.070
1688252970.683,142.578,-52.246,-56.152,-84.473,-215.820
1688252970.687,9.277,-59.570,-52.246,-91.309,-83.008
1688252970.691,-183.594,-62.012,-45.410,-27.832,205.078
1688252970.694,-152.832,-42.969,-26.367,35.645,139.160
1688252970.698,79.102,-33.203,-29.297,13.672,23.438
1688252970.702,172.852,-45.410,-42.480,-48.340,-163.574
1688252970.706,65.918,-43.945,-43.457,-57.129,-3.418
1688252970.710,-152.832,-34.668,-50.293,-3.906,356.934
1688252970.712,-215.332,-34.180,-48.340,39.551,102.539
1688252970.716,34.180,-23.926,-38.086,21.973,-79.102
1688252970.720,189.941,-21.484,-36.621,-34.180,-80.078
1688252970.724,69.336,-40.527,-49.805,-73.242,-191.406
1688252970.728,-145.508,-42.480,-55.664,-41.504,-188.965
1688252970.732,-215.820,-44.434,-51.270,30.273,57.617
1688252970.736,-9.277,-63.477,-60.059,22.949,474.609
1688252970.739,165.527,-53.711,-50.293,-48.340,150.391
1688252970.743,109.375,-36.621,-37.598,-70.801,-262.695
1688252970.747,-91.797,-22.949,-40.527,-25.391,-147.461
1688252970.751,-210.449,-40.039,-42.480,41.016,-23.926
1688252970.755,-36.133,-83.496,-52.734,25.391,-80.566
1688252970.772,167.480,-67.383,-56.641,-34.668,-183.105
1688252970.776,131.836,-31.250,-47.363,-54.688,-209.473
1688252970.780,-72.266,-25.391,-40.527,-35.645,-219.238
1688252970.784,-230.469,-27.344,-45.898,13.672,-146.973
1688252970.788,-79.102,-51.270,-57.129,30.273,-26.855
1688252970.792,157.227,-72.266,-51.270,-12.207,52.734
1688252970.796,139.160,-54.199,-42.480,-63.965,22.949
1688252970.799,-62.988,-43.457,-52.734,-65.430,-41.992
1688252970.803,-237.305,-40.039,-58.105,-1.465,18.555
1688252970.807,-109.863,-21.484,-50.293,33.203,263.672
1688252970.811,134.766,-35.645,-52.246,-15.137,371.094
1688252970.815,145.996,-65.918,-47.852,-65.430,-72.266
1688252970.831,-20.020,-51.758,-38.086,-48.828,-288.086
1688252970.835,-219.238,-63.965,-56.152,2.930,-129.395
1688252970.839,-136.719,-62.012,-59.570,24.414,-39.062
1688252970.843,128.906,-19.043,-40.039,-11.230,-52.734
1688252970.847,167.480,-15.137,-41.504,-57.129,-200.195
1688252970.851,1.465,-41.992,-51.270,-61.035,-185.059
1688252970.855,-207.031,-46.387,-58.594,-2.930,29.297
1688252970.858,-166.992,-29.297,-60.059,41.504,19.531
1688252970.862,99.609,-42.480,-62.988,-4.883,-43.457
1688252970.866,170.898,-72.754,-63.477,-67.871,243.652
1688252970.870,20.996,-69.824,-61.523,-78.613,25.391
1688252970.874,-192.871,-73.242,-70.801,-22.461,-207.520
1688252970.861,-190.918,-74.707,-67.871,36.621,26.367
1688252970.865,76.172,-43.945,-48.340,9.277,53.711
1688252970.869,187.012,-18.555,-39.551,-55.664,-143.555
1688252970.873,51.758,-28.809,-55.176,-72.266,-179.688
1688252970.877,-159.180,-48.340,-64.941,-19.043,-29.297
1688252970.881,-199.707,-90.820,-65.430,43.945,113.770
1688252970.885,36.133,-93.262,-66.406,15.625,10.742
1688252970.888,165.039,-56.641,-58.594,-54.199,-133.301
1688252970.892,54.199,-60.059,-52.734,-77.637,-16.113
1688252970.896,-157.227,-50.293,-61.523,-43.457,-51.758
1688252970.900,-229.492,-29.297,-59.570,15.625,-70.312
1688252970.904,-4.395,-18.555,-44.434,9.766,-6.836
1688252970.906,174.805,-24.414,-34.668,-34.180,304.688
1688252970.910,104.980,-46.875,-30.273,-51.270,374.023
1688252970.914,-110.840,-45.898,-34.180,-29.297,-37.598
1688252970.918,-229.980,-47.852,-46.387,21.973,-72.754
1688252970.922,-22.949,-57.617,-47.852,35.156,-25.879
1688252970.926,180.176,-24.414,-43.945,-18.555,-69.824
1688252970.930,110.352,-1.953,-54.688,-70.312,-182.617
1688252970.933,-103.027,-15.137,-64.453,-53.223,-196.777
1688252970.937,-234.863,-34.668,-62.012,21.484,222.168
1688252970.941,-61.523,-47.852,-54.199,27.832,91.797
1688252970.945,143.555,-62.012,-62.012,-47.852,-237.305
1688252970.949,117.188,-75.684,-60.547,-73.730,-253.418
1688252970.952,-68.848,-72.266,-57.129,-52.246,-189.941
1688252970.956,-225.098,-31.738,-44.922,12.207,-57.129
1688252970.960,-74.707,-7.324,-33.203,48.340,37.109
1688252970.964,167.969,-24.902,-35.645,0.000,64.941
1688252970.968,164.062,-16.602,-21.484,-47.852,-48.340
1688252970.972,-40.039,-20.508,-33.203,-51.270,-91.797
1688252970.976,-241.211,-51.758,-46.387,-6.348,-26.855
1688252970.979,-149.414,-50.293,-35.156,24.414,232.910
1688252970.983,116.211,-17.090,-16.602,-7.812,358.887
1688252970.987,134.277,-20.996,-21.484,-79.590,-149.414
1688252970.991,-82.520,-62.988,-53.223,-123.535,-306.152
1688252970.995,-311.035,-71.777,-61.035,-91.309,112.305
1688252970.996,-279.785,-69.824,-45.410,-79.102,138.672
1688252971.000,-50.781,-92.285,-46.387,-159.668,-127.930
1688252971.004,0.977,-91.797,-55.176,-239.258,-216.797
1688252971.008,-151.367,-68.359,-58.594,-258.789,-256.348
1688252971.012,-361.328,-48.340,-55.664,-201.660,-170.410
1688252971.016,-349.121,-55.664,-61.523,-156.250,49.316
1688252971.020,-98.145,-100.586,-70.312,-192.383,190.430
1688252971.023,16.602,-95.215,-72.266,-229.980,350.098
1688252971.027,-91.309,-46.875,-73.730,-224.609,87.402
1688252971.031,-293.457,-57.617,-78.125,-162.598,-160.645
1688252971.035,-297.363,-86.426,-81.543,-80.566,26.855
1688252971.039,-21.484,-65.918,-74.219,-75.195,-10.742
1688252971.042,124.023,-43.457,-68.848,-115.723,-252.441
1688252971.046,17.578,-47.852,-74.707,-123.047,-322.754
1688252971.050,-178.223,-72.266,-83.496,-66.895,-137.207
1688252971.054,-234.375,-72.754,-88.379,0.488,25.391
1688252971.058,8.789,-51.758,-80.566,0.977,6.836
1688252971.062,180.664,-51.270,-73.242,-51.758,-66.406
1688252971.066,104.980,-32.227,-70.312,-62.988,84.473
1688252971.069,-83.984,-1.465,-66.895,-9.277,206.055
1688252971.073,-170.410,-3.418,-58.594,58.594,51.270
1688252971.077,31.738,-18.066,-53.711,65.918,20.020
1688252971.081,227.539,-26.367,-52.734,9.277,32.227
1688252971.085,158.691,-22.461,-59.082,-30.762,-168.945
1688252971.086,-41.992,-10.254,-62.012,9.277,-293.945
1688252971.090,-157.227,-6.348,-53.711,84.961,-134.277
1688252971.094,15.625,-4.395,-51.758,89.844,235.840
1688252971.098,219.238,1.953,-47.852,25.391,67.871
1688252971.102,185.059,0.488,-48.828,-6.836,-292.969
1688252971.106,-10.254,-7.812,-55.664,10.254,-104.492
1688252971.110,-169.922,-11.230,-54.688,71.777,406.738
1688252971.113,-34.668,-15.137,-54.688,89.844,298.828
1688252971.117,192.871,-19.043,-55.664,31.250,-129.883
1688252971.121,183.594,-21.973,-54.688,-20.020,-185.059
1688252971.125,6.836,-12.695,-53.223,-6.348,-86.914
1688252971.129,-168.457,-2.930,-43.457,69.336,-44.922
1688252971.146,-72.266,-18.555,-45.898,97.168,10.254
1688252971.150,171.387,-22.949,-44.434,42.480,11.719
1688252971.154,194.336,-9.277,-35.156,2.441,-64.941
1688252971.158,15.137,-16.113,-45.898,0.977,-205.078
1688252971.162,-177.246,-28.809,-59.082,48.340,-192.871
1688252971.166,-103.027,-29.297,-61.035,96.680,113.770
1688252971.170,156.738,-28.320,-46.387,62.988,81.543
1688252971.173,209.473,-35.156,-35.645,9.277,-154.297
1688252971.177,47.363,-49.316,-47.852,-3.906,-102.051
1688252971.181,-158.203,-46.387,-60.547,44.434,221.191
1688252971.185,-136.719,-52.734,-57.129,89.355,422.852
1688252971.189,111.816,-61.523,-52.734,39.551,-4.883
1688252971.191,196.289,-51.758,-51.270,-16.602,-191.406
1688252971.195,67.871,-32.715,-44.922,-6.348,-16.602
1688252971.199,-132.812,-20.020,-45.898,51.270,-100.586
1688252971.203,-146.973,-11.719,-47.852,89.844,-158.203
1688252971.207,102.539,-17.090,-43.945,39.551,-138.184
1688252971.211,199.219,-34.668,-51.270,-17.578,-141.113
1688252971.215,82.520,-36.133,-57.617,-26.855,-148.926
1688252971.218,-119.629,-26.855,-45.898,15.625,-220.215
1688252971.222,-171.875,-32.227,-36.621,85.449,-75.684
1688252971.226,57.617,-47.363,-51.758,69.336,253.418
1688252971.230,194.824,-65.430,-62.500,-18.066,-24.414
1688252971.234,101.074,-93.262,-53.223,-49.805,-313.477
1688252971.236,-102.051,-93.750,-47.852,-1.465,-154.785
1688252971.240,-189.453,-82.520,-59.570,53.223,15.625
1688252971.244,27.832,-64.941,-59.570,40.527,11.230
1688252971.248,197.754,-59.570,-50.781,-10.742,-39.062
1688252971.252,130.371,-66.406,-52.246,-42.480,-61.523
1688252971.256,-75.684,-57.617,-51.270,-5.371,43.457
1688252971.260,-204.590,-51.758,-52.734,54.688,123.535
1688252971.263,-16.602,-57.617,-56.152,43.945,3.418
1688252971.267,184.082,-65.430,-51.270,-7.324,151.855
1688252971.271,130.859,-74.219,-46.387,-41.504,325.684
1688252971.275,-65.430,-68.359,-47.852,-26.367,-67.871
1688252971.279,-205.078,-61.035,-52.246,41.016,-163.086
1688252971.281,-56.152,-54.688,-51.758,62.988,-1.953
1688252971.285,165.039,-45.898,-46.875,1.465,-130.859
1688252971.289,145.996,-74.219,-46.875,-50.293,-303.223
1688252971.293,-28.809,-107.422,-49.805,-23.438,-268.066
1688252971.297,-183.105,-87.402,-49.805,53.223,-81.543
1688252971.301,-98.145,-57.129,-58.105,51.758,42.480
1688252971.305,120.605,-54.688,-63.965,-25.391,-52.734
1688252971.308,135.742,-43.945,-62.012,-83.008,-102.051
1688252971.312,-33.203,-45.410,-56.152,-70.801,166.016
1688252971.316,-220.703,-48.828,-48.828,-8.789,112.305
1688252971.320,-145.020,-41.992,-44.922,33.691,-59.570
1688252971.324,117.188,-54.688,-47.852,0.977,-21.973
1688252971.326,164.062,-58.594,-51.270,-56.152,4.883
1688252971.330,1.465,-39.551,-55.176,-61.035,-163.086
1688252971.334,-195.801,-35.645,-56.641,7.324,-134.766
1688252971.338,-160.645,-25.879,-50.293,62.988,35.156
1688252971.342,83.984,-37.598,-51.270,15.137,35.156
1688252971.346,158.203,-49.316,-53.223,-48.828,-66.895
1688252971.350,35.156,-33.691,-44.434,-41.992,-134.766
1688252971.353,-169.922,-33.203,-55.664,10.742,160.156
1688252971.357,-174.805,-27.344,-65.430,53.223,414.062
1688252971.361,84.961,-29.297,-46.387,27.344,147.461
1688252971.365,184.570,-47.363,-41.992,-35.156,-136.230
1688252971.369,52.734,-58.594,-54.688,-52.734,-5.371
1688252971.371,-148.926,-69.336,-46.875,-2.441,31.250
1688252971.375,-178.711,-44.922,-35.645,58.105,-106.445
1688252971.379,54.688,-13.672,-52.246,38.086,-24.902
1688252971.383,187.012,-3.418,-58.594,-38.086,-91.797
1688252971.387,78.125,-14.160,-52.246,-59.570,-231.934
1688252971.391,-131.348,-26.367,-55.176,-14.648,-183.594
1688252971.395,-204.102,-38.086,-58.105,42.480,28.809
1688252971.398,17.090,-50.293,-57.617,36.133,338.867
1688252971.402,193.848,-18.066,-41.504,-26.367,77.148
1688252971.406,95.703,-3.418,-38.086,-55.176,-264.648
1688252971.410,-106.445,-31.250,-45.898,-24.414,-180.176
1688252971.414,-207.520,-54.199,-45.898,37.109,-18.066
1688252971.416,-12.695,-50.293,-35.645,48.828,-41.016
1688252971.420,178.711,-45.410,-37.109,-16.113,-141.602
1688252971.424,118.652,-46.387,-45.410,-61.523,-67.383
1688252971.428,-83.008,-53.223,-50.293,-43.945,-25.391
1688252971.432,-228.516,-52.734,-54.688,14.160,-41.016
1688252971.436,-65.430,-31.738,-54.688,33.203,50.293
1688252971.440,161.133,-18.555,-48.828,-12.207,248.047
1688252971.443,135.742,-15.137,-48.828,-53.223,185.059
1688252971.447,-53.711,-16.113,-47.363,-35.156,-113.770
1688252971.451,-211.426,-28.320,-37.598,38.574,-144.043
1688252971.455,-87.402,-35.156,-41.992,62.012,114.258
1688252971.459,152.832,-37.109,-46.875,-1.465,17.090
1688252971.462,151.855,-39.551,-49.805,-51.758,-278.320
1688252971.466,-18.555,-36.133,-54.688,-43.945,-168.457
1688252971.470,-194.336,-30.762,-52.246,25.879,49.316
1688252971.474,-115.234,-34.668,-42.969,50.293,2.441
1688252971.478,131.836,-60.059,-53.711,-13.672,-127.930
1688252971.482,166.992,-62.500,-61.523,-54.688,-69.824
1688252971.486,3.906,-45.410,-52.734,-43.457,63.477
1688252971.489,-189.941,-32.227,-41.992,19.531,-24.414
1688252971.493,-140.137,-28.320,-39.551,55.176,-119.141
1688252971.497,133.789,-46.875,-45.898,21.973,-95.703
1688252971.501,197.266,-56.152,-45.898,-28.809,-70.312
1688252971.505,13.672,-45.410,-42.480,-55.664,-218.750
1688252971.521,-202.148,-52.246,-37.598,-5.859,-176.758
1688252971.525,-195.312,-65.430,-40.039,31.250,2.441
1688252971.529,66.895,-42.480,-39.551,2.930,-28.809
1688252971.533,173.828,-31.250,-36.133,-46.875,-154.297
1688252971.537,33.203,-53.223,-42.480,-67.383,-251.465
1688252971.541,-175.781,-66.895,-46.875,-2.930,94.727
1688252971.545,-199.707,-74.707,-41.992,51.758,431.641
1688252971.548,34.180,-71.289,-39.551,11.719,93.750
1688252971.552,150.879,-64.453,-42.969,-53.711,-84.473
1688252971.556,42.480,-76.172,-46.387,-77.148,42.969
1688252971.560,-155.273,-63.965,-42.480,-28.809,77.148
1688252971.564,-216.309,-46.387,-42.480,31.250,-65.918
1688252971.566,1.953,-80.078,-51.758,16.113,-41.016
1688252971.570,162.109,-84.961,-55.664,-49.316,-101.074
1688252971.574,81.543,-45.410,-53.223,-71.777,-222.656
1688252971.578,-122.559,-35.156,-51.758,-28.809,-180.664
1688252971.582,-228.516,-39.551,-57.129,29.297,-58.105
1688252971.586,-36.133,-36.133,-57.617,22.949,85.938
1688252971.590,152.344,-23.438,-56.152,-46.387,107.910
1688252971.593,96.680,-30.273,-57.617,-83.984,-3.906
1688252971.597,-97.656,-58.105,-59.082,-43.457,-13.184
1688252971.601,-216.309,-47.363,-56.641,29.785,348.145
1688252971.605,-46.387,-24.902,-47.852,37.598,203.125
1688252971.609,177.734,-11.230,-34.180,-10.742,-223.633
1688252971.612,151.367,-20.996,-36.621,-40.527,-240.723
1688252971.616,-44.434,-50.293,-42.480,-22.949,-130.859
1688252971.620,-204.590,-59.082,-41.992,27.832,-108.398
1688252971.624,-70.312,-48.340,-49.316,43.457,-84.473
1688252971.628,167.480,-35.156,-46.875,-3.418,-43.457
1688252971.632,159.180,-32.227,-43.945,-41.504,-79.590
1688252971.636,-22.461,-30.762,-44.434,-32.715,-118.164
1688252971.639,-200.684,-42.480,-46.875,23.438,-94.238
1688252971.643,-114.746,-56.152,-52.246,50.781,240.234
1688252971.647,129.883,-40.527,-47.852,0.977,491.211
1688252971.651,185.547,-12.695,-42.969,-35.156,70.312
1688252971.655,30.273,-14.648,-46.387,-16.113,-227.539
1688252971.656,-189.941,-40.527,-33.203,34.668,-62.500
1688252971.660,-158.691,-50.293,-31.250,49.805,40.527
1688252971.664,95.215,-53.711,-45.898,-17.090,-48.828
1688252971.668,155.273,-44.434,-31.738,-71.777,-180.176
1688252971.672,-9.766,-52.734,-33.203,-76.172,-130.859
1688252971.676,-233.398,-85.938,-71.289,-38.574,-1.465
1688252971.680,-235.352,-96.191,-74.707,-11.719,21.973
1688252971.683,28.809,-78.125,-50.293,-37.598,42.480
1688252971.687,114.258,-76.172,-45.898,-97.656,200.684
1688252971.691,-36.133,-108.887,-55.176,-126.953,-92.285
1688252971.695,-233.887,-103.516,-53.711,-68.848,-203.125
1688252971.699,-254.883,-57.617,-40.039,-13.672,75.684
1688252971.701,-10.254,-25.391,-29.785,-39.062,36.621
1688252971.705,142.090,8.789,-20.020,-77.637,-177.246
1688252971.709,58.105,14.160,-21.484,-76.172,-297.363
1688252971.713,-166.016,-47.852,-39.062,-40.527,-64.941
1688252971.717,-238.770,-67.383,-46.875,7.812,136.230
1688252971.721,-2.930,-42.480,-56.152,-5.371,1.953
1688252971.725,158.203,-37.109,-53.223,-63.477,-136.230
1688252971.728,79.102,-54.199,-48.828,-71.289,80.566
1688252971.732,-137.207,-64.453,-55.176,-26.367,319.824
1688252971.736,-214.844,-45.410,-40.527,31.738,-13.672
1688252971.740,9.277,-34.180,-23.438,32.227,-127.930
1688252971.744,182.617,-47.852,-32.715,-34.668,-67.383
1688252971.747,123.535,-61.035,-37.109,-65.430,-225.098
1688252971.751,-81.543,-62.988,-45.898,-30.273,-188.965
1688252971.755,-211.914,-50.781,-51.270,29.297,21.484
1688252971.759,-39.062,-30.273,-40.039,46.875,140.625
1688252971.763,170.410,-20.508,-31.738,-10.742,-41.992
1688252971.767,137.695,-21.973,-36.133,-54.688,-192.871
1688252971.771,-62.988,-23.926,-41.992,-32.227,-81.543
1688252971.774,-211.426,-30.273,-40.039,40.039,288.574
1688252971.778,-63.477,-27.832,-31.250,50.293,156.250
1688252971.782,159.668,-34.668,-29.785,-17.578,-181.641
1688252971.786,145.996,-43.457,-30.273,-57.617,-191.406
1688252971.790,-35.156,-33.203,-24.414,-37.109,-170.410
1688252971.791,-202.637,-28.809,-30.273,26.367,-150.391
1688252971.795,-88.867,-22.949,-36.133,60.547,-93.262
1688252971.799,159.668,-16.602,-31.250,17.578,11.719
1688252971.803,169.922,-30.762,-29.297,-38.574,-105.957
1688252971.807,-0.488,-39.062,-32.227,-26.367,-195.312
1688252971.811,-195.312,-29.297,-33.691,35.156,-85.449
1688252971.815,-132.812,-19.043,-36.621,62.500,246.582
1688252971.818,120.117,-15.137,-39.062,12.695,406.738
1688252971.822,163.574,-15.625,-39.062,-59.570,-49.316
1688252971.826,1.465,-32.227,-45.410,-69.336,-216.309
1688252971.830,-196.289,-41.016,-47.852,-6.348,2.441
1688252971.834,-150.391,-26.367,-28.809,59.082,0.000
1688252971.836,102.051,-20.996,-21.484,18.066,-180.664
1688252971.840,176.270,-30.762,-29.297,-60.059,-222.656
1688252971.844,32.715,-30.762,-46.875,-66.895,12.207
1688252971.848,-184.570,-26.367,-53.711,-15.625,-53.711
1688252971.852,-202.148,-39.551,-54.688,30.762,-140.137
1688252971.856,60.547,-31.250,-50.781,13.672,118.164
1688252971.860,188.477,-13.672,-40.527,-36.621,184.082
1688252971.863,56.152,-36.133,-40.039,-62.500,-101.562
1688252971.867,-168.945,-56.641,-46.875,-32.715,-193.359
1688252971.871,-208.984,-52.734,-51.758,28.320,40.527
1688252971.875,37.109,-47.363,-46.387,32.227,300.293
1688252971.879,187.988,-32.227,-30.273,-23.438,-12.207
1688252971.896,88.867,-30.273,-33.203,-50.293,-239.746
1688252971.900,-125.000,-52.734,-48.828,-11.719,-131.836
1688252971.904,-209.961,-59.570,-50.293,39.062,19.043
1688252971.908,-2.930,-44.922,-38.086,33.203,5.371
1688252971.912,166.016,-52.246,-35.645,-27.832,-148.926
1688252971.916,98.145,-58.105,-39.062,-51.758,-97.656
1688252971.920,-88.867,-27.344,-27.344,-3.418,21.484
1688252971.923,-199.219,-4.395,-35.645,49.805,45.898
1688252971.927,-9.277,-2.441,-56.152,47.852,-27.832
1688252971.931,183.594,-13.672,-40.039,-14.160,134.277
1688252971.935,117.188,-34.668,-31.250,-62.012,313.965
1688252971.939,-83.984,-35.156,-36.133,-49.805,-30.762
1688252971.941,-230.957,-31.250,-34.180,21.484,-90.332
1688252971.945,-83.984,-59.570,-26.367,43.945,69.336
1688252971.949,141.113,-65.430,-17.578,-22.461,-45.410
1688252971.953,135.742,-44.922,-14.160,-74.707,-195.312
1688252971.957,-52.734,-42.969,-19.043,-47.852,-173.340
1688252971.961,-226.562,-34.668,-25.391,20.020,32.227
1688252971.965,-115.234,-31.738,-14.648,41.016,94.727
1688252971.968,123.047,-46.387,-13.184,-11.230,-78.125
1688252971.972,145.020,-62.988,-16.113,-43.457,-142.090
1688252971.976,-23.438,-47.363,-20.020,-18.066,128.418
1688252971.980,-223.145,-44.434,-41.992,20.508,34.180
1688252971.984,-145.996,-53.711,-48.340,37.109,-54.688
1688252971.986,118.652,-68.848,-38.086,2.441,-19.531
1688252971.990,160.645,-89.844,-40.527,-50.781,-134.277
1688252971.994,-4.395,-44.922,-37.598,-62.500,-242.676
1688252971.998,-207.520,-11.719,-40.527,-4.883,-120.605
1688252972.002,-158.691,-28.809,-36.621,50.781,23.926
1688252972.006,107.422,-31.250,-26.367,20.020,45.898
1688252972.010,176.270,-21.484,-34.180,-43.457,-71.289
1688252972.013,28.320,-27.832,-44.922,-50.781,-216.309
1688252972.017,-181.152,-36.621,-52.246,-3.418,190.430
1688252972.021,-181.641,-32.715,-55.176,46.875,500.977
1688252972.025,68.848,-29.785,-46.875,10.254,54.199
1688252972.029,169.922,-43.945,-41.504,-47.852,-201.660
1688252972.032,40.527,-59.570,-49.316,-56.641,-187.988
1688252972.036,-160.156,-48.828,-51.758,-7.324,-136.719
1688252972.040,-185.547,-28.320,-31.738,54.199,-8.301
1688252972.044,44.922,-35.156,-35.645,22.949,-12.695
1688252972.048,169.922,-52.734,-64.941,-45.410,20.996
1688252972.052,71.777,-50.293,-56.152,-69.336,-64.453
1688252972.056,-144.531,-47.363,-44.434,-27.344,-95.703
1688252972.059,-226.562,-55.664,-44.434,33.203,56.641
1688252972.063,-1.465,-60.059,-38.574,30.762,334.473
1688252972.067,171.387,-57.129,-29.785,-36.621,78.125
1688252972.071,95.703,-62.988,-31.738,-74.219,-275.391
1688252972.075,-109.375,-79.590,-41.992,-27.832,-206.055
1688252972.076,-221.191,-78.613,-40.527,34.180,-80.078
1688252972.080,-29.785,-57.129,-42.480,24.902,-101.074
1688252972.084,168.945,-40.527,-53.711,-25.879,-150.391
1688252972.088,124.512,-3.418,-49.316,-54.688,-156.250
1688252972.092,-72.266,-4.395,-46.875,-31.250,-110.352
1688252972.096,-203.613,-36.621,-52.246,44.434,27.832
1688252972.100,-43.457,-29.785,-40.527,48.340,31.250
1688252972.103,159.180,-11.719,-29.297,-13.672,136.230
1688252972.107,114.746,-31.738,-48.828,-62.988,372.070
1688252972.111,-79.102,-70.801,-56.152,-66.406,-10.254
1688252972.115,-242.676,-59.082,-50.781,0.000,-145.020
1688252972.119,-116.699,-24.414,-49.805,32.715,188.965
1688252972.121,132.812,-9.766,-42.480,-20.508,67.383
1688252972.125,142.090,-16.602,-33.203,-63.477,-230.469
1688252972.129,-38.086,-39.062,-37.109,-52.246,-203.613
1688252972.133,-214.844,-28.320,-33.691,14.648,-79.590
1688252972.137,-119.629,-10.254,-28.320,57.129,-58.105
1688252972.141,125.000,-21.973,-38.086,-3.906,-60.059
1688252972.145,149.902,-35.156,-45.898,-62.500,-63.477
1688252972.148,-19.043,-49.805,-46.875,-46.875,177.734
1688252972.152,-217.285,-44.434,-46.875,6.348,143.555
1688252972.156,-171.387,-33.203,-45.898,37.598,-73.730
1688252972.160,105.469,-29.785,-37.109,10.254,-92.285
1688252972.164,183.594,-18.555,-36.133,-46.875,-168.945
1688252972.166,17.578,-16.602,-47.363,-70.801,-196.777
1688252972.170,-193.359,-23.926,-44.922,-13.184,-125.977
1688252972.174,-187.500,-35.156,-44.922,40.527,17.578
1688252972.178,69.336,-47.363,-48.340,0.977,1.953
1688252972.182,174.805,-45.898,-53.223,-72.266,-171.387
1688252972.186,52.734,-31.738,-50.781,-70.801,-196.777
1688252972.190,-164.551,-51.758,-43.945,-4.395,147.949
1688252972.193,-199.219,-54.199,-42.480,41.016,377.930
1688252972.197,51.270,-25.879,-40.527,17.578,138.672
1688252972.201,172.852,-38.086,-49.805,-44.922,-22.949
1688252972.205,56.152,-47.363,-56.641,-69.824,79.590
1688252972.209,-145.020,-23.926,-52.734,-32.715,92.773
1688252972.212,-206.055,-14.648,-43.945,23.438,-111.328
1688252972.216,14.160,-28.809,-40.527,20.508,-102.539
1688252972.220,177.246,-36.621,-47.363,-35.645,-4.883
1688252972.224,88.867,-52.734,-65.430,-74.219,-135.254
1688252972.228,-120.117,-57.617,-68.359,-52.246,-256.836
1688252972.232,-194.824,-44.434,-46.875,25.391,6.836
1688252972.236,0.977,-39.062,-38.086,35.156,317.871
1688252972.239,162.598,-28.809,-55.176,-44.922,-34.180
1688252972.243,101.074,-28.809,-60.059,-88.379,-324.219
1688252972.247,-102.539,-47.363,-58.105,-55.176,-183.105
1688252972.251,-236.816,-48.828,-62.012,8.789,3.418
1688252972.255,-58.105,-26.855,-45.410,21.973,-10.254
1688252972.257,165.527,-20.996,-46.875,-28.809,-166.504
1688252972.261,136.230,-48.340,-72.754,-68.359,-219.238
1688252972.265,-62.500,-51.758,-49.805,-43.945,-106.445
1688252972.269,-239.746,-58.105,-41.992,-0.977,-77.148
1688252972.273,-118.164,-70.801,-59.570,2.930,-81.543
1688252972.277,121.582,-69.824,-41.992,-31.738,97.168
1688252972.281,118.164,-76.660,-38.086,-73.242,54.688
1688252972.284,-61.035,-77.148,-52.246,-67.871,-157.227
1688252972.288,-236.816,-66.406,-38.574,3.418,-58.594
1688252972.292,-141.602,-72.754,-38.086,41.016,271.973
1688252972.296,108.887,-83.984,-53.711,-24.902,344.238
1688252972.300,137.207,-72.754,-47.852,-84.961,-140.625
1688252972.317,-26.367,-70.801,-44.434,-67.383,-277.344
1688252972.321,-228.516,-75.195,-50.293,-9.766,-57.129
1688252972.325,-176.758,-83.496,-57.617,16.113,34.668
1688252972.329,96.680,-65.430,-53.711,-20.020,-80.566
1688252972.333,159.180,-38.086,-40.527,-66.406,-140.625
1688252972.337,6.348,-22.461,-28.809,-59.082,171.387
1688252972.341,-192.383,-18.066,-30.273,-5.859,223.145
1688252972.344,-159.180,-21.484,-33.203,46.387,13.184
1688252972.348,97.656,-26.367,-34.668,15.625,-20.020
1688252972.352,166.016,-42.480,-39.551,-54.688,-2.930
1688252972.356,27.832,-53.711,-35.156,-65.918,-201.660
1688252972.360,-174.805,-59.570,-37.598,-11.719,-212.402
1688252972.361,-201.660,-62.012,-46.387,34.668,-40.039
1688252972.365,37.598,-64.941,-44.434,5.859,-13.672
1688252972.369,161.133,-62.500,-36.133,-48.828,-92.285
1688252972.373,57.129,-45.410,-31.738,-54.688,-138.184
1688252972.377,-142.578,-40.527,-35.156,2.930,-45.410
1688252972.381,-198.730,-33.203,-36.621,56.641,93.262
1688252972.385,30.762,-26.855,-26.855,45.898,74.707
1688252972.388,177.734,-34.180,-26.855,-32.715,-31.250
1688252972.392,82.031,-62.012,-39.551,-71.777,80.566
1688252972.396,-124.512,-72.754,-34.668,-14.648,395.020
1688252972.400,-218.750,-68.848,-25.879,41.016,228.516
1688252972.404,-17.090,-61.035,-28.809,23.926,-38.574
1688252972.421,176.270,-36.621,-27.344,-29.297,-107.422
1688252972.425,117.188,-29.785,-33.203,-62.500,-227.539
1688252972.429,-95.703,-37.109,-46.387,-33.691,-214.844
1688252972.433,-222.168,-41.016,-29.297,41.016,-42.969
1688252972.437,-42.969,-42.969,-24.414,39.062,13.184
1688252972.441,164.062,-51.270,-29.785,-25.879,-6.348
1688252972.445,135.742,-71.777,-18.066,-51.270,-41.992
1688252972.448,-55.176,-62.988,-24.902,-21.973,-67.871
1688252972.452,-208.984,-44.434,-42.480,48.828,323.242
1688252972.456,-60.547,-35.156,-38.086,57.129,261.719
1688252972.460,170.898,-31.738,-30.273,-12.695,-154.785
1688252972.464,152.832,-37.598,-32.715,-60.547,-224.609
1688252972.451,-49.316,-42.969,-44.922,-46.875,-228.027
1688252972.455,-228.516,-38.086,-42.480,10.742,-174.805
1688252972.459,-112.305,-32.715,-33.203,46.875,-95.215
1688252972.463,141.113,-36.133,-26.855,8.301,-79.102
1688252972.467,158.203,-36.133,-24.414,-49.805,-166.016
1688252972.471,-20.508,-31.738,-34.668,-53.711,-115.723
1688252972.475,-205.566,-33.203,-35.156,3.906,93.750
1688252972.478,-142.090,-36.133,-35.156,38.086,221.680
1688252972.482,101.562,-47.852,-36.621,-16.602,135.254
1688252972.486,147.949,-48.340,-40.527,-72.754,-47.363
1688252972.490,-2.930,-27.344,-38.574,-64.941,-160.645
1688252972.494,-188.965,-27.832,-35.156,4.395,149.902
1688252972.496,-159.180,-47.852,-35.156,60.547,510.254
1688252972.500,93.262,-60.059,-28.320,15.625,156.738
1688252972.504,181.152,-59.570,-31.738,-50.293,-216.797
1688252972.508,37.109,-48.828,-31.738,-54.688,-271.973
1688252972.512,-166.992,-39.551,-22.461,4.395,-204.102
1688252972.516,-161.621,-24.902,-16.602,62.988,-56.152
1688252972.520,76.660,-15.625,-23.438,26.855,101.562
1688252972.523,167.480,-19.531,-47.363,-52.246,200.684
1688252972.527,45.410,-12.207,-49.805,-75.684,-115.723
1688252972.531,-165.039,-17.578,-41.016,-23.438,-238.281
1688252972.535,-217.773,-47.852,-41.016,33.691,-73.730
1688252972.539,20.996,-57.617,-42.969,11.230,-46.387
1688252972.542,166.504,-45.898,-53.223,-52.734,-92.773
1688252972.546,73.242,-37.109,-55.176,-70.801,-245.605
1688252972.550,-139.648,-48.340,-61.035,-32.715,-121.582
1688252972.554,-225.586,-53.223,-45.898,22.949,72.754
1688252972.558,0.488,-26.367,-21.484,23.926,-16.113
1688252972.562,181.152,-10.742,-26.367,-30.762,-75.195
1688252972.566,101.074,-26.855,-38.086,-64.453,166.016
1688252972.569,-112.793,-53.223,-55.176,-42.969,269.531
1688252972.573,-232.910,-49.316,-58.594,15.625,13.184
1688252972.577,-39.062,-32.227,-41.016,30.762,-33.691
1688252972.581,172.363,-31.738,-39.062,-18.066,-4.395
1688252972.585,116.211,-41.016,-43.945,-65.918,-191.406
1688252972.602,-84.473,-58.594,-43.945,-41.016,-309.082
1688252972.606,-224.609,-82.520,-54.199,25.879,-89.355
1688252972.610,-64.941,-86.426,-49.805,50.781,287.598
1688252972.614,180.664,-64.453,-29.785,20.020,101.562
1688252972.618,181.152,-60.547,-26.367,-20.996,-237.793
1688252972.622,-25.879,-45.410,-37.109,-29.785,-117.188
1688252972.626,-210.938,-31.250,-39.062,28.809,333.496
1688252972.629,-91.797,-23.926,-41.016,50.293,286.133
1688252972.633,152.832,-17.578,-46.387,-11.719,-116.211
1688252972.637,161.133,-32.715,-48.340,-59.082,-197.266
1688252972.641,-21.973,-51.758,-61.035,-54.688,-195.312
1688252972.645,-213.379,-55.664,-65.918,0.488,-121.582
1688252972.646,-130.859,-47.852,-62.988,36.621,-20.996
1688252972.650,128.418,-58.594,-62.988,-11.719,-72.754
1688252972.654,171.387,-65.430,-56.641,-69.824,-125.000
1688252972.658,18.555,-66.406,-55.176,-47.363,-218.262
1688252972.662,-178.223,-73.242,-57.129,18.555,-177.246
1688252972.666,-140.137,-100.098,-49.805,56.641,203.613
1688252972.670,124.023,-140.137,-43.945,21.484,229.980
1688252972.673,191.895,-92.773,-49.316,-39.062,-13.184
1688252972.677,35.645,-9.277,-55.664,-58.105,-97.656
1688252972.681,-172.852,0.977,-54.688,-1.953,146.973
1688252972.685,-163.574,-5.371,-45.898,61.523,467.773
1688252972.689,92.773,-13.672,-36.621,22.949,96.191
1688252972.691,190.918,-32.715,-42.480,-48.340,-215.332
1688252972.695,67.871,-48.828,-49.805,-51.758,-201.172
1688252972.699,-139.648,-64.453,-44.922,1.953,-160.645
1688252972.703,-182.129,-57.129,-44.922,50.293,-85.449
1688252972.707,56.152,-37.598,-46.875,21.484,-33.691
1688252972.711,187.500,-37.109,-46.387,-35.645,26.855
1688252972.715,83.984,-36.133,-42.969,-42.969,-58.594
1688252972.718,-120.605,-35.156,-40.039,-11.230,-74.219
1688252972.722,-202.148,-49.316,-47.852,42.969,15.625
1688252972.726,16.113,-51.270,-43.457,53.223,301.758
1688252972.730,191.895,-55.176,-32.227,-8.301,123.535
1688252972.734,111.816,-62.500,-42.969,-45.898,-234.375
1688252972.737,-95.703,-44.434,-48.340,-11.230,-179.688
1688252972.741,-211.914,-39.062,-46.387,46.875,-57.617
1688252972.745,-22.461,-45.898,-43.945,43.945,-42.480
1688252972.749,186.035,-35.645,-38.086,-16.113,-138.184
1688252972.753,132.812,-40.527,-45.410,-58.105,-133.301
1688252972.757,-74.707,-60.547,-43.945,-26.367,-41.504
1688252972.761,-212.402,-56.641,-35.645,44.434,36.621
1688252972.764,-57.129,-39.062,-47.363,41.504,-5.371
1688252972.768,155.273,-32.715,-56.641,-19.531,189.941
1688252972.772,131.836,-31.738,-50.781,-56.641,331.055
1688252972.776,-58.105,-29.785,-39.062,-40.039,-53.223
1688252972.780,-217.285,-39.551,-37.109,30.273,-117.188
1688252972.781,-89.355,-43.457,-47.363,50.293,84.961
1688252972.785,150.391,-35.156,-57.617,-10.742,-124.023
1688252972.789,150.879,-38.574,-58.105,-58.105,-344.727
1688252972.793,-26.855,-56.641,-47.852,-47.363,-231.934
1688252972.797,-209.473,-68.359,-46.875,12.695,-14.160
1688252972.801,-126.465,-60.547,-51.270,41.992,39.551
1688252972.805,128.906,-54.688,-55.176,-3.418,-0.488
1688252972.808,166.016,-47.363,-48.340,-55.664,-99.609
1688252972.812,-2.930,-47.852,-38.574,-46.387,177.246
1688252972.816,-196.777,-45.898,-40.527,19.043,165.039
1688252972.820,-146.484,-36.621,-46.875,38.086,-52.734
1688252972.824,101.562,-45.410,-48.828,-3.418,-42.969
1688252972.842,161.133,-71.289,-45.898,-47.852,-38.574
1688252972.846,20.020,-73.242,-43.457,-50.293,-125.977
1688252972.850,-181.641,-38.574,-44.434,9.766,-150.391
1688252972.854,-183.594,-14.648,-57.617,44.434,74.219
1688252972.858,63.965,-22.461,-64.453,-5.859,57.129
1688252972.862,174.805,-30.762,-46.387,-65.918,-113.281
1688252972.866,54.199,-24.414,-34.180,-69.336,-145.996
1688252972.869,-150.879,-30.273,-42.969,-8.789,107.422
1688252972.873,-183.105,-46.387,-53.711,38.574,513.184
1688252972.877,45.898,-47.363,-55.664,-0.488,207.520
1688252972.881,171.875,-43.457,-55.664,-66.406,-203.125
1688252972.885,74.219,-46.875,-49.805,-80.078,-255.371
1688252972.871,-131.836,-49.316,-40.527,-24.902,-189.941
1688252972.875,-211.426,-50.293,-48.828,30.762,-88.867
1688252972.879,4.883,-49.316,-55.176,11.230,-52.246
1688252972.883,168.457,-41.504,-50.781,-42.969,-17.090
1688252972.887,76.172,-30.273,-61.035,-73.730,-172.852
1688252972.891,-129.395,-22.461,-67.383,-41.992,-191.895
1688252972.895,-225.586,-38.086,-66.406,20.996,10.254
1688252972.898,-22.949,-51.270,-62.012,36.133,75.195
1688252972.902,179.199,-32.227,-42.969,-4.395,-139.160
1688252972.906,111.816,-26.367,-38.086,-42.969,-301.758
1688252972.910,-105.469,-57.617,-55.176,-37.109,-164.551
1688252972.914,-236.816,-82.031,-71.289,20.996,301.270
1688252972.917,-68.359,-63.965,-61.035,30.762,157.715
1688252972.921,147.949,-42.480,-47.852,-26.855,-202.148
1688252972.925,124.023,-35.156,-50.781,-71.289,-203.613
1688252972.929,-72.754,-32.227,-50.781,-62.988,-190.430
1688252972.933,-235.840,-38.574,-54.688,4.883,-75.684
1688252972.937,-98.633,-41.992,-54.199,25.391,57.617
1688252972.941,142.090,-31.250,-49.316,-25.391,230.469
1688252972.944,146.973,-17.578,-44.922,-60.059,262.695
1688252972.948,-30.762,-18.066,-42.480,-39.062,-14.648
1688252972.952,-215.332,-54.199,-44.434,22.949,-98.145
1688252972.956,-125.488,-78.125,-42.480,41.992,166.504
1688252972.960,125.000,-55.664,-27.832,3.906,183.105
1688252972.961,154.297,-34.180,-25.391,-53.223,-205.078
1688252972.965,-9.766,-25.879,-40.039,-54.199,-261.719
1688252972.969,-208.984,-41.504,-55.176,0.488,-28.809
1688252972.973,-156.250,-46.387,-53.223,35.645,24.414
1688252972.977,100.098,-40.527,-46.875,-4.395,-164.551
1688252972.981,159.180,-46.875,-46.875,-56.152,-175.293
1688252972.985,12.695,-57.617,-45.410,-48.340,121.582
1688252972.988,-193.848,-62.012,-48.828,-6.348,61.523
1688252972.992,-179.688,-65.430,-47.363,30.762,-26.855
1688252972.996,76.172,-51.270,-41.504,-2.930,21.973
1688252973.000,166.992,-44.922,-45.410,-58.105,19.043
1688252973.004,28.809,-57.617,-47.852,-70.801,-213.867
1688252973.006,-185.059,-64.453,-50.781,-25.879,-211.426
1688252973.010,-192.871,-49.316,-49.805,24.902,22.949
1688252973.014,64.941,-38.574,-42.480,8.789,-23.438
1688252973.018,170.898,-61.523,-50.293,-62.012,-185.547
1688252973.022,46.875,-62.012,-56.152,-86.914,-203.125
1688252973.026,-151.367,-47.363,-62.988,-32.227,39.551
1688252973.030,-202.637,-44.434,-56.641,32.715,111.816
1688252973.033,21.973,-43.457,-35.645,33.203,-2.441
1688252973.037,183.105,-39.062,-38.574,-34.668,-70.312
1688252973.041,89.355,-38.574,-47.363,-66.406,64.453
1688252973.045,-133.789,-44.922,-46.875,-25.391,332.520
1688252973.049,-219.238,-37.109,-35.156,33.691,54.688
1688252973.066,-0.977,-20.508,-26.367,42.480,-118.652
1688252973.070,177.734,-27.832,-39.062,-9.277,-59.082
1688252973.074,93.750,-53.223,-56.641,-61.035,-177.734
1688252973.078,-109.375,-56.641,-52.246,-43.945,-228.027
1688252973.082,-225.586,-38.574,-42.969,27.832,-125.977
1688252973.086,-54.199,-36.133,-52.734,37.109,87.402
1688252973.090,148.926,-45.898,-63.965,-27.832,27.832
1688252973.093,116.211,-55.664,-54.199,-67.871,-223.145
1688252973.097,-70.801,-60.547,-57.617,-41.504,-144.531
1688252973.101,-216.309,-49.316,-63.477,20.996,235.352
1688252973.105,-74.707,-42.969,-49.805,21.973,99.609
1688252973.109,145.508,-49.316,-45.410,-35.645,-184.570
1688252973.111,143.066,-45.898,-46.875,-63.965,-201.172
1688252973.115,-39.062,-51.758,-51.270,-45.410,-115.723
1688252973.119,-224.121,-62.012,-57.617,9.277,-66.895
1688252973.123,-128.418,-61.035,-58.105,40.039,-83.008
1688252973.127,119.141,-60.059,-60.059,-13.184,16.113
1688252973.131,145.020,-54.199,-64.453,-66.895,89.355
1688252973.135,-15.625,-44.922,-52.734,-44.922,-41.016
1688252973.138,-208.984,-44.922,-42.480,23.926,-96.191
1688252973.142,-146.484,-47.852,-38.574,57.129,234.863
1688252973.146,114.258,-46.875,-39.062,10.742,405.762
1688252973.150,156.250,-37.109,-42.969,-74.219,-62.012
1688252973.154,-0.977,-49.316,-45.410,-74.707,-271.484
1688252973.157,-187.012,-72.266,-48.340,6.836,-50.781
1688252973.161,-150.879,-66.406,-51.270,60.059,-34.668
1688252973.165,90.820,-47.852,-62.500,3.418,-111.816
1688252973.169,149.902,-30.762,-68.359,-84.961,-40.527
1688252973.173,10.742,-38.086,-73.242,-97.656,-15.137
1688252973.177,-189.453,-52.734,-78.613,-46.875,-14.160
1688252973.181,-199.219,-46.387,-76.172,2.930,-8.789
1688252973.184,68.848,-25.391,-66.406,-5.371,-46.387
1688252973.188,191.406,-21.484,-66.406,-51.758,180.664
1688252973.192,57.129,-29.297,-72.754,-78.125,-8.789
1688252973.196,-170.410,-55.176,-75.684,-61.035,-220.215
1688252973.200,-221.191,-72.754,-69.336,-9.277,-38.086
1688252973.201,29.297,-56.641,-68.848,-0.488,-53.223
1688252973.205,181.152,-41.504,-71.289,-62.500,-206.055
1688252973.209,88.867,-29.785,-58.105,-83.008,-265.625
1688252973.213,-119.141,-40.527,-59.082,-37.109,-168.945
1688252973.217,-207.520,-54.688,-61.035,16.113,-13.184
1688252973.221,11.719,-35.156,-51.758,23.926,99.609
1688252973.225,177.246,-36.133,-58.105,-42.480,46.875
1688252973.228,105.957,-48.340,-53.223,-68.359,96.680
1688252973.232,-103.516,-60.059,-63.477,-28.320,454.102
1688252973.236,-231.445,-62.500,-70.312,17.090,234.863
1688252973.240,-39.551,-41.504,-45.410,32.715,-49.316
1688252973.244,166.016,-30.273,-42.969,-20.508,-42.480
1688252973.246,126.465,-22.949,-40.527,-55.176,-221.680
1688252973.250,-63.965,-33.203,-34.180,-23.438,-257.812
1688252973.254,-221.191,-48.340,-49.805,30.273,-70.801
1688252973.258,-79.102,-50.781,-63.965,36.621,66.895
1688252973.262,150.391,-47.363,-57.617,-27.832,-17.578
1688252973.266,134.766,-34.180,-44.434,-68.359,-207.520
1688252973.270,-48.340,-22.461,-46.875,-45.898,-118.652
1688252973.273,-217.773,-39.551,-55.176,18.066,274.414
1688252973.277,-105.469,-49.316,-52.246,36.133,259.277
1688252973.281,151.367,-28.809,-33.203,-4.883,-74.219
1688252973.285,167.969,-19.531,-26.367,-41.992,-186.035
1688252973.289,-14.160,-38.086,-27.832,-36.133,-98.145
1688252973.291,-203.125,-65.430,-36.621,14.160,-98.633
1688252973.295,-129.395,-81.055,-45.898,40.039,-62.500
1688252973.299,117.188,-72.266,-42.480,10.742,-63.965
1688252973.303,164.062,-54.199,-36.621,-40.527,-129.883
1688252973.307,3.906,-63.477,-42.969,-57.129,-186.523
1688252973.311,-195.801,-59.082,-44.434,3.418,-44.434
1688252973.315,-153.809,-37.598,-43.457,46.387,305.664
1688252973.318,104.004,-42.480,-50.781,-1.465,375.488
1688252973.322,172.852,-48.828,-44.434,-63.965,-10.742
1688252973.326,26.855,-45.898,-37.109,-67.871,-214.355
1688252973.330,-170.410,-55.664,-35.645,2.441,93.262
1688252973.334,-178.223,-77.148,-49.805,50.781,155.273
1688252973.337,55.176,-77.637,-68.848,0.977,-187.012
1688252973.341,149.414,-71.777,-69.336,-73.730,-223.633
1688252973.345,31.738,-56.641,-57.617,-76.172,-45.898
1688252973.349,-158.203,-29.785,-43.457,-13.184,-56.152
1688252973.353,-187.012,-38.574,-44.434,33.691,-120.117
1688252973.357,53.223,-78.613,-50.293,10.742,-19.043
1688252973.361,195.312,-83.984,-35.156,-30.273,168.945
1688252973.364,107.910,-53.711,-23.926,-25.879,-132.324
1688252973.368,-108.887,-26.367,-38.574,2.930,-340.332
1688252973.372,-214.355,-12.207,-51.758,14.160,-136.230
1688252973.376,2.441,-17.578,-49.316,-7.812,-77.637
1688252973.380,167.480,-39.062,-40.527,-53.223,-250.977
1688252973.397,83.496,-58.594,-43.945,-83.008,-336.426
1688252973.401,-115.723,-77.637,-57.129,-61.035,-153.320
1688252973.405,-225.586,-82.031,-49.316,-0.488,12.695
1688252973.409,-39.062,-51.270,-48.828,2.930,-60.059
1688252973.413,156.738,-19.043,-47.852,-59.082,-166.016
1688252973.417,101.074,-36.621,-51.758,-104.492,82.520
1688252973.421,-107.910,-64.941,-73.242,-86.426,257.324
1688252973.424,-231.934,-43.945,-61.523,-22.461,-14.648
1688252973.428,-74.219,-28.320,-52.734,2.930,20.996
1688252973.432,145.508,-24.902,-50.293,-54.199,71.777
1688252973.436,125.488,-19.531,-41.504,-101.562,-168.945
1688252973.440,-65.430,-18.066,-43.457,-73.730,-243.652
1688252973.441,-224.121,-23.926,-48.340,-3.418,-93.262
1688252973.445,-90.332,-33.203,-41.504,34.668,261.230
1688252973.449,143.555,-38.086,-34.668,-22.949,175.293
1688252973.453,135.254,-34.180,-44.922,-88.867,-224.121
1688252973.457,-46.387,-39.062,-47.852,-67.383,-158.691
1688252973.461,-218.262,-49.805,-51.270,-9.766,129.395
1688252973.465,-130.859,-54.688,-56.641,23.438,118.164
1688252973.468,103.516,-56.152,-58.594,-25.879,-89.355
1688252973.472,140.137,-62.012,-55.664,-68.848,-225.098
1688252973.476,0.977,-57.129,-43.945,-41.992,70.801
1688252973.480,-191.406,-25.879,-41.992,2.441,81.543
1688252973.484,-157.227,-38.574,-62.988,18.555,-124.512
1688252973.486,97.656,-51.270,-70.312,-19.043,-101.074
1688252973.490,166.016,-27.344,-58.105,-71.777,-179.688
1688252973.494,25.391,-26.855,-45.410,-72.754,-188.477
1688252973.498,-178.711,-42.969,-38.574,-14.648,-104.004
1688252973.502,-182.129,-55.664,-55.176,27.344,-9.277
1688252973.506,78.125,-41.016,-63.965,1.465,43.945
1688252973.510,181.641,-18.555,-56.641,-49.805,-21.484
1688252973.513,47.363,-18.555,-36.133,-57.617,-96.191
1688252973.517,-162.109,-45.898,-41.504,-6.836,135.254
1688252973.521,-196.777,-56.152,-58.105,47.852,495.117
1688252973.525,38.086,-52.246,-51.270,17.578,222.656
1688252973.529,157.715,-52.734,-52.246,-62.012,-190.430
1688252973.546,54.199,-44.922,-51.270,-83.496,-220.215
1688252973.550,-142.578,-62.500,-50.781,-32.227,-187.500
1688252973.554,-213.379,-59.082,-56.152,32.227,-119.141
1688252973.558,-2.441,-32.715,-55.176,21.973,-13.184
1688252973.562,158.203,-23.438,-51.758,-42.969,-92.285
1688252973.566,73.730,-22.949,-57.617,-83.984,-84.473
1688252973.570,-134.766,-29.297,-68.359,-54.199,-28.320
1688252973.573,-228.516,-29.785,-62.500,25.879,-29.785
1688252973.577,-24.414,-29.785,-55.176,43.945,364.258
1688252973.581,169.434,-21.484,-41.992,-19.531,208.984
1688252973.585,110.840,-24.414,-46.875,-58.594,-233.398
1688252973.589,-80.566,-33.691,-55.176,-27.832,-184.082
1688252973.576,-205.566,-25.879,-33.691,38.086,-29.297
1688252973.580,-47.363,-32.227,-23.926,45.410,-22.949
1688252973.584,164.062,-43.945,-34.668,-14.160,-137.207
1688252973.588,126.953,-45.898,-42.969,-59.082,-227.539
1688252973.592,-68.848,-43.457,-44.922,-51.758,-194.824
1688252973.596,-191.406,-32.715,-53.223,8.789,27.344
1688252973.600,-67.871,-31.250,-50.781,31.250,170.410
1688252973.603,147.949,-36.133,-41.992,-9.766,104.980
1688252973.607,141.113,-37.598,-44.922,-52.734,-88.379
1688252973.611,-48.340,-43.457,-51.758,-51.758,-248.047
1688252973.615,-224.121,-49.805,-48.340,10.742,-167.969
1688252973.619,-126.465,-65.430,-42.480,48.340,287.109
1688252973.621,124.023,-71.777,-49.805,-1.465,460.938
1688252973.625,159.668,-61.035,-45.898,-50.293,6.836
1688252973.629,-5.859,-64.453,-48.340,-50.293,-225.098
1688252973.633,-225.098,-54.688,-57.617,-15.137,-117.188
1688252973.637,-165.527,-28.809,-55.664,27.832,-52.246
1688252973.641,103.027,-40.039,-55.664,-14.648,-47.852
1688252973.645,152.344,-60.059,-63.965,-79.590,-95.215
1688252973.648,5.371,-54.199,-62.988,-71.289,102.539
1688252973.652,-191.895,-54.688,-53.711,-19.043,54.688
1688252973.656,-163.574,-52.734,-49.316,39.062,-116.211
1688252973.660,101.074,-51.758,-50.781,19.531,-88.867
1688252973.664,180.176,-47.363,-60.059,-46.875,-172.852
1688252973.682,41.016,-38.086,-52.246,-53.223,-312.988
1688252973.686,-166.016,-44.434,-46.875,-1.465,-183.105
1688252973.690,-187.988,-52.734,-47.852,52.734,130.859
1688252973.694,61.523,-48.828,-37.598,33.691,92.773
1688252973.698,180.176,-31.738,-42.969,-35.645,-149.902
1688252973.702,61.523,-28.320,-48.340,-63.965,-129.395
1688252973.706,-136.719,-46.387,-51.758,-11.230,171.875
1688252973.709,-198.242,-61.523,-61.523,45.898,331.055
1688252973.713,29.297,-59.082,-52.734,20.020,75.195
1688252973.717,184.082,-62.988,-50.781,-42.480,-159.180
1688252973.721,93.262,-51.270,-56.641,-66.895,-125.488
1688252973.725,-108.398,-36.621,-42.969,-21.973,-112.793
1688252973.711,-197.266,-29.785,-33.203,49.316,-165.527
1688252973.715,4.883,-26.367,-39.551,44.434,-37.109
1688252973.719,182.129,-40.527,-39.551,-17.090,24.902
1688252973.723,111.816,-53.223,-41.504,-59.082,-168.457
1688252973.727,-87.891,-41.992,-52.734,-41.992,-186.523
1688252973.731,-198.242,-26.367,-52.734,36.133,118.652
1688252973.735,-31.738,-39.551,-43.457,44.922,275.879
1688252973.738,154.785,-66.895,-45.898,-34.668,-6.836
1688252973.742,111.328,-71.777,-57.617,-65.430,-271.484
1688252973.746,-71.289,-70.801,-62.012,-38.086,-140.625
1688252973.750,-220.703,-69.824,-55.664,19.043,331.055
1688252973.754,-83.984,-61.523,-41.016,34.668,274.902
1688252973.786,140.137,-64.453,-42.969,-25.391,-129.395
1688252973.790,124.512,-68.848,-64.453,-80.566,-233.398
1688252973.794,-54.199,-83.008,-66.895,-58.105,-214.355
1688252973.798,-215.332,-80.566,-42.969,25.391,-143.555
1688252973.802,-104.980,-51.270,-38.574,50.781,-35.645
1688252973.806,142.090,-47.852,-53.223,-9.277,22.949
1688252973.810,164.062,-33.203,-47.363,-48.828,-118.164
1688252973.813,-8.789,-37.109,-47.363,-36.621,-138.184
1688252973.817,-206.055,-72.754,-55.176,12.695,-36.133
1688252973.821,-135.742,-74.219,-59.082,44.922,164.062
1688252973.825,113.281,-56.152,-54.199,-2.930,430.176
1688252973.829,155.762,-39.062,-43.945,-66.895,49.316
1688252973.816,7.324,-34.668,-37.598,-63.965,-256.836
1688252973.820,-188.965,-58.594,-35.645,1.953,-93.262
1688252973.824,-170.410,-66.406,-43.457,45.898,-14.160
1688252973.828,80.078,-37.598,-46.387,7.812,-47.363
1688252973.832,169.434,-27.832,-44.434,-46.875,-125.977
1688252973.836,34.668,-49.316,-46.387,-57.617,10.254
1688252973.840,-171.875,-49.805,-43.945,-9.766,60.059
1688252973.843,-177.246,-50.293,-46.387,42.969,-3.906
1688252973.847,65.918,-54.199,-60.547,13.672,32.227
1688252973.851,176.270,-51.758,-55.176,-41.992,26.855
1688252973.855,59.570,-72.266,-41.504,-49.805,-148.926
1688252973.859,-136.230,-80.078,-43.457,-7.324,-207.520
1688252973.861,-162.109,-79.102,-46.387,67.871,26.855
1688252973.865,49.805,-85.938,-61.523,57.617,378.906
1688252973.869,157.227,-45.898,-53.223,-45.410,116.699
1688252973.873,67.383,-17.578,-41.016,-71.289,-237.305
1688252973.877,-130.859,-30.273,-47.363,-26.855,-141.602
1688252973.881,-215.332,-37.598,-44.922,40.527,83.984
1688252973.885,6.348,-38.574,-41.016,41.016,114.258
1688252973.888,192.871,-43.945,-35.156,-19.043,-83.984
1688252973.892,120.605,-50.781,-35.645,-40.039,63.477
1688252973.896,-85.938,-57.129,-44.434,-3.418,362.793
1688252973.900,-199.707,-62.500,-40.527,56.641,60.059
1688252973.904,-15.137,-60.547,-42.480,61.523,-63.477
1688252973.906,184.082,-58.594,-45.410,14.648,120.117
1688252973.910,150.879,-52.734,-37.598,-24.414,-144.531
1688252973.914,-37.598,-58.105,-40.527,-7.324,-266.602
1688252973.918,-193.359,-69.824,-43.457,54.688,-41.016
1688252973.922,-40.527,-64.941,-40.039,70.801,14.160
1688252973.926,196.777,-51.758,-40.039,22.461,-39.062
1688252973.930,174.316,-58.105,-42.969,-27.832,-171.875
1688252973.933,-20.508,-62.500,-50.293,-21.973,-218.750
1688252973.937,-184.570,-53.223,-48.340,58.105,222.656
1688252973.941,-71.289,-48.340,-31.738,83.984,162.109
1688252973.945,165.039,-39.062,-25.879,20.020,-169.922
1688252973.949,174.805,-26.855,-35.156,-25.879,-210.449
1688252973.952,-4.883,-33.203,-43.945,-27.832,-212.891
1688252973.956,-192.383,-41.016,-41.992,24.414,-95.703
1688252973.960,-119.629,-37.109,-37.109,59.570,39.062
1688252973.964,123.047,-55.176,-47.363,6.348,40.527
1688252973.968,165.527,-75.195,-54.199,-57.617,12.695
1688252973.972,21.484,-63.965,-50.293,-53.711,-65.430
1688252973.976,-174.316,-51.270,-51.270,8.789,-39.062
1688252973.979,-148.438,-48.828,-52.734,59.082,273.438
1688252973.983,108.398,-47.363,-42.480,30.762,535.156
1688252973.987,184.082,-42.969,-37.109,-35.156,-21.484
1688252973.991,39.062,-47.852,-47.852,-54.199,-318.848
1688252973.995,-164.062,-53.223,-54.688,-1.953,-32.715
1688252973.996,-166.992,-50.781,-51.270,50.781,0.977
1688252974.000,91.797,-42.480,-42.480,27.344,-130.859
1688252974.004,200.195,-41.992,-41.992,-30.273,-191.895
1688252974.008,60.059,-40.527,-56.152,-51.758,-192.383
1688252974.012,-151.367,-37.598,-54.688,-5.859,-85.938
1688252974.016,-189.941,-42.969,-49.316,55.176,34.668
1688252974.020,50.293,-47.363,-46.875,35.156,77.637
1688252974.023,194.336,-49.805,-45.898,-20.020,320.312
1688252974.027,84.961,-44.434,-44.922,-48.340,83.496
1688252974.031,-134.277,-55.176,-43.457,-28.809,-295.898
