timestamps,TP9,AF7,AF8,TP10,Right AUX
1688260680.224,-21.484,-37.598,-33.691,-31.250,-204.590
1688260680.228,-68.848,-24.902,-45.410,-58.594,-195.801
1688260680.232,-69.336,-21.484,-53.711,-53.223,-166.504
1688260680.236,-0.977,-33.203,-41.504,-26.855,-126.465
1688260680.240,23.926,-38.086,-26.367,-26.855,-57.617
1688260680.244,-6.836,-33.691,-21.973,-31.738,52.734
1688260680.248,-54.688,-19.043,-18.555,-35.645,33.691
1688260680.251,-67.871,-8.789,-4.883,-22.461,-41.992
1688260680.255,-13.672,-10.742,6.836,-8.301,-0.488
1688260680.259,7.812,-34.180,-18.066,-25.391,387.207
1688260680.263,-19.531,-41.992,-33.203,-43.457,119.629
1688260680.267,-56.152,-51.758,-18.066,-43.945,-285.156
1688260680.268,-65.918,-43.945,-6.348,-28.320,-147.949
1688260680.272,-16.113,-24.902,3.418,-5.371,-49.316
1688260680.276,15.137,-32.715,5.859,-7.812,-88.867
1688260680.280,-9.766,-23.438,-5.859,-34.668,-128.906
1688260680.284,-50.781,-22.461,-15.137,-48.828,-73.242
1688260680.288,-70.312,-50.293,-21.484,-40.527,22.461
1688260680.292,-29.785,-47.852,-14.160,-27.832,31.738
1688260680.295,12.695,-21.484,-2.441,-14.160,-51.270
1688260680.299,6.348,-13.184,-13.672,-6.836,138.184
1688260680.303,-43.457,-18.555,-23.926,-27.344,373.535
1688260680.307,-82.520,-31.738,-30.762,-38.574,33.691
1688260680.311,-42.480,-41.016,-27.832,-8.789,-94.238
1688260680.313,5.859,-36.133,-19.531,-2.930,118.652
1688260680.317,-6.836,-33.691,-31.250,-37.109,-71.777
1688260680.321,-34.180,-42.480,-33.203,-42.480,-241.699
1688260680.325,-68.848,-55.664,-23.438,-22.949,-174.316
1688260680.329,-60.059,-48.828,-25.391,-16.602,-69.824
1688260680.333,-12.695,-47.852,-35.156,-21.484,4.395
1688260680.337,-8.789,-47.852,-38.086,-27.832,-24.902
1688260680.340,-33.203,-22.949,-40.039,-36.133,-94.727
1688260680.344,-69.336,-7.812,-45.410,-36.133,177.246
1688260680.348,-56.152,-9.766,-37.109,-26.367,56.641
1688260680.352,10.254,-9.277,-43.457,-7.324,-148.438
1688260680.356,12.695,-27.344,-40.527,-29.297,-113.281
1688260680.359,-31.738,-32.715,-26.367,-59.570,-180.664
1688260680.363,-73.242,-25.879,-31.250,-63.965,-167.480
1688260680.367,-70.312,-51.758,-46.387,-48.828,-28.809
1688260680.371,-0.977,-49.316,-34.180,2.930,78.125
1688260680.375,6.836,-35.156,-28.809,-7.324,3.906
1688260680.379,-28.809,-57.129,-42.969,-45.410,-48.828
1688260680.383,-61.035,-35.645,-52.734,-40.039,-91.309
1688260680.386,-69.824,-16.602,-63.965,-36.133,164.062
1688260680.390,-28.809,-20.996,-53.711,-27.344,420.898
1688260680.394,-16.113,-32.227,-48.828,-40.527,-29.297
1688260680.398,-37.109,-37.598,-78.613,-70.312,-241.699
1688260680.402,-70.801,-35.156,-109.863,-61.035,35.156
1688260680.403,-77.148,-38.086,-122.559,-46.875,89.355
1688260680.407,-23.438,-27.344,-108.887,-37.109,-102.539
1688260680.411,19.043,-16.113,-90.820,-27.832,-74.707
1688260680.415,-13.672,-27.832,-83.496,-51.758,-50.781
1688260680.419,-66.895,-50.293,-77.148,-63.477,-115.723
1688260680.423,-66.406,-43.945,-78.125,-46.387,-23.438
1688260680.427,-18.066,-48.340,-75.684,-19.043,146.484
1688260680.430,0.488,-54.199,-74.219,-12.695,428.711
1688260680.434,-16.113,-13.672,-73.730,-35.156,195.312
1688260680.438,-55.176,-11.230,-77.148,-54.199,-250.000
1688260680.442,-78.613,-35.156,-83.984,-47.852,-251.953
1688260680.446,-30.762,-37.109,-75.195,-30.762,-145.508
1688260680.448,14.160,-33.203,-60.059,-19.531,-142.090
1688260680.452,4.395,-34.668,-62.988,-28.320,-225.098
1688260680.456,-39.062,-38.086,-83.496,-41.504,-221.191
1688260680.460,-66.895,-34.668,-84.473,-35.156,-184.082
1688260680.464,-25.391,-34.668,-77.637,-22.949,-119.141
1688260680.468,19.043,-40.527,-73.730,-14.648,-13.672
1688260680.472,8.301,-24.902,-71.289,-33.203,155.273
1688260680.475,-36.621,-29.297,-75.684,-38.574,228.516
1688260680.479,-68.359,-50.293,-78.125,-34.180,-23.438
1688260680.483,-42.480,-51.270,-72.266,-22.461,-33.691
1688260680.487,1.953,-24.414,-60.059,0.977,167.969
1688260680.491,5.371,-16.602,-55.176,-15.625,82.031
1688260680.494,-28.809,-20.508,-52.734,-47.363,-224.121
1688260680.498,-54.199,-10.254,-41.504,-33.203,-184.082
1688260680.502,-29.297,-11.230,-39.062,1.953,58.594
1688260680.506,18.555,-49.316,-41.504,7.812,10.254
1688260680.510,16.602,-84.473,-40.527,-11.230,-184.570
1688260680.514,-26.367,-54.688,-52.246,-29.297,-104.004
1688260680.518,-68.848,-20.996,-64.453,-37.109,301.758
1688260680.521,-60.059,-17.090,-59.082,-41.504,105.469
1688260680.525,-12.695,-17.090,-46.387,-20.996,-132.812
1688260680.529,10.254,-13.672,-42.480,5.859,-50.293
1688260680.533,-16.602,-29.297,-59.570,-25.391,-47.363
1688260680.537,-64.941,-33.691,-58.105,-41.504,-131.348
1688260680.540,-53.711,-5.859,-40.527,-26.367,-180.176
1688260680.544,-10.742,-25.879,-48.828,-17.090,-59.570
1688260680.548,-5.859,-58.105,-50.781,-24.902,28.809
1688260680.552,-28.320,-40.527,-33.691,-53.223,-152.832
1688260680.556,-62.500,-21.973,-38.574,-41.016,-232.910
1688260680.560,-58.594,-29.297,-43.945,-19.531,54.199
1688260680.564,8.301,-36.133,-23.438,-3.906,171.875
1688260680.567,33.691,-22.949,-7.324,2.441,-19.043
1688260680.571,-4.883,-28.809,-26.855,-23.926,-78.125
1688260680.575,-50.781,-30.273,-45.410,-53.223,13.184
1688260680.579,-63.477,-59.570,-29.785,-52.246,-23.926
1688260680.583,-9.766,-74.707,-16.602,-22.949,-93.262
1688260680.598,18.555,-31.738,-27.344,-10.254,-26.367
1688260680.602,-19.043,-20.996,-47.852,-29.297,230.469
1688260680.606,-62.988,-19.531,-39.062,-47.363,276.855
1688260680.610,-90.820,-27.344,-20.508,-48.340,-68.359
1688260680.614,-39.062,-42.480,1.953,-3.906,-64.941
1688260680.618,-1.465,-45.898,7.324,6.836,293.457
1688260680.622,-25.879,-35.645,-0.977,-34.180,165.039
1688260680.625,-56.641,-32.227,-7.812,-44.434,-260.254
1688260680.629,-87.891,-50.781,-36.133,-25.391,-168.457
1688260680.633,-43.457,-45.410,-20.996,-10.254,135.254
1688260680.637,1.465,-38.086,-12.207,-29.785,-66.895
1688260680.641,-7.324,-25.879,-26.367,-50.293,-247.070
1688260680.643,-32.715,-18.555,-15.625,-41.016,-211.426
1688260680.647,-82.520,-35.645,-24.902,-38.086,-204.102
1688260680.651,-55.176,-41.992,-32.227,-15.137,-170.410
1688260680.655,3.418,-59.570,-26.367,-1.953,-81.543
1688260680.659,-2.441,-50.293,-30.762,-39.551,-27.344
1688260680.663,-43.945,-19.531,-36.133,-71.289,-13.672
1688260680.667,-84.473,-13.672,-25.391,-66.406,-43.457
1688260680.670,-56.641,-12.695,-16.602,-37.598,-3.418
1688260680.674,4.395,-28.809,-4.883,-18.555,243.652
1688260680.678,8.301,-59.570,-9.277,-13.184,411.621
1688260680.682,-29.297,-54.688,-29.297,-27.344,-27.344
1688260680.686,-64.941,-28.320,-27.832,-46.875,-274.414
1688260680.688,-55.664,-37.109,-7.324,-44.434,-146.973
1688260680.692,2.930,-36.133,9.277,-26.855,-133.301
1688260680.696,10.254,-26.367,0.977,-22.949,-166.016
1688260680.700,-33.691,-34.180,-14.648,-47.363,-163.574
1688260680.704,-70.312,-34.180,-8.789,-39.551,-126.953
1688260680.708,-64.941,-34.668,-9.766,-12.207,6.836
1688260680.712,-10.742,-41.504,-10.254,-20.508,75.195
1688260680.715,-2.441,-38.086,3.418,-26.367,-35.645
1688260680.719,-35.156,-18.555,-20.508,-41.992,178.223
1688260680.723,-65.430,-8.301,-41.992,-63.477,96.680
1688260680.727,-49.805,-14.648,-2.930,-45.410,-164.062
1688260680.731,6.348,-18.555,13.184,-7.324,-104.004
1688260680.734,15.137,-36.133,1.953,-8.301,-87.402
1688260680.738,-17.578,-51.758,-3.418,-54.199,-168.945
1688260680.742,-53.711,-42.969,-14.160,-66.406,-189.941
1688260680.746,-64.453,-40.527,-14.648,-37.598,-77.148
1688260680.750,-19.531,-33.691,-7.324,-16.602,-15.137
1688260680.754,11.230,-35.156,-2.441,-14.160,38.574
1688260680.758,-4.395,-43.945,-7.324,-24.902,12.207
1688260680.761,-45.410,-31.250,-26.367,-40.527,116.699
1688260680.765,-59.082,-30.273,-23.926,-29.297,410.156
1688260680.769,-14.160,-32.227,-16.113,-16.113,172.363
1688260680.773,4.883,-25.879,-15.625,-35.645,-126.465
1688260680.777,-10.742,-27.832,-13.184,-41.016,-14.648
1688260680.778,-38.574,-19.531,-7.812,-42.969,-140.625
1688260680.782,-62.988,-22.461,-8.789,-31.250,-265.137
1688260680.786,-31.738,-41.992,-5.859,-17.090,-150.879
1688260680.790,0.488,-33.203,16.602,-22.949,-86.914
1688260680.794,-7.324,-25.879,14.648,-37.109,-141.602
1688260680.798,-34.180,-34.668,-0.977,-58.105,-176.758
1688260680.802,-44.434,-28.809,6.348,-15.137,-19.531
1688260680.805,0.977,-24.414,14.160,43.457,319.336
1688260680.809,10.742,-20.508,13.184,9.766,117.676
1688260680.813,-16.113,-23.438,9.766,-44.922,-157.715
1688260680.817,-41.992,-27.344,5.859,-66.895,-47.363
1688260680.821,-84.961,-38.574,-0.488,-62.012,-46.875
1688260680.823,-58.105,-38.086,11.719,-29.785,-119.629
1688260680.827,13.672,-11.719,30.762,-7.324,-92.285
1688260680.831,11.230,-19.043,5.371,-21.484,-23.926
1688260680.835,-38.086,-35.156,-3.418,-42.969,1.465
1688260680.839,-75.684,-34.668,20.996,-41.016,-120.605
1688260680.843,-56.641,-35.156,50.781,-11.230,-32.715
1688260680.847,1.465,-46.875,72.754,7.812,223.633
1688260680.850,16.113,-44.434,75.684,-7.812,213.379
1688260680.854,-18.066,-39.551,64.941,-39.551,-131.836
1688260680.858,-53.711,-31.738,45.410,-51.758,-233.398
1688260680.862,-43.457,-19.043,42.969,-13.184,28.320
1688260680.866,0.000,-29.297,48.340,7.324,67.383
1688260680.869,24.414,-47.852,59.570,-4.883,-110.840
1688260680.873,5.859,-29.297,59.082,-6.836,-131.348
1688260680.877,-56.152,-28.320,17.090,-23.926,-20.508
1688260680.881,-69.336,-29.785,21.484,-21.973,-46.387
1688260680.885,-8.789,-10.254,50.781,3.418,-67.383
1688260680.889,26.367,-7.324,50.781,7.324,107.422
1688260680.893,7.812,-18.555,43.945,3.418,301.270
1688260680.896,-48.828,-27.344,43.945,-17.090,47.852
1688260680.900,-70.312,-22.949,36.621,-42.480,-153.809
1688260680.904,-23.438,-25.879,41.992,-13.184,-56.152
1688260680.908,3.418,-46.875,44.434,0.488,-47.363
1688260680.912,-19.043,-49.316,34.180,-28.809,-189.453
1688260680.913,-39.551,-34.668,46.387,-17.090,-224.609
1688260680.917,-41.016,-25.879,31.738,-5.859,-114.258
1688260680.921,-17.578,-30.273,17.578,-20.508,-43.945
1688260680.925,6.348,-40.527,41.504,-17.090,-27.832
1688260680.929,-8.789,-19.043,46.875,-27.344,-120.117
1688260680.933,-45.898,-22.949,21.484,-43.457,28.320
1688260680.937,-77.637,-41.016,13.184,-26.855,296.387
1688260680.940,-25.391,-20.020,34.668,1.953,-41.016
1688260680.944,24.414,-16.602,42.969,4.395,-92.285
1688260680.948,7.324,-26.855,27.832,-20.996,66.895
1688260680.952,-28.809,-40.039,10.254,-39.062,-125.488
1688260680.956,-57.617,-41.504,13.672,-28.809,-243.652
1688260680.973,-19.531,-26.855,37.598,-5.371,-155.762
1688260680.977,31.738,-29.785,35.156,5.371,174.316
1688260680.981,22.949,-39.551,17.090,-7.812,97.656
1688260680.985,-32.715,-36.621,4.395,-34.668,-250.488
1688260680.989,-71.777,-12.695,1.465,-45.410,-143.555
1688260680.993,-38.086,-17.090,17.578,-17.090,85.449
1688260680.997,11.719,-26.367,22.461,-11.719,93.262
1688260681.000,1.465,-8.789,7.812,-25.391,8.301
1688260681.004,-25.391,0.977,0.488,-19.531,-108.887
1688260681.008,-60.059,-17.578,-12.207,-30.273,164.062
1688260681.012,-55.664,-45.898,-5.371,-27.832,188.965
1688260681.016,-1.465,-46.875,19.531,0.000,-87.402
1688260681.018,11.230,-40.527,28.809,-4.395,-143.066
1688260681.022,-20.996,-39.062,7.812,-27.832,-162.109
1688260681.026,-68.848,-38.574,-9.766,-32.715,-241.699
1688260681.030,-52.246,-32.715,5.371,-10.742,-203.613
1688260681.034,5.371,-34.180,10.254,13.184,-62.500
1688260681.038,8.789,-43.945,-7.324,-12.207,-56.152
1688260681.042,-27.344,-40.527,-17.578,-61.035,-80.078
1688260681.045,-61.035,-24.414,-20.996,-59.082,-136.719
1688260681.049,-48.828,-30.273,-31.250,-27.832,113.770
1688260681.053,4.883,-37.109,-12.695,11.719,615.234
1688260681.057,9.277,-23.438,14.648,1.465,254.883
1688260681.061,-30.762,-35.645,-12.207,-49.316,-209.473
1688260681.063,-54.688,-30.273,-19.531,-52.734,-164.062
1688260681.067,-69.824,-24.902,-1.465,-34.180,-177.734
1688260681.071,-41.504,-46.875,-5.859,-26.855,-129.883
1688260681.075,-9.766,-47.363,-11.230,-38.086,-82.520
1688260681.079,-21.484,-36.621,-12.695,-44.922,-103.516
1688260681.083,-53.711,-25.879,-13.672,-31.738,-18.555
1688260681.087,-67.383,-29.785,-11.719,-18.066,25.391
1688260681.090,-25.879,-41.016,-4.395,-18.066,104.004
1688260681.094,1.953,-41.016,-5.371,-14.648,321.777
1688260681.098,-20.020,-31.738,-6.348,-41.992,40.527
1688260681.102,-57.617,-22.461,-2.930,-62.012,-219.727
1688260681.106,-80.078,-25.391,0.000,-47.852,-80.078
1688260681.108,-41.504,-34.180,-4.883,-21.973,-5.371
1688260681.112,-8.789,-42.969,-14.160,-20.020,-70.801
1688260681.116,-8.301,-35.156,-10.254,-43.945,-151.367
1688260681.120,-36.621,-24.902,-5.859,-60.059,-162.598
1688260681.124,-75.684,-39.062,-13.672,-52.246,-103.516
1688260681.128,-39.551,-41.992,-18.555,-35.645,-14.648
1688260681.132,3.906,-23.926,-10.742,-30.273,-10.742
1688260681.135,-5.371,-9.766,-5.371,-36.621,142.578
1688260681.139,-43.457,-12.695,-12.207,-50.293,389.160
1688260681.143,-88.867,-15.137,-12.695,-46.387,59.082
1688260681.147,-50.781,-15.625,-3.906,-12.207,-124.023
1688260681.151,17.090,-13.184,11.230,-2.930,-10.742
1688260681.154,14.160,-10.254,1.465,-32.715,-64.453
1688260681.158,-23.438,-25.879,-19.531,-45.410,-108.887
1688260681.162,-58.105,-28.809,-6.348,-31.250,-111.816
1688260681.166,-50.293,-30.273,-5.859,-0.488,87.402
1688260681.170,-2.930,-30.273,-9.277,1.465,50.781
1688260681.174,3.418,-28.809,-11.719,-27.832,-77.637
1688260681.178,-30.762,-37.598,-26.367,-43.457,16.602
1688260681.181,-70.801,-30.273,-28.809,-40.527,230.469
1688260681.185,-54.199,-29.297,-14.160,-32.227,39.551
1688260681.189,2.930,-41.504,7.812,-14.160,-178.223
1688260681.193,16.113,-24.414,5.859,-9.766,-176.270
1688260681.197,-14.160,-21.484,-11.230,-26.855,-183.594
1688260681.198,-64.453,-27.832,-19.531,-51.758,-202.148
1688260681.202,-57.129,-16.113,-17.090,-30.762,-167.480
1688260681.206,3.906,-22.949,-1.465,-0.977,-60.547
1688260681.210,23.926,-28.320,11.719,-22.949,-10.742
1688260681.214,0.977,-23.438,13.184,-31.250,-108.398
1688260681.218,-47.852,-21.973,9.277,-20.508,-138.184
1688260681.222,-60.547,-28.320,5.371,-18.066,125.000
1688260681.225,-10.254,-37.109,1.465,-4.883,437.988
1688260681.229,12.695,-33.203,7.812,-6.836,97.656
1688260681.233,-4.395,-18.066,5.859,-19.043,-226.562
1688260681.237,-39.551,-22.461,-20.508,-20.996,32.715
1688260681.241,-53.711,-32.227,-29.297,-12.695,20.996
1688260681.243,-5.859,-26.855,-16.602,-10.254,-133.789
1688260681.247,29.297,-10.742,-5.371,-13.184,-104.492
1688260681.251,14.648,-7.324,2.441,2.441,-125.977
1688260681.255,-32.227,-11.230,2.930,-12.695,-166.504
1688260681.259,-65.918,-21.973,-10.254,-31.738,-155.762
1688260681.263,-24.414,-47.363,-0.977,-7.812,-40.527
1688260681.267,20.508,-49.805,21.973,5.859,216.309
1688260681.270,7.324,-32.227,28.809,-14.648,74.707
1688260681.274,-29.785,-29.785,19.531,-51.758,-233.398
1688260681.278,-59.570,-53.223,3.906,-40.527,-137.695
1688260681.282,-25.879,-50.781,1.465,-11.719,260.254
1688260681.286,24.414,-35.156,6.836,-0.977,108.887
1688260681.288,16.113,-41.504,13.184,-9.277,-144.043
1688260681.292,-37.109,-39.551,12.207,-30.273,-109.863
1688260681.296,-73.730,-19.531,7.324,-18.555,-106.934
1688260681.300,-46.875,-20.508,10.254,-3.906,-96.191
1688260681.304,11.719,-40.527,19.043,-0.977,-94.238
1688260681.308,18.555,-21.484,8.301,-4.883,25.391
1688260681.312,-27.344,-25.879,-3.906,-18.066,20.020
1688260681.315,-62.988,-37.109,9.277,-21.973,-124.023
1688260681.319,-35.645,-33.691,14.160,-12.695,-68.359
1688260681.323,20.020,-32.227,14.160,-5.859,194.336
1688260681.327,23.438,-28.320,13.672,-23.438,369.141
1688260681.331,-3.906,-16.113,23.438,-33.691,-10.254
1688260681.348,-33.203,-9.766,27.832,-28.320,-199.219
1688260681.352,-36.621,-31.738,8.301,-26.855,-65.430
1688260681.356,-0.488,-36.133,5.859,-10.742,-37.109
1688260681.360,0.000,-41.016,2.441,-25.879,-118.652
1688260681.364,-38.574,-60.547,-11.230,-48.340,-163.086
1688260681.368,-81.055,-55.664,-12.207,-34.668,21.484
1688260681.372,-79.590,-42.480,1.953,-20.020,104.492
1688260681.375,-18.555,-35.645,23.926,8.301,-17.578
1688260681.379,14.160,-23.926,32.227,-3.906,-41.504
1688260681.383,-19.531,-32.715,17.578,-34.180,138.672
1688260681.387,-66.406,-30.762,9.277,-39.062,-95.215
1688260681.391,-66.406,-27.344,4.883,-23.926,-183.105
1688260681.393,-23.438,-37.598,11.719,-3.906,12.695
1688260681.397,0.488,-36.621,34.180,-15.137,40.039
1688260681.401,-19.531,-34.180,30.762,-41.504,-104.980
1688260681.405,-63.965,-44.434,-2.441,-61.523,-192.383
1688260681.409,-76.660,-45.898,-1.953,-46.875,-78.613
1688260681.413,-28.320,-35.645,14.160,-24.414,12.695
1688260681.417,6.348,-34.180,9.277,-23.926,-40.527
1688260681.420,-15.625,-43.945,5.859,-35.156,-117.188
1688260681.424,-43.457,-30.762,3.906,-35.645,100.098
1688260681.428,-61.035,-21.484,-8.789,-30.273,399.902
1688260681.432,-32.715,-31.250,5.859,-22.461,89.844
1688260681.436,3.906,-36.621,22.461,-22.949,-120.117
1688260681.440,-12.207,-43.945,0.977,-35.645,-110.840
1688260681.444,-47.363,-41.016,-17.090,-43.457,-125.488
1688260681.448,-62.500,-44.922,-14.648,-47.852,-109.375
1688260681.452,-28.320,-37.598,8.301,-13.184,-88.379
1688260681.456,2.930,-16.602,20.020,19.531,158.691
1688260681.460,-16.113,-25.879,-0.488,-34.180,52.734
1688260681.464,-56.152,-33.203,-23.926,-69.336,-115.234
1688260681.467,-83.984,-31.738,-27.832,-42.480,-59.082
1688260681.471,-38.574,-24.414,-8.301,1.953,272.461
1688260681.475,9.766,-30.273,-1.465,12.207,122.559
1688260681.479,-1.465,-50.781,-17.578,-31.250,-238.770
1688260681.483,-26.367,-44.434,-20.020,-46.875,-215.332
1688260681.483,-57.129,-33.203,-20.020,-30.273,-169.922
1688260681.487,-39.551,-35.156,-11.230,-7.324,-132.324
1688260681.491,17.090,-27.832,3.418,6.348,-100.098
1688260681.495,22.949,-20.996,-2.441,-5.859,-63.965
1688260681.499,-26.367,-38.086,-24.902,-51.270,-63.477
1688260681.503,-62.500,-49.805,-20.508,-58.105,-28.320
1688260681.507,-47.363,-41.504,0.000,-25.391,43.457
1688260681.510,-18.066,-31.738,11.719,-9.277,222.168
1688260681.514,-10.254,-38.086,16.602,2.441,501.953
1688260681.518,-31.738,-53.711,18.555,-28.320,167.969
1688260681.522,-71.777,-50.781,2.441,-57.617,-219.238
1688260681.526,-62.500,-35.645,-5.371,-39.551,-94.727
1688260681.528,-8.789,-33.691,8.789,-34.668,-96.191
1688260681.532,7.812,-42.480,18.066,-37.109,-183.594
1688260681.536,-9.277,-52.734,8.789,-37.598,-185.547
1688260681.540,-55.664,-53.223,-4.395,-38.086,-71.777
1688260681.544,-60.547,-26.367,2.441,-15.137,-5.371
1688260681.548,0.488,-28.320,15.137,6.836,26.367
1688260681.552,20.020,-41.992,7.324,-13.672,40.039
1688260681.555,-13.672,-32.227,-5.371,-30.273,304.688
1688260681.559,-64.453,-29.785,1.465,-52.246,162.598
1688260681.563,-65.918,-37.109,18.066,-31.250,-190.918
1688260681.567,-7.324,-36.133,29.297,7.324,-132.324
1688260681.571,13.184,-31.250,16.113,-15.625,-132.324
1688260681.573,-15.137,-26.855,5.859,-34.668,-251.953
1688260681.577,-49.805,-32.227,0.977,-35.156,-267.578
1688260681.581,-41.992,-37.109,0.488,-28.809,-122.559
1688260681.585,-3.906,-33.691,3.418,-5.859,-8.301
1688260681.589,8.301,-48.828,1.465,-4.883,-17.090
1688260681.593,-6.348,-52.734,0.977,-26.855,-89.844
1688260681.597,-44.922,-45.898,-13.184,-41.016,69.336
1688260681.600,-70.312,-53.711,-26.855,-27.344,243.652
1688260681.604,-19.531,-49.316,-8.301,-6.348,73.730
1688260681.608,23.926,-36.621,6.348,-17.578,-7.324
1688260681.612,-1.953,-42.480,-1.953,-47.363,79.590
1688260681.616,-51.270,-49.805,-9.277,-54.199,65.430
1688260681.633,-68.848,-38.086,-5.371,-38.574,-215.820
1688260681.637,-31.250,-37.598,6.836,-21.484,-183.594
1688260681.641,8.301,-45.410,16.602,-20.508,-51.758
1688260681.645,11.230,-54.199,6.836,-22.461,-149.414
1688260681.649,-25.391,-58.594,-8.789,-40.527,-255.371
1688260681.653,-73.242,-43.945,-26.367,-35.645,-43.945
1688260681.657,-46.875,-62.988,-16.113,-7.812,328.125
1688260681.660,8.301,-67.871,19.043,-0.977,69.336
1688260681.664,8.789,-22.949,20.508,-18.555,-243.164
1688260681.668,-25.391,-18.066,-2.441,-28.809,-219.238
1688260681.672,-66.895,-36.133,-8.789,-25.391,-135.254
1688260681.676,-51.270,-33.691,-16.113,-16.113,-43.457
1688260681.664,-1.953,-36.621,-26.367,-15.625,-43.457
1688260681.668,10.254,-36.621,-17.578,-17.578,-43.457
1688260681.672,-16.602,-42.969,-14.160,-19.531,-70.312
1688260681.676,-63.965,-49.316,-26.367,-38.086,-151.855
1688260681.680,-64.941,-36.621,-23.926,-27.344,-87.891
1688260681.684,-18.066,-45.898,-25.391,-11.719,181.641
1688260681.688,0.488,-35.645,-17.578,-21.484,214.844
1688260681.691,-16.602,-18.555,4.395,-39.062,-75.684
1688260681.695,-56.641,-24.414,-8.789,-58.105,-209.961
1688260681.699,-47.363,-31.250,-22.461,-29.297,24.902
1688260681.703,8.301,-35.156,-4.395,10.254,343.750
1688260681.707,7.812,-44.434,7.812,-16.113,-9.277
1688260681.723,-17.578,-42.969,28.809,-38.574,-274.902
1688260681.727,-56.152,-35.156,41.016,-36.621,-158.691
1688260681.731,-70.801,-39.062,36.133,-36.133,-93.262
1688260681.735,-14.160,-49.316,34.668,-10.254,-107.422
1688260681.739,33.691,-31.738,42.969,0.000,-102.051
1688260681.743,11.719,-33.203,38.086,-14.160,216.309
1688260681.747,-52.734,-56.152,10.254,-41.504,138.184
1688260681.750,-73.242,-49.316,0.977,-41.016,-149.414
1688260681.754,-23.438,-44.922,6.348,-2.930,-23.926
1688260681.758,12.207,-37.109,6.348,9.277,170.898
1688260681.762,-0.977,-25.879,-0.488,-14.648,-105.957
1688260681.766,-44.922,-24.414,-12.695,-18.066,-271.484
1688260681.768,-67.871,-38.574,-6.836,-2.441,-90.332
1688260681.772,-18.066,-34.668,20.508,5.371,27.832
1688260681.776,17.090,-11.719,11.230,1.953,-36.133
1688260681.780,-10.254,-20.508,-20.508,-29.785,-178.711
1688260681.784,-44.922,-39.551,-26.367,-48.340,-80.566
1688260681.788,-73.730,-47.363,-17.090,-31.250,108.887
1688260681.792,-32.227,-49.316,-3.418,-7.324,49.316
1688260681.795,27.832,-43.945,7.812,-4.883,-67.383
1688260681.799,27.344,-31.738,7.324,-28.320,140.137
1688260681.803,-19.043,-37.598,-8.789,-31.250,406.738
1688260681.807,-68.848,-40.039,-3.418,-25.391,37.109
1688260681.811,-46.875,-34.668,13.672,-21.484,-186.523
1688260681.814,9.766,-36.133,1.465,-1.465,-102.051
1688260681.818,5.371,-22.461,-8.301,-13.672,-187.500
1688260681.822,-29.785,-26.855,-1.465,-54.199,-288.574
1688260681.826,-68.359,-44.922,0.488,-58.105,-230.957
1688260681.830,-64.453,-47.852,-19.531,-29.297,-63.477
1688260681.834,-7.812,-34.180,-27.344,-2.441,34.668
1688260681.838,16.113,-20.020,-14.648,-9.766,3.906
1688260681.841,-18.555,-39.062,-35.156,-46.875,-46.875
1688260681.845,-54.199,-39.551,-46.875,-27.344,212.402
1688260681.849,-38.574,-24.902,-25.879,4.883,164.551
1688260681.853,11.230,-31.738,-16.113,11.230,-90.820
1688260681.857,15.137,-43.457,-21.973,6.348,-79.102
1688260681.858,-29.785,-38.574,-34.180,-20.020,35.645
1688260681.862,-70.801,-27.344,-42.969,-44.434,-145.020
1688260681.866,-57.129,-35.156,-30.762,-41.016,-185.547
1688260681.870,-6.836,-44.434,-4.883,-16.602,-29.785
1688260681.874,5.371,-41.016,-9.766,-12.695,-41.016
1688260681.878,-13.672,-27.344,-28.809,-44.922,-28.320
1688260681.882,-57.129,-18.066,-41.504,-47.363,-8.789
1688260681.885,-59.082,-7.812,-26.367,-10.742,134.766
1688260681.889,-8.301,-16.602,-13.672,13.672,406.738
1688260681.893,12.695,-42.969,-18.066,0.488,35.645
1688260681.897,-11.719,-49.316,-23.438,-45.410,-281.738
1688260681.901,-68.848,-31.250,-18.066,-66.406,-123.535
1688260681.903,-81.055,-12.695,-13.672,-45.898,-131.836
1688260681.907,-23.926,-28.320,-12.695,-27.832,-279.785
1688260681.911,20.996,-44.434,3.906,-13.184,-225.098
1688260681.915,15.625,-20.996,-1.953,-2.441,-163.086
1688260681.919,-43.945,-28.320,-15.625,-25.391,-197.754
1688260681.923,-77.148,-42.480,-5.371,-34.668,-156.250
1688260681.927,-34.180,-28.809,7.324,-27.344,0.488
1688260681.930,10.254,-31.738,20.508,-27.344,324.707
1688260681.934,0.000,-33.203,32.715,-24.414,95.703
1688260681.938,-44.434,-40.039,29.785,-37.109,-241.699
1688260681.942,-79.590,-50.781,25.391,-36.621,-188.477
1688260681.946,-39.062,-47.363,6.348,-17.578,-66.406
1688260681.949,18.066,-72.754,-9.277,-17.090,-32.715
1688260681.953,28.320,-61.523,4.883,-27.832,-121.582
1688260681.957,-24.902,-25.391,5.371,-57.617,-58.594
1688260681.961,-94.238,-65.430,-13.184,-77.637,-1.465
1688260681.965,-61.035,-55.664,-6.348,-47.852,-94.727
1688260681.969,8.789,-7.812,13.672,-22.949,-82.031
1688260681.973,23.438,-25.879,12.695,-17.578,113.281
1688260681.976,-24.414,-51.270,0.000,-17.578,258.301
1688260681.980,-87.402,-46.875,-7.812,-34.668,-48.340
1688260681.984,-50.293,-16.113,-6.348,-19.531,-196.777
1688260681.988,25.879,8.301,-2.441,25.391,11.230
1688260681.992,14.160,-16.602,-4.395,8.301,32.227
1688260681.994,-12.695,-29.297,-0.977,-23.438,-171.875
1688260681.998,-45.898,-34.180,0.000,-16.602,-195.801
1688260682.002,-38.086,-43.457,-0.488,-13.184,-66.895
1688260682.006,11.230,-20.020,8.301,-8.301,-60.059
1688260682.010,23.438,-4.395,11.230,-2.441,-171.387
1688260682.014,-2.930,-27.344,-5.859,-15.625,-23.438
1688260682.018,-64.941,-59.082,-27.344,-29.297,355.957
1688260682.021,-65.430,-49.316,-13.184,-26.367,228.027
1688260682.025,17.578,-22.949,14.648,-15.137,-180.176
1688260682.029,29.297,-26.855,5.371,-16.602,-184.082
1688260682.033,-7.324,-43.945,-9.766,-12.695,-150.879
1688260682.037,-48.340,-48.828,-8.301,-14.648,-225.098
1688260682.054,-57.129,-29.297,-11.719,-22.461,-200.195
1688260682.058,-9.766,-15.137,-9.766,-16.602,-64.941
1688260682.062,21.484,-13.184,10.742,-5.371,7.324
1688260682.066,20.996,-25.879,21.973,0.977,-55.664
1688260682.070,-35.645,-47.852,-3.418,-13.672,-123.535
1688260682.074,-74.707,-32.227,-16.113,-27.832,60.547
1688260682.078,-23.438,-12.207,-12.207,-18.066,215.820
1688260682.081,9.766,-27.832,-2.930,-16.602,125.488
1688260682.085,6.348,-53.223,1.953,-37.598,2.441
1688260682.089,-14.648,-63.965,-9.277,-18.555,117.188
1688260682.093,-62.500,-51.758,-28.320,-16.113,309.570
1688260682.097,-41.992,-49.316,-19.531,-40.527,-73.242
1688260682.098,8.789,-60.547,4.395,-32.715,-257.324
1688260682.102,-1.953,-23.438,0.977,-33.691,-107.422
1688260682.106,-73.730,-8.789,-24.414,-63.965,-153.809
1688260682.110,-115.723,-24.414,-28.320,-61.523,-222.168
1688260682.114,-69.824,-35.645,-19.043,-58.105,-143.066
1688260682.118,-5.371,-33.203,-13.672,-42.480,41.016
1688260682.122,15.625,-24.414,-7.324,-18.066,53.223
1688260682.125,-22.949,-42.480,-14.648,-28.320,-50.781
1688260682.129,-73.730,-45.898,-22.461,-27.832,-61.035
1688260682.133,-40.039,-27.344,-20.996,-20.508,233.887
1688260682.137,12.207,-30.273,-8.301,-29.297,129.883
1688260682.141,15.137,-27.344,-6.348,-47.852,-186.523
1688260682.143,-25.879,-17.578,-18.555,-73.730,-93.262
1688260682.147,-90.332,-24.902,-26.855,-56.641,-62.012
1688260682.151,-90.820,-33.203,-36.621,-52.246,-148.926
1688260682.155,-37.598,-31.250,-37.598,-63.965,-178.711
1688260682.159,-18.555,-27.832,-36.621,-44.922,-125.488
1688260682.163,-42.480,-40.527,-33.203,-53.711,23.438
1688260682.167,-97.168,-37.109,-39.551,-83.984,48.340
1688260682.170,-100.586,-11.719,-52.734,-74.219,-76.660
1688260682.174,-36.621,-4.395,-49.316,-54.688,118.164
1688260682.178,-7.324,-10.254,-45.898,-40.039,445.801
1688260682.182,-36.133,-11.719,-48.828,-42.969,201.172
1688260682.186,-75.195,0.488,-38.574,-42.480,-113.770
1688260682.188,-64.941,0.977,-30.762,-40.527,-21.484
1688260682.192,-11.719,-41.016,-32.715,-61.523,-85.449
1688260682.196,10.742,-87.891,-28.809,-50.293,-186.523
1688260682.200,-27.832,-53.223,-28.809,-40.039,-130.859
1688260682.204,-81.543,0.977,-31.738,-50.781,-52.246
1688260682.208,-87.402,-21.484,-39.062,-73.242,-5.859
1688260682.212,-34.668,-53.223,-34.668,-84.473,-57.617
1688260682.215,-3.906,-32.715,-11.230,-53.711,-73.242
1688260682.219,-10.254,-4.395,-5.371,-34.180,168.945
1688260682.223,-52.734,-15.625,1.953,-47.852,37.109
1688260682.227,-83.496,-27.832,12.695,-51.270,-206.543
1688260682.231,-40.527,-34.180,8.789,-48.340,-171.875
1688260682.233,4.883,-25.879,3.906,-42.969,-91.797
1688260682.237,-7.324,-16.113,5.371,-33.691,-104.492
1688260682.241,-59.570,-29.297,-0.488,-45.898,-209.961
1688260682.245,-87.402,-38.574,-2.930,-50.293,-166.016
1688260682.249,-38.574,-36.621,11.230,-35.156,-49.316
1688260682.253,2.441,-41.992,4.395,-25.391,-10.254
1688260682.257,-2.441,-44.922,-4.395,-38.086,-35.645
1688260682.260,-40.039,-49.805,-5.371,-63.965,95.215
1688260682.264,-95.215,-62.012,-22.461,-71.289,449.219
1688260682.268,-73.242,-70.801,-9.766,-59.570,46.875
1688260682.272,-3.418,-50.293,10.742,-40.527,-207.031
1688260682.276,6.348,-41.504,5.371,-24.902,4.883
1688260682.278,-42.969,-52.246,-6.836,-14.160,-57.129
1688260682.282,-88.379,-57.617,-15.625,-39.551,-182.617
1688260682.286,-54.688,-70.312,-24.414,-63.965,-116.211
1688260682.290,-4.395,-68.359,-20.996,-54.688,27.344
1688260682.294,5.371,-53.223,-9.766,-36.133,5.859
1688260682.298,-18.066,-57.617,-16.602,-31.738,90.332
1688260682.302,-61.523,-75.684,-21.484,-33.203,160.645
1688260682.305,-67.383,-84.473,-27.832,-41.016,304.199
1688260682.309,-21.484,-80.078,-32.715,-58.105,192.383
1688260682.313,-3.418,-79.102,-36.133,-41.016,-131.836
1688260682.317,-38.574,-57.617,-27.832,-33.203,-137.695
1688260682.321,-92.285,-51.270,-38.086,-56.152,-54.199
1688260682.323,-85.938,-64.453,-45.898,-61.523,-118.164
1688260682.327,-20.508,-60.059,-19.043,-40.527,-159.668
1688260682.331,0.000,-60.059,-17.090,-22.949,-60.059
1688260682.335,-24.902,-47.852,-31.250,-18.066,13.672
1688260682.339,-68.848,-26.367,-34.180,-26.855,-21.484
1688260682.343,-84.961,-51.270,-42.969,-50.293,-27.832
1688260682.347,-36.621,-62.012,-44.922,-49.316,203.613
1688260682.350,-0.977,-55.176,-37.598,-28.320,288.574
1688260682.354,-0.488,-43.457,-20.996,-18.066,23.438
1688260682.358,-38.086,-49.805,-20.020,-26.855,-60.059
1688260682.362,-72.266,-84.473,-36.133,-37.109,93.750
1688260682.366,-34.668,-70.312,-31.250,-27.344,225.098
1688260682.368,-14.648,-58.105,-19.043,-32.715,-117.676
1688260682.372,-35.645,-60.059,-28.809,-63.477,-229.004
1688260682.376,-57.129,-41.992,-36.133,-69.336,-39.062
1688260682.380,-78.613,-52.734,-33.691,-54.199,-120.605
1688260682.384,-35.645,-54.688,-24.902,-51.270,-207.031
1688260682.388,5.859,-52.246,-10.254,-26.855,-41.504
1688260682.392,-1.465,-53.711,-0.488,-17.578,250.000
1688260682.395,-40.527,-59.570,-15.625,-14.160,70.801
1688260682.399,-69.824,-62.012,-31.738,-22.949,-149.414
1688260682.403,-31.738,-53.223,-32.715,-30.273,-116.211
1688260682.407,14.648,-66.406,-28.320,-13.184,73.242
1688260682.411,3.906,-76.172,-26.855,-11.719,-59.082
1688260682.415,-35.645,-58.105,-30.273,-21.484,-220.215
1688260682.419,-62.012,-48.340,-23.438,-23.438,-121.582
1688260682.423,-37.598,-48.828,-22.461,-34.180,-29.785
1688260682.427,5.371,-48.340,-12.695,-29.297,-49.316
1688260682.431,5.859,-45.410,-11.230,-14.648,-111.816
1688260682.435,-23.926,-36.621,-34.668,-9.277,2.441
1688260682.439,-53.711,-39.062,-37.109,-16.602,36.133
1688260682.442,-32.715,-31.250,-24.414,-15.137,-20.020
1688260682.446,0.000,-31.738,-20.996,-12.695,-87.891
1688260682.450,-7.324,-51.270,-13.184,-21.484,56.152
1688260682.454,-38.574,-57.617,-5.859,-18.555,506.836
1688260682.458,-70.801,-42.480,-5.371,-23.926,153.809
1688260682.473,-51.270,-46.875,-5.371,-20.020,-229.492
1688260682.477,-7.324,-57.129,0.488,-7.812,-64.941
1688260682.481,-1.465,-55.664,2.930,-14.160,-129.395
1688260682.485,-26.855,-56.152,1.953,-20.508,-240.234
1688260682.489,-63.965,-47.363,-11.719,-35.156,-79.102
1688260682.493,-44.922,-40.527,-26.855,-39.062,409.180
1688260682.497,1.465,-42.480,-12.207,-6.836,371.582
1688260682.500,4.395,-38.574,5.859,-12.207,-102.539
1688260682.504,-17.578,-45.410,-0.977,-30.762,-141.113
1688260682.508,-61.035,-50.781,-7.324,-22.949,-18.066
1688260682.512,-57.129,-42.969,3.906,-16.602,-146.973
1688260682.516,1.953,-19.531,9.766,-7.812,-244.629
1688260682.518,20.020,-23.926,6.836,-0.977,-106.445
1688260682.522,-4.883,-43.945,13.184,-11.230,-34.180
1688260682.526,-41.016,-35.156,29.785,-20.996,-170.898
1688260682.530,-56.152,-39.062,30.273,-44.922,-212.402
1688260682.534,-21.484,-58.594,18.555,-33.691,-89.355
1688260682.538,-2.441,-66.895,23.438,-8.301,-64.941
1688260682.542,-19.043,-68.848,37.598,-8.301,-85.938
1688260682.545,-60.059,-63.965,27.344,-23.926,-57.617
1688260682.549,-65.918,-48.828,6.348,-30.273,174.805
1688260682.553,-18.066,-40.039,24.414,-10.742,437.988
1688260682.557,-4.883,-58.105,43.945,-29.785,71.777
1688260682.561,-15.625,-74.219,45.410,-43.945,-178.223
1688260682.563,-42.480,-81.055,33.691,-24.902,7.324
1688260682.567,-78.125,-82.031,0.488,-37.109,-41.504
1688260682.571,-40.527,-55.176,15.625,-42.969,-155.762
1688260682.575,4.395,-50.293,41.992,-24.902,-12.207
1688260682.579,-6.348,-58.105,26.367,-23.926,88.867
1688260682.583,-38.574,-47.852,11.719,-46.875,-60.547
1688260682.587,-72.266,-46.875,13.184,-59.082,-84.473
1688260682.590,-41.016,-51.758,19.531,-43.457,-0.488
1688260682.594,8.789,-54.199,31.738,-22.461,90.820
1688260682.598,-4.395,-48.340,36.621,-29.297,-67.871
1688260682.602,-49.805,-34.668,25.391,-34.668,-239.746
1688260682.606,-81.543,-32.227,-13.184,-16.602,-101.074
1688260682.608,-53.711,-38.574,-47.363,-24.414,209.961
1688260682.612,-5.859,-32.227,-36.133,-56.641,-11.719
1688260682.616,8.301,-35.645,-30.273,-28.320,-229.492
1688260682.620,-26.855,-45.898,-43.945,-19.043,-137.207
1688260682.624,-61.523,-38.574,-49.805,-23.438,-118.164
1688260682.628,-29.297,-43.457,-46.875,-16.113,-55.664
1688260682.632,17.578,-45.898,-37.109,-12.207,-41.504
1688260682.635,20.996,-40.527,-39.551,-8.789,53.223
1688260682.639,-11.230,-41.992,-49.316,-4.883,505.371
1688260682.643,-55.664,-38.574,-55.176,-13.184,348.145
1688260682.647,-41.016,-34.668,-62.988,-10.254,-85.449
1688260682.651,10.742,-44.922,-54.688,-3.906,-66.895
1688260682.654,8.301,-46.875,-50.781,-23.438,-137.695
1688260682.658,-12.207,-38.574,-56.641,-35.156,-210.449
1688260682.662,-41.504,-39.551,-62.500,-34.180,-121.094
1688260682.666,-32.715,-41.504,-48.828,-8.789,-39.062
1688260682.670,13.672,-34.180,-37.109,-3.906,-117.188
1688260682.674,19.043,-34.668,-41.504,-11.230,-154.297
1688260682.678,3.418,-37.598,-27.832,-6.348,-53.223
1688260682.681,-41.504,-43.457,-41.992,-24.414,238.770
1688260682.685,-58.594,-41.992,-50.781,-27.344,195.312
1688260682.689,-8.301,-41.504,-28.809,-25.879,-112.793
1688260682.693,1.465,-53.711,-37.598,-36.621,-120.605
1688260682.697,-21.973,-56.152,-20.508,-29.785,-37.598
1688260682.698,-53.223,-56.152,21.973,-27.344,-139.648
1688260682.702,-59.082,-57.617,33.203,-27.344,-152.832
1688260682.706,-13.184,-60.547,42.480,-29.297,-47.852
1688260682.710,3.906,-53.711,40.039,-37.109,-97.656
1688260682.714,-14.160,-56.641,15.137,-45.410,-219.727
1688260682.718,-50.781,-63.477,-12.695,-29.785,-103.516
1688260682.722,-65.430,-52.246,-21.973,-18.555,239.746
1688260682.725,-23.438,-48.340,-15.137,-22.949,402.832
1688260682.729,4.395,-40.039,-3.418,-29.785,26.855
1688260682.733,-5.859,-49.316,-9.766,-36.621,-266.602
1688260682.737,-32.715,-74.707,-22.461,-29.785,-41.016
1688260682.741,-52.246,-68.848,-11.719,-35.156,80.566
1688260682.743,-17.578,-30.273,18.066,-30.273,-134.766
1688260682.747,1.465,-22.949,16.602,-27.832,-173.340
1688260682.751,-13.672,-41.992,3.418,-37.598,-98.145
1688260682.755,-41.992,-46.387,9.766,-32.715,-83.008
1688260682.759,-69.336,-63.477,6.836,-27.344,-88.379
1688260682.763,-35.156,-67.871,-1.465,-21.973,31.738
1688260682.767,-11.719,-58.594,-0.488,-26.855,397.949
1688260682.770,-21.973,-55.664,-5.371,-47.852,145.996
1688260682.774,-32.715,-56.641,-27.344,-41.016,-251.465
1688260682.778,-59.082,-54.688,-30.762,-35.156,-87.402
1688260682.782,-33.691,-51.270,2.441,-21.484,83.008
1688260682.786,-7.324,-58.105,11.719,-25.879,-128.418
1688260682.789,-29.297,-66.406,-8.789,-50.293,-285.645
1688260682.793,-43.945,-64.453,-11.719,-37.598,-89.844
1688260682.797,-69.336,-65.918,-9.277,-21.973,52.734
1688260682.801,-44.922,-59.570,-2.930,4.883,-57.129
1688260682.805,-8.301,-55.176,0.488,-5.371,-102.051
1688260682.809,-9.766,-76.172,-23.926,-36.133,8.301
1688260682.813,-15.625,-93.750,-42.480,-33.691,44.922
1688260682.816,-55.664,-63.477,-43.945,-38.086,88.379
1688260682.820,-52.734,-39.062,-17.090,-44.434,82.520
1688260682.824,-6.348,-38.574,2.441,-36.133,105.469
1688260682.828,2.441,-31.250,-11.230,-30.762,268.555
1688260682.832,-17.090,-44.922,-5.371,-34.668,-90.332
1688260682.848,-47.852,-45.898,-15.137,-22.949,-219.727
1688260682.852,-39.062,-36.621,-26.367,-11.719,-67.871
1688260682.856,-0.488,-41.016,-20.508,-2.930,-121.582
1688260682.860,-2.930,-42.480,-20.508,-25.391,-188.965
1688260682.864,-26.855,-55.176,-18.555,-32.715,-116.699
1688260682.868,-53.711,-69.336,-18.555,-15.137,291.016
1688260682.872,-53.711,-64.941,-20.508,-12.207,249.512
1688260682.875,-14.648,-60.059,-19.043,-17.578,-105.957
1688260682.879,4.395,-63.965,-12.207,-19.043,-197.754
1688260682.883,-2.441,-62.988,-18.066,-17.090,-27.344
1688260682.887,-27.344,-59.082,-25.391,-6.348,-108.887
1688260682.891,-41.504,-50.781,-15.137,0.488,-183.105
1688260682.894,3.906,-42.969,4.395,-23.926,-76.172
1688260682.898,23.438,-38.574,5.859,-37.598,-113.281
1688260682.902,-21.484,-46.387,8.301,-69.824,-278.320
1688260682.906,-32.715,-51.270,7.324,-44.922,-142.578
1688260682.910,38.086,-47.852,11.719,125.977,555.664
1688260682.914,-27.832,-38.574,9.766,10.254,537.109
1688260682.918,-195.312,-25.391,-3.906,-280.273,-449.707
1688260682.921,-203.613,-24.902,9.277,-303.223,-877.441
1688260682.925,-69.336,-26.367,35.645,-62.988,-37.598
1688260682.929,20.508,-19.531,57.129,153.809,952.637
1688260682.933,-59.570,-21.484,52.246,30.273,692.871
1688260682.937,-205.566,-23.926,31.738,-247.559,-416.504
1688260682.938,-229.004,-65.430,16.602,-304.199,-938.965
1688260682.942,-91.309,-84.473,37.598,-93.750,-482.910
1688260682.946,30.273,-36.621,60.059,133.789,361.816
1688260682.950,-20.996,-33.203,41.016,65.430,561.035
1688260682.954,-169.922,-63.965,12.695,-233.887,-209.473
1688260682.958,-214.844,-46.387,21.484,-336.914,-810.059
1688260682.962,-81.055,0.000,59.082,-99.609,-416.016
1688260682.965,46.387,-16.602,68.848,169.922,437.012
1688260682.969,13.184,-93.750,27.344,102.539,926.270
1688260682.973,-121.094,-86.914,8.789,-188.477,86.426
1688260682.977,-169.922,-45.410,23.438,-295.410,-952.637
1688260682.981,-68.359,-29.297,3.906,-114.258,-638.184
1688260682.983,57.129,-44.922,18.555,166.992,375.000
1688260682.987,54.688,-61.035,49.316,174.316,683.105
1688260682.991,-87.891,-64.453,14.648,-96.191,-88.867
1688260682.995,-148.438,-88.379,-10.254,-232.910,-857.910
1688260682.999,-43.457,-96.191,-8.301,-97.168,-701.172
1688260683.003,81.055,-94.727,12.207,161.133,276.367
1688260683.007,98.145,-98.145,26.367,209.961,731.445
1688260683.010,-30.273,-86.426,-7.324,-50.293,281.738
1688260683.014,-128.906,-93.262,-29.297,-246.582,-200.195
1688260683.018,-69.336,-84.961,-16.113,-154.297,-593.262
1688260683.022,82.520,-73.242,0.000,135.254,-37.598
1688260683.026,138.672,-105.469,0.488,247.070,829.590
1688260683.029,-7.324,-122.070,-18.555,-15.137,234.375
1688260683.033,-156.738,-92.773,-48.340,-264.160,-787.598
1688260683.037,-111.816,-66.895,-44.434,-198.730,-834.473
1688260683.041,48.340,-57.129,-5.859,84.473,35.156
1688260683.045,107.910,-71.289,-1.465,227.539,742.188
1688260683.049,-16.113,-94.727,-35.156,4.883,350.098
1688260683.053,-154.785,-89.844,-46.387,-243.652,-518.555
1688260683.056,-114.258,-88.867,-31.738,-185.547,-533.203
1688260683.060,37.109,-84.473,5.859,76.172,41.016
1688260683.064,125.977,-73.242,35.156,251.465,603.027
1688260683.068,25.391,-75.684,23.926,64.941,437.988
1688260683.072,-129.395,-82.031,-7.324,-227.051,-483.398
1688260683.074,-121.582,-87.402,-14.160,-230.469,-928.223
1688260683.078,19.043,-69.336,20.996,33.203,-339.355
1688260683.082,112.793,-63.477,46.875,248.047,642.090
1688260683.086,24.414,-76.172,23.438,84.473,600.586
1688260683.090,-130.859,-83.008,-4.395,-212.402,-415.527
1688260683.094,-110.352,-86.914,8.301,-195.801,-831.055
1688260683.098,30.273,-90.332,23.926,37.598,-119.629
1688260683.101,112.305,-71.289,35.156,228.027,876.465
1688260683.105,50.293,-42.480,28.809,125.977,733.887
1688260683.109,-121.094,-50.781,-16.113,-196.777,-391.113
1688260683.113,-162.598,-54.199,-35.645,-285.156,-779.297
1688260683.117,-36.621,-56.641,-16.113,-62.012,-136.230
1688260683.118,89.355,-57.617,5.859,183.105,461.914
1688260683.122,59.082,-66.895,-6.836,138.672,570.312
1688260683.126,-101.562,-85.938,-27.344,-145.508,-198.730
1688260683.130,-154.785,-70.801,-36.133,-274.414,-948.242
1688260683.134,-39.551,-40.039,-20.996,-86.426,-572.266
1688260683.138,83.984,-47.363,7.812,190.430,454.590
1688260683.142,75.684,-60.547,-13.184,182.129,-996.094
1688260683.145,-85.449,-55.176,-55.176,-128.906,242.676
1688260683.149,-167.480,-62.988,-51.758,-283.691,-898.438
1688260683.153,-60.059,-86.426,-40.527,-116.699,-771.973
1688260683.157,69.824,-58.105,-20.508,157.227,228.516
1688260683.161,82.520,-40.527,-1.465,196.289,687.012
1688260683.173,-65.430,-68.359,-17.578,-80.078,-9.766
1688260683.177,-162.109,-64.941,-33.203,-271.484,-811.035
1688260683.181,-87.891,-65.918,-38.086,-157.715,-715.332
1688260683.185,46.875,-58.594,-13.184,121.094,180.664
1688260683.189,77.148,-83.008,-16.113,197.754,772.949
1688260683.193,-60.547,-89.355,-54.688,-74.707,296.387
1688260683.197,-169.922,-37.109,-62.988,-263.672,-460.449
1688260683.200,-111.328,-21.973,-36.621,-187.500,-645.020
1688260683.204,35.645,-30.273,-2.441,84.473,5.859
1688260683.208,85.938,-31.738,-10.254,221.191,869.629
1688260683.212,-33.691,-40.039,-34.668,-21.484,727.051
1688260683.216,-166.992,-59.570,-43.457,-270.020,-534.668
1688260683.223,-130.859,-56.641,-37.109,-205.566,-979.492
1688260683.227,21.484,-63.965,-21.484,83.984,-136.230
1688260683.231,92.285,-66.895,-25.391,244.629,630.371
1688260683.235,-11.719,-42.480,-45.898,43.457,287.598
1688260683.239,-144.043,-57.129,-63.477,-224.609,-599.609
1688260683.243,-132.324,-88.867,-70.801,-220.215,-707.520
1688260683.247,3.418,-44.434,-41.504,35.645,-114.258
1688260683.250,94.727,4.395,-33.203,231.934,566.406
1688260683.254,-20.020,-38.086,-69.824,43.457,469.238
1688260683.258,-175.293,-59.082,-79.590,-239.746,-75.195
1688260683.262,-166.016,-48.340,-73.242,-265.137,-674.805
1688260683.266,-10.254,-44.922,-50.781,-18.066,-444.336
1688260683.258,96.680,-49.805,-36.621,206.543,531.738
1688260683.262,37.109,-54.688,-33.691,111.328,582.031
1688260683.266,-120.117,-42.969,-56.641,-184.082,-405.762
1688260683.270,-156.250,-42.969,-79.102,-276.367,-995.117
1688260683.274,-21.484,-60.547,-54.199,-48.828,-468.750
1688260683.278,95.703,-54.199,-24.902,201.172,583.008
1688260683.282,42.480,-77.637,-16.602,128.906,720.215
1688260683.285,-118.652,-117.676,-52.246,-173.340,-220.215
1688260683.289,-164.062,-82.520,-74.219,-278.809,-652.344
1688260683.293,-41.016,-20.020,-46.875,-82.520,-304.688
1688260683.297,85.449,-13.184,-26.367,183.594,360.352
1688260683.301,55.176,-32.715,-26.855,166.992,709.961
1688260683.314,-105.469,-30.273,-45.898,-131.836,75.684
1688260683.318,-179.688,-19.043,-49.805,-285.645,-837.891
1688260683.322,-66.406,-20.020,-20.996,-111.328,-701.660
1688260683.326,88.379,-36.621,-2.441,149.414,245.117
1688260683.330,74.219,-41.992,-20.996,154.297,944.336
1688260683.334,-84.961,-34.180,-41.992,-111.328,597.168
1688260683.338,-163.086,-34.180,-42.480,-277.344,-586.426
1688260683.341,-77.148,-41.504,-37.598,-133.301,-761.719
1688260683.345,72.754,-51.758,-23.926,146.973,414.551
1688260683.349,104.004,-48.340,-8.789,209.961,823.730
1688260683.353,-39.551,-41.504,-26.855,-48.340,36.133
1688260683.357,-161.621,-36.621,-50.781,-275.879,-791.504
1688260683.359,-107.422,-39.551,-39.551,-171.875,-855.469
1688260683.363,36.133,-48.828,-16.113,116.211,55.176
1688260683.367,74.707,-50.293,-10.254,200.684,806.641
1688260683.371,-54.199,-44.922,-34.180,-54.688,313.965
1688260683.375,-174.316,-41.992,-40.039,-285.645,-637.695
1688260683.379,-119.141,-35.645,-23.926,-207.031,-761.230
1688260683.383,28.809,-43.945,-8.301,71.289,-10.254
1688260683.386,86.914,-65.918,-8.301,204.102,823.242
1688260683.390,-13.672,-41.992,-35.156,4.883,823.730
1688260683.394,-157.715,-28.809,-44.922,-257.812,-429.199
1688260683.398,-130.859,-57.129,-34.668,-209.961,-1000.000
1688260683.402,28.809,-45.898,-16.602,63.965,-201.660
1688260683.404,110.352,-22.949,0.488,224.609,687.988
1688260683.408,1.465,-27.344,-16.602,47.852,375.488
1688260683.412,-163.086,-32.227,-44.434,-233.887,-571.289
1688260683.416,-143.555,-26.367,-43.457,-223.145,-764.648
1688260683.420,8.789,-26.367,-18.555,30.273,-160.645
1688260683.424,114.258,-36.621,1.465,227.539,691.406
1688260683.428,33.203,-39.551,-13.184,79.102,672.363
1688260683.431,-121.094,-34.180,-44.922,-194.824,32.227
1688260683.435,-124.023,-23.438,-57.617,-221.191,-574.219
1688260683.439,-11.230,-32.227,-40.039,-17.578,-511.719
1688260683.443,92.285,-33.203,-13.672,219.727,411.621
1688260683.447,34.668,-41.992,-22.949,128.906,564.941
1688260683.448,-135.742,-45.410,-41.992,-192.871,-368.164
1688260683.452,-171.387,-35.156,-46.875,-286.621,-990.723
1688260683.456,-39.062,-37.598,-35.156,-81.543,-552.246
1688260683.460,97.168,-41.992,3.906,185.059,433.594
1688260683.464,69.336,-29.785,11.719,156.250,703.613
1688260683.468,-110.352,-36.621,-35.156,-150.879,-111.328
1688260683.472,-178.223,-44.434,-52.246,-274.414,-611.328
1688260683.475,-57.617,-33.691,-32.715,-76.660,-101.562
1688260683.479,75.684,-29.297,-3.418,189.453,524.414
1688260683.483,77.148,-27.832,-5.371,182.129,675.293
1688260683.487,-59.082,-26.367,-41.992,-97.168,81.055
1688260683.491,-149.902,-34.668,-45.898,-259.766,-683.105
1688260683.494,-65.918,-38.574,-16.602,-122.559,-706.055
1688260683.498,88.867,-22.461,10.742,158.203,184.570
1688260683.502,97.656,-28.320,-2.930,212.891,770.996
1688260683.506,-60.547,-45.898,-24.902,-67.383,123.535
1688260683.510,-156.250,-51.270,-16.602,-273.438,-833.984
1688260683.514,-88.379,-58.105,-20.996,-173.340,-688.477
1688260683.518,62.988,-40.527,-11.719,107.422,547.363
1688260683.521,123.535,-27.832,10.254,218.750,997.070
1688260683.525,-27.344,-34.180,-18.066,-32.227,158.203
1688260683.529,-166.992,-29.785,-52.734,-257.812,-768.066
1688260683.533,-106.934,-21.973,-35.645,-188.965,-832.520
1688260683.537,30.762,-30.762,-3.906,82.520,-34.180
1688260683.538,94.727,-33.203,0.000,239.258,667.969
1688260683.542,-7.812,-44.922,-20.020,22.949,301.758
1688260683.546,-142.578,-51.758,-43.945,-245.117,-604.004
1688260683.550,-112.305,-46.875,-41.504,-198.730,-928.711
1688260683.554,41.016,-41.504,-17.578,83.984,-190.430
1688260683.558,109.375,-33.203,-27.832,237.793,823.242
1688260683.562,-4.883,-32.227,-39.551,47.363,639.160
1688260683.565,-150.879,-34.668,-38.574,-234.863,-487.305
1688260683.569,-135.254,-37.109,-35.645,-237.305,-919.922
1688260683.573,12.207,-55.176,-22.461,37.109,-97.168
1688260683.577,101.562,-61.035,-7.812,242.188,897.949
1688260683.581,2.930,-45.898,-16.113,69.336,572.266
1688260683.599,-145.020,-39.551,-59.082,-211.914,-462.402
1688260683.603,-133.301,-38.574,-67.383,-232.422,-798.828
1688260683.607,-0.977,-47.363,-34.180,-11.719,-308.594
1688260683.611,96.191,-69.824,-13.184,204.102,489.746
1688260683.615,44.922,-60.547,-23.438,102.539,595.215
1688260683.619,-109.863,-32.715,-45.898,-187.988,-172.852
1688260683.623,-136.230,-38.574,-38.574,-238.281,-806.641
1688260683.626,-13.672,-60.059,-10.254,-29.297,-472.168
1688260683.630,101.074,-37.598,3.906,181.641,478.516
1688260683.634,56.641,-25.879,-2.441,125.977,769.531
1688260683.638,-110.352,-42.969,-21.484,-155.762,-186.523
1688260683.642,-153.809,-39.551,-28.320,-268.066,-975.586
1688260683.644,-33.203,-36.133,-19.531,-72.266,-568.848
1688260683.648,100.586,-37.598,-4.395,196.777,633.789
1688260683.652,74.707,-53.223,-12.695,160.156,835.449
1688260683.656,-79.102,-47.363,-31.250,-136.230,-135.254
1688260683.660,-146.973,-33.691,-25.879,-268.555,-798.828
1688260683.664,-49.316,-30.273,-12.207,-107.910,-490.723
1688260683.668,89.844,-37.598,9.766,175.293,413.086
1688260683.671,85.449,-31.738,11.230,211.426,746.094
1688260683.675,-81.543,-25.391,-34.180,-73.730,186.035
1688260683.679,-179.688,-32.227,-48.828,-266.602,-296.387
1688260683.683,-104.492,-38.574,-15.137,-160.645,-584.473
1688260683.687,47.363,-35.156,11.719,124.023,50.293
1688260683.688,103.516,-32.227,24.414,216.309,800.293
1688260683.692,-41.016,-34.668,5.371,-54.688,137.207
1688260683.696,-169.922,-33.203,-21.484,-275.391,-839.844
1688260683.700,-108.398,-39.551,-27.344,-177.246,-850.098
1688260683.704,44.922,-47.363,-26.367,82.520,103.027
1688260683.708,96.191,-36.621,-17.090,198.242,818.848
1688260683.712,-39.062,-27.344,-27.344,-28.809,323.730
1688260683.715,-161.621,-27.344,-51.270,-280.762,-574.219
1688260683.719,-118.652,-37.109,-46.875,-212.402,-524.902
1688260683.723,22.949,-49.316,-15.625,64.941,208.496
1688260683.727,106.934,-37.598,0.977,225.098,662.598
1688260683.731,0.488,-25.879,-10.254,21.973,383.301
1688260683.735,-150.391,-27.832,-28.809,-249.512,-484.863
1688260683.739,-111.328,-23.926,-35.645,-218.750,-892.578
1688260683.743,34.180,-28.809,-11.719,45.410,-278.320
1688260683.747,96.191,-41.992,6.836,229.004,641.113
1688260683.751,8.301,-36.621,-21.484,69.336,544.434
1688260683.755,-148.926,-40.527,-52.734,-228.027,-350.098
1688260683.759,-147.461,-49.316,-35.156,-245.117,-758.789
1688260683.762,6.348,-41.992,2.441,17.578,-106.934
1688260683.766,99.609,-37.109,10.742,233.887,918.457
1688260683.770,24.414,-45.898,-11.719,106.934,742.188
1688260683.774,-136.230,-35.156,-38.574,-200.684,-460.938
1688260683.778,-156.250,-24.414,-48.828,-268.555,-989.258
1688260683.778,-11.230,-26.855,-18.555,-36.133,-465.332
1688260683.782,100.586,-28.809,1.953,215.332,425.781
1688260683.786,36.133,-48.828,-18.555,132.812,634.766
1688260683.790,-128.418,-48.340,-33.691,-180.664,-197.266
1688260683.794,-167.480,-33.203,-27.344,-267.578,-893.555
1688260683.798,-41.016,-32.715,-13.184,-41.504,-510.254
1688260683.802,80.078,-37.598,-1.953,206.543,470.703
1688260683.805,66.406,-37.598,-23.926,191.406,960.938
1688260683.809,-78.613,-47.363,-61.523,-102.051,68.848
1688260683.813,-162.598,-40.527,-74.707,-259.277,-930.176
1688260683.817,-68.359,-18.555,-51.758,-85.449,-607.422
1688260683.821,71.777,-13.672,-23.438,188.477,356.445
1688260683.823,70.801,-15.625,-28.809,191.406,711.914
1688260683.827,-76.660,-20.020,-51.758,-105.957,-58.105
1688260683.831,-160.156,-33.691,-69.336,-283.203,-807.129
1688260683.835,-77.148,-34.668,-46.387,-135.742,-602.051
1688260683.839,59.570,-26.367,-4.395,153.320,239.258
1688260683.843,73.730,-36.133,-22.461,200.195,736.328
1688260683.847,-67.871,-41.504,-64.941,-71.777,312.012
1688260683.850,-167.969,-39.062,-76.172,-255.859,-414.551
1688260683.854,-94.238,-42.480,-44.434,-145.996,-685.547
1688260683.858,59.082,-26.367,-6.348,113.281,-1.465
1688260683.862,115.723,-3.418,0.488,224.609,826.660
1688260683.866,-13.184,-12.207,-14.648,-20.996,378.906
1688260683.869,-153.809,-30.762,-27.832,-271.973,-632.812
1688260683.873,-116.699,-46.387,-27.344,-199.219,-815.430
1688260683.877,29.297,-53.711,-10.742,77.637,34.180
1688260683.881,102.051,-26.367,5.371,222.168,739.746
1688260683.885,-10.742,-15.137,-26.367,15.137,238.281
1688260683.889,-148.438,-15.625,-60.059,-246.094,-575.684
1688260683.893,-114.746,-15.625,-48.340,-209.961,-467.773
1688260683.896,29.785,-23.926,-16.113,61.035,-9.766
1688260683.900,101.562,-40.039,3.418,236.816,558.594
1688260683.904,0.977,-44.434,-13.184,60.059,472.656
1688260683.908,-142.578,-50.293,-50.781,-223.633,-455.078
1688260683.912,-126.465,-49.316,-51.758,-229.004,-908.691
1688260683.923,23.926,-23.926,-20.996,27.832,-323.242
1688260683.927,115.234,-23.438,-10.254,213.867,592.285
1688260683.931,24.414,-40.039,-31.738,73.242,584.473
1688260683.935,-131.348,-34.668,-63.477,-216.309,-384.766
1688260683.939,-148.438,-36.621,-50.781,-252.930,-984.863
1688260683.943,-20.020,-51.758,-24.414,-13.672,-212.891
1688260683.947,105.957,-50.293,-3.418,208.496,893.066
1688260683.950,50.293,-44.922,-6.348,116.211,719.238
1688260683.954,-122.070,-51.270,-50.781,-175.293,-297.852
1688260683.958,-146.484,-28.809,-63.965,-267.578,-746.094
1688260683.962,-17.578,-10.254,-36.133,-50.293,-269.531
1688260683.966,100.098,-28.320,1.465,219.238,424.316
1688260683.988,67.871,-35.645,-3.906,183.105,589.355
1688260683.992,-94.238,-32.715,-44.922,-124.512,-156.250
1688260683.996,-157.227,-43.945,-50.293,-273.438,-882.324
1688260684.000,-26.367,-39.062,-36.133,-82.031,-677.734
1688260684.004,101.074,-16.602,-28.809,185.547,338.867
1688260684.008,54.688,-18.555,-39.062,155.273,895.508
1688260684.012,-100.586,-31.250,-53.711,-129.883,121.582
1688260684.015,-177.734,-31.250,-39.062,-281.250,-821.289
1688260684.019,-76.660,-38.086,-12.695,-123.535,-708.984
1688260684.023,67.383,-50.781,7.812,152.344,469.727
1688260684.027,87.402,-39.062,31.250,190.430,893.555
1688260684.031,-44.434,-23.438,30.273,-76.660,-35.645
1688260684.018,-156.250,-30.762,8.789,-282.715,-851.074
1688260684.022,-91.309,-43.945,2.441,-167.969,-798.828
1688260684.026,53.223,-38.086,24.414,134.277,54.688
1688260684.030,84.473,-35.645,34.668,235.840,718.262
1688260684.034,-56.641,-62.988,7.812,-41.992,245.117
1688260684.038,-178.711,-44.434,-20.996,-286.133,-613.281
1688260684.042,-116.211,-9.766,-26.367,-202.148,-734.375
1688260684.045,40.527,-40.039,-32.715,82.520,55.176
1688260684.049,98.145,-60.059,-33.691,220.703,849.121
1688260684.053,-23.926,-18.066,-36.621,7.324,417.480
1688260684.057,-160.156,-19.531,-47.852,-258.789,-700.195
1688260684.061,-123.535,-53.223,-40.527,-209.961,-980.957
1688260684.064,25.391,-36.133,-27.344,73.242,20.996
1688260684.068,91.309,-16.113,-17.090,230.957,982.422
1688260684.072,-20.996,-42.480,-27.344,19.043,511.719
1688260684.076,-155.273,-67.871,-51.270,-270.508,-572.266
1688260684.080,-125.488,-39.062,-44.922,-237.793,-888.672
1688260684.084,6.836,-15.137,-27.344,27.832,-247.559
1688260684.088,94.238,-36.621,-16.602,203.613,692.383
1688260684.091,14.648,-37.598,-24.414,59.570,595.215
1688260684.095,-138.184,-23.926,-42.969,-218.262,-175.781
1688260684.099,-147.949,-17.090,-23.926,-244.141,-745.117
1688260684.103,-7.812,-15.137,-2.441,6.348,-395.996
1688260684.107,101.562,-33.203,0.488,236.816,601.562
1688260684.108,29.785,-41.992,-8.301,117.676,689.453
1688260684.112,-125.000,-39.551,-23.926,-181.152,-390.625
1688260684.116,-149.414,-59.570,-26.367,-268.555,-1000.000
1688260684.120,-19.531,-69.336,-16.113,-49.805,-482.910
1688260684.124,99.609,-48.340,-11.719,204.102,498.047
1688260684.128,54.688,-31.250,-22.949,141.113,753.906
1688260684.132,-108.398,-42.969,-50.781,-162.598,-205.078
1688260684.135,-165.527,-49.805,-69.824,-279.785,-673.340
1688260684.139,-49.805,-47.363,-57.129,-85.449,17.090
1688260684.143,79.102,-37.109,-20.996,182.129,565.430
1688260684.147,58.594,-32.715,-18.066,174.316,576.660
1688260684.151,-84.473,-32.715,-38.086,-113.281,-131.836
1688260684.154,-157.227,-40.527,-54.199,-272.461,-887.207
1688260684.158,-60.547,-41.992,-51.758,-105.957,-654.785
1688260684.162,88.867,-37.109,-13.672,174.316,292.969
1688260684.166,78.613,-69.824,-20.020,191.406,877.930
1688260684.170,-82.031,-53.223,-65.430,-103.516,130.371
1688260684.174,-166.504,-35.156,-65.430,-288.086,-791.992
1688260684.178,-92.773,-56.641,-37.598,-155.273,-569.336
1688260684.181,68.848,-27.832,-3.418,145.996,527.832
1688260684.185,113.281,-11.230,18.066,221.680,-991.699
1688260684.189,-53.223,-36.621,-34.180,-76.172,195.801
1688260684.193,-182.617,-60.547,-61.523,-299.805,-783.203
1688260684.197,-119.141,-46.875,-29.785,-188.477,-850.586
1688260684.198,48.340,-22.461,2.441,119.141,-18.555
1688260684.202,104.980,-34.668,5.859,241.211,670.410
1688260684.206,-28.809,-50.293,-17.578,1.953,268.555
1688260684.210,-173.340,-36.621,-39.551,-257.324,-599.609
1688260684.214,-134.277,-42.480,-36.621,-221.191,-847.656
1688260684.218,24.902,-54.688,-6.836,68.359,-25.391
1688260684.222,102.539,-41.992,9.766,241.211,876.953
1688260684.225,-1.465,-49.805,-27.344,37.598,848.633
1688260684.229,-157.227,-58.105,-56.152,-253.418,-242.188
1688260684.233,-146.484,-30.762,-48.828,-241.211,-911.133
1688260684.237,19.531,-24.902,-4.395,50.781,-147.461
1688260684.241,111.328,-50.781,16.602,239.746,782.227
1688260684.244,0.488,-53.711,-27.832,56.152,527.832
1688260684.248,-161.621,-31.250,-62.500,-246.582,-516.602
1688260684.252,-148.438,-28.320,-55.664,-266.602,-946.777
1688260684.256,6.836,-21.973,-12.207,0.488,-369.141
1688260684.260,99.121,-17.090,7.324,233.398,502.441
1688260684.264,26.855,-40.039,-45.410,103.516,617.188
1688260684.268,-122.070,-54.199,-79.590,-189.941,-109.863
1688260684.271,-152.344,-44.922,-63.477,-253.418,-772.949
1688260684.275,-18.066,-36.133,-32.715,-51.270,-511.719
1688260684.279,108.398,-38.574,-6.836,191.895,489.258
1688260684.283,59.570,-22.949,-17.090,144.043,896.973
1688260684.287,-115.723,-18.555,-33.691,-168.457,-136.719
1688260684.303,-158.203,-46.387,-36.133,-284.180,-1000.000
1688260684.307,-24.902,-54.199,-21.484,-65.918,-592.285
1688260684.311,108.398,-52.246,-4.883,212.402,404.785
1688260684.315,81.543,-39.551,-15.625,170.898,719.238
1688260684.319,-103.027,-33.691,-36.133,-152.344,-132.812
1688260684.323,-177.734,-42.480,-41.992,-280.762,-664.551
1688260684.327,-56.641,-27.344,-21.484,-95.703,-313.477
1688260684.330,80.078,-27.832,5.859,171.387,370.117
1688260684.334,84.473,-44.434,2.930,181.152,786.621
1688260684.338,-62.988,-39.551,-27.344,-111.328,288.574
1688260684.342,-161.621,-30.762,-35.156,-275.391,-376.953
1688260684.346,-76.660,-30.273,-4.883,-148.926,-685.059
1688260684.348,70.312,-37.109,29.785,143.555,37.598
1688260684.352,89.844,-35.645,22.461,221.680,750.977
1688260684.356,-56.641,-38.086,-11.230,-70.801,93.262
1688260684.360,-176.758,-40.527,-21.484,-287.598,-882.812
1688260684.364,-101.562,-35.645,-12.695,-175.781,-832.520
1688260684.368,58.594,-23.926,4.883,122.070,244.141
1688260684.372,92.773,-20.020,11.719,231.934,897.461
1688260684.375,-40.039,-40.039,-11.230,-29.785,286.621
1688260684.379,-158.203,-58.105,-22.461,-270.508,-668.945
1688260684.383,-92.773,-35.156,-19.531,-185.059,-557.617
1688260684.387,43.945,-9.277,-13.672,83.496,197.754
1688260684.391,89.355,-35.645,-0.977,215.820,741.699
1688260684.393,-18.555,-57.129,-8.789,6.348,351.074
1688260684.397,-152.344,-28.809,-24.414,-260.742,-550.781
1688260684.401,-131.348,-19.043,-23.926,-226.074,-887.695
1688260684.405,9.766,-33.203,-12.207,44.922,-229.492
1688260684.409,96.680,-42.480,-4.883,224.121,654.297
1688260684.413,0.488,-44.922,-25.879,43.945,577.637
1688260684.417,-148.926,-39.551,-62.012,-247.070,-311.035
1688260684.420,-143.555,-41.504,-50.293,-249.023,-890.137
1688260684.424,3.906,-43.945,-20.508,13.672,-180.176
1688260684.428,116.211,-28.809,-11.719,229.980,902.832
1688260684.432,33.203,-23.926,-16.602,79.590,568.848
1688260684.436,-127.441,-23.926,-40.527,-226.074,-508.301
1688260684.438,-141.602,-24.902,-58.594,-261.230,-931.641
1688260684.442,-11.230,-52.734,-45.410,-34.180,-392.090
1688260684.446,107.422,-58.594,-13.672,202.148,472.656
1688260684.450,41.992,-49.316,-20.020,103.516,582.520
1688260684.454,-125.977,-41.016,-55.176,-192.871,-70.801
1688260684.458,-139.160,-35.156,-44.922,-243.164,-639.160
1688260684.462,-35.645,-25.879,-24.414,-54.199,-380.859
1688260684.465,86.914,-23.926,-17.578,192.871,587.891
1688260684.469,69.824,-45.898,-26.855,152.344,839.844
1688260684.473,-106.934,-35.645,-47.363,-164.062,-124.023
1688260684.477,-163.086,-20.020,-44.922,-283.203,-902.344
1688260684.481,-47.363,-31.738,-41.016,-92.285,-557.617
1688260684.484,73.242,-38.574,-25.391,167.480,443.359
1688260684.488,58.105,-39.062,-20.020,162.109,742.188
1688260684.492,-87.402,-52.734,-45.410,-127.930,-104.492
1688260684.496,-173.828,-62.500,-61.035,-271.484,-782.227
1688260684.500,-71.289,-42.969,-45.898,-112.305,-219.238
1688260684.504,73.242,-21.484,-17.578,157.227,507.812
1688260684.508,76.660,-28.809,-25.879,201.660,759.766
1688260684.511,-59.082,-47.852,-51.270,-80.078,300.293
1688260684.515,-161.133,-47.363,-54.199,-276.855,-287.109
1688260684.519,-96.191,-27.344,-27.344,-145.020,-655.273
1688260684.523,45.410,-39.062,-8.301,133.789,-75.195
1688260684.527,93.750,-48.340,-18.555,208.496,754.395
1688260684.528,-51.758,-38.086,-48.828,-50.293,177.246
1688260684.532,-182.617,-43.457,-54.199,-281.250,-837.402
1688260684.536,-121.582,-54.199,-45.410,-195.801,-920.898
1688260684.540,29.785,-51.270,-20.996,99.121,-43.945
1688260684.544,94.727,-28.809,1.465,222.656,708.496
1688260684.548,-23.438,-30.762,-33.691,-13.672,362.793
1688260684.552,-157.227,-54.199,-60.059,-265.625,-521.973
1688260684.555,-119.629,-36.621,-28.809,-204.102,-372.559
1688260684.559,25.391,-17.090,4.883,80.566,253.906
1688260684.563,98.145,-29.785,8.301,229.004,630.371
1688260684.567,7.812,-32.715,12.207,40.527,360.840
1688260684.571,-136.230,-24.414,39.551,-218.750,-599.121
1688260684.574,-126.953,-19.043,62.500,-229.004,-975.098
1688260684.578,6.348,-31.738,57.129,5.859,-346.191
1688260684.582,98.633,-47.852,65.430,218.750,634.766
1688260684.586,18.066,-42.480,66.895,81.055,597.168
1688260684.590,-141.602,-39.062,41.504,-214.844,-436.523
1688260684.594,-153.320,-46.387,21.973,-258.301,-932.129
1688260684.598,-15.137,-45.898,25.391,-29.297,-203.125
1688260684.601,103.027,-33.203,41.504,219.238,877.930
1688260684.605,40.039,-27.344,42.969,115.723,742.676
1688260684.609,-116.699,-23.926,19.043,-203.125,-382.324
1688260684.613,-141.113,-32.715,10.254,-268.555,-800.293
1688260684.617,-18.555,-38.086,24.902,-35.156,-220.703
1688260684.618,99.609,-19.043,32.715,206.543,439.941
1688260684.622,58.594,-24.414,19.043,135.742,581.055
1688260684.626,-109.863,-38.086,-17.578,-166.992,-210.938
1688260684.630,-157.227,-34.668,-24.902,-276.855,-946.777
1688260684.634,-40.039,-41.016,8.789,-86.914,-678.711
1688260684.638,91.797,-45.898,20.020,187.500,401.367
1688260684.642,82.520,-36.133,0.977,178.711,937.012
1688260684.645,-79.590,-31.250,-25.879,-115.723,19.043
1688260684.649,-146.973,-23.926,-29.297,-262.207,-930.664
1688260684.653,-45.898,-21.973,-10.254,-105.957,-695.312
1688260684.657,83.496,-33.691,-13.672,165.527,384.766
1688260684.661,90.332,-23.438,-10.742,199.219,839.844
1688260684.664,-66.406,-18.555,-22.461,-75.684,34.180
1688260684.668,-161.621,-39.062,-47.852,-260.742,-791.016
1688260684.672,-69.336,-35.645,-21.973,-120.605,-640.137
1688260684.676,74.219,-28.320,3.906,154.785,130.371
1688260684.680,106.934,-34.668,-10.254,222.168,652.832
1688260684.684,-37.109,-35.156,-41.016,-41.504,310.547
1688260684.688,-159.668,-45.898,-56.641,-259.766,-436.035
1688260684.691,-98.145,-47.363,-37.109,-159.668,-736.816
1688260684.695,50.781,-22.949,-12.695,118.652,37.598
1688260684.699,98.145,-17.578,-25.391,224.121,914.551
1688260684.703,-23.438,-23.926,-42.969,0.000,582.031
1688260684.707,-153.809,-34.668,-54.688,-246.094,-676.270
1688260684.724,-110.352,-36.133,-49.805,-205.078,-956.055
1688260684.728,45.410,-26.367,-14.648,65.918,-10.254
1688260684.732,105.469,-38.574,-1.953,222.656,719.238
1688260684.736,-16.113,-43.457,-25.391,36.133,327.148
1688260684.740,-157.715,-37.109,-37.109,-227.051,-613.770
1688260684.744,-136.719,-40.039,-43.457,-216.309,-572.754
1688260684.748,17.090,-38.574,-46.387,34.668,186.523
1688260684.751,113.770,-23.438,-18.555,229.004,709.473
1688260684.755,20.020,-28.320,-20.508,73.730,540.527
1688260684.759,-145.020,-50.293,-67.383,-231.445,-288.574
1688260684.763,-162.109,-43.457,-93.262,-250.977,-904.785
1688260684.767,-20.508,-37.109,-80.566,-6.348,-398.438
1688260684.768,95.703,-39.551,-63.965,212.402,571.289
1688260684.772,36.133,-37.598,-69.824,116.699,610.352
1688260684.776,-131.348,-34.668,-104.492,-180.664,-327.637
1688260684.780,-159.668,-32.227,-107.910,-268.555,-965.820
1688260684.784,-27.832,-34.668,-91.309,-43.945,-339.355
1688260684.788,89.844,-30.273,-71.289,199.707,760.742
1688260684.792,36.621,-35.645,-81.055,119.629,691.406
1688260684.795,-131.836,-50.293,-120.605,-180.664,-306.152
1688260684.799,-176.270,-49.316,-117.676,-269.531,-681.641
1688260684.803,-58.594,-38.086,-91.797,-59.570,-23.926
1688260684.807,69.824,-25.391,-70.312,196.289,602.539
1688260684.811,55.176,-29.297,-70.312,157.715,636.230
1688260684.814,-78.125,-25.879,-91.797,-138.184,-100.098
1688260684.818,-151.855,-36.133,-105.469,-279.785,-909.180
1688260684.822,-50.293,-47.363,-95.215,-96.680,-709.961
1688260684.826,92.285,-66.406,-81.055,181.152,297.363
1688260684.830,84.961,-53.223,-81.543,191.895,787.598
1688260684.834,-62.012,-26.855,-105.469,-84.473,135.254
1688260684.838,-165.039,-46.387,-114.746,-247.559,-701.660
1688260684.841,-81.055,-41.992,-88.379,-137.207,-590.820
1688260684.845,76.660,-22.949,-60.547,146.484,504.883
1688260684.849,92.285,-26.367,-54.199,230.957,968.750
1688260684.853,-52.734,-34.668,-62.500,-65.430,83.984
1688260684.857,-149.414,-30.273,-65.918,-278.320,-846.191
1688260684.858,-81.055,-20.020,-68.359,-155.762,-815.918
1688260684.862,61.035,-24.414,-40.039,124.023,16.602
1688260684.866,110.352,-37.109,-28.320,222.656,709.961
1688260684.870,-25.391,-41.992,-65.430,-21.484,274.414
1688260684.874,-169.434,-37.109,-83.496,-262.695,-658.691
1688260684.878,-121.582,-41.504,-67.871,-197.266,-814.453
1688260684.882,33.691,-54.688,-40.039,68.848,-23.438
1688260684.885,108.398,-43.457,-21.973,215.820,864.746
1688260684.889,-10.254,-27.344,-31.738,12.695,807.617
1688260684.893,-157.227,-46.875,-51.758,-248.047,-337.891
1688260684.897,-121.094,-40.039,-51.270,-221.680,-971.191
1688260684.901,36.621,-10.742,-27.832,43.457,-141.602
1688260684.903,109.863,-22.461,-21.973,218.750,712.402
1688260684.907,6.836,-37.109,-34.180,43.457,395.996
1688260684.911,-152.344,-41.504,-54.199,-235.840,-534.180
1688260684.915,-149.414,-45.898,-49.805,-242.188,-845.703
1688260684.919,3.418,-39.551,-15.137,21.973,-274.414
1688260684.923,100.098,-40.527,1.465,223.633,669.922
1688260684.927,30.762,-23.926,-10.742,70.312,660.645
1688260684.930,-115.234,-19.531,-41.992,-222.168,-125.488
1688260684.934,-137.695,-41.016,-56.641,-271.973,-767.090
1688260684.938,-9.277,-37.598,-30.762,-44.922,-513.184
1688260684.942,101.074,-20.508,-14.648,201.172,464.844
1688260684.946,40.527,-19.043,-27.344,117.676,707.031
1688260684.948,-122.070,-32.227,-50.781,-175.293,-220.215
1688260684.952,-159.668,-45.410,-41.992,-267.090,-993.164
1688260684.956,-28.320,-46.875,-1.465,-69.824,-506.836
1688260684.960,97.168,-34.180,20.508,196.289,565.430
1688260684.964,56.152,-20.996,10.254,150.391,722.656
1688260684.968,-104.492,-24.414,-24.902,-148.926,-137.695
1688260684.972,-158.691,-21.973,-49.805,-258.301,-666.992
1688260684.975,-45.898,-19.043,-35.156,-78.613,-147.949
1688260684.979,82.031,-36.133,-4.395,163.086,525.879
1688260684.983,63.965,-41.992,-6.836,165.527,616.211
1688260684.987,-82.031,-39.062,-43.457,-107.422,51.270
1688260684.991,-156.250,-42.969,-52.246,-282.227,-739.258
1688260684.994,-51.270,-43.457,-17.090,-131.348,-745.605
1688260684.998,86.426,-38.574,11.230,161.133,212.891
1688260685.002,89.355,-32.715,-9.766,207.520,853.027
1688260685.006,-55.176,-25.879,-42.969,-68.359,157.715
1688260685.010,-164.062,-31.250,-49.316,-278.809,-854.492
1688260685.014,-90.332,-41.504,-35.156,-166.992,-748.047
1688260685.018,62.012,-35.156,-19.043,139.648,423.340
1688260685.021,87.891,-39.062,-10.742,246.582,969.238
1688260685.025,-56.641,-44.922,-25.391,-30.273,141.602
1688260685.029,-164.551,-35.645,-39.062,-277.344,-791.016
1688260685.033,-103.516,-24.902,-42.480,-198.242,-897.461
1688260685.037,40.527,-30.273,-29.297,79.590,-133.789
1688260685.038,103.516,-40.527,-2.930,222.656,645.508
1688260685.042,-15.625,-40.527,-15.625,-2.441,316.895
1688260685.046,-151.367,-46.387,-43.457,-251.953,-579.102
1688260685.050,-95.215,-55.176,-27.344,-188.477,-829.590
1688260685.054,37.109,-44.922,7.324,61.035,-115.723
1688260685.058,98.145,-19.531,13.672,235.840,845.703
1688260685.062,7.324,-8.789,-4.395,76.660,829.102
1688260685.065,-144.531,-30.273,-33.203,-221.680,-397.949
1688260685.069,-133.301,-41.504,-47.363,-235.352,-977.539
1688260685.073,17.090,-33.691,-10.254,32.227,-129.395
1688260685.077,117.188,-33.203,20.020,232.910,868.652
1688260685.081,33.203,-35.156,-10.742,81.543,545.410
1688260685.098,-118.164,-37.109,-57.129,-212.891,-433.105
1688260685.102,-124.512,-22.461,-58.105,-256.836,-839.355
1688260685.106,14.160,-26.855,-22.949,0.000,-351.074
1688260685.110,115.234,-38.086,-28.809,227.051,499.512
1688260685.114,41.504,-32.227,-66.895,111.328,575.684
1688260685.118,-115.234,-46.875,-84.961,-179.688,-185.547
1688260685.122,-151.855,-45.898,-88.379,-269.531,-819.336
1688260685.125,-37.598,-32.227,-64.453,-65.430,-457.520
1688260685.129,92.285,-31.250,-33.203,204.102,474.609
1688260685.133,55.176,-29.297,-48.828,161.621,932.129
1688260685.137,-113.770,-28.320,-56.152,-148.926,56.152
1688260685.141,-166.016,-34.668,-42.969,-280.762,-902.832
1688260685.143,-47.363,-43.457,-36.133,-103.516,-589.844
1688260685.147,87.891,-47.852,-14.160,181.152,364.258
1688260685.151,78.125,-30.762,-9.277,188.965,683.105
1688260685.155,-78.125,-4.395,-30.273,-110.840,-88.379
1688260685.159,-156.250,-26.855,-44.434,-269.531,-770.020
1688260685.163,-53.711,-47.363,-34.180,-104.980,-507.324
1688260685.167,77.148,-45.410,-6.348,166.992,383.789
1688260685.170,73.730,-52.734,3.418,199.219,793.945
1688260685.174,-62.988,-42.480,-30.273,-72.754,233.398
1688260685.178,-150.391,-13.672,-43.945,-263.184,-179.199
1688260685.182,-87.891,-5.859,-6.836,-146.484,-333.496
1688260685.186,58.594,-13.184,19.043,134.277,52.246
1688260685.188,99.609,-25.391,6.348,212.402,663.086
1688260685.192,-43.457,-25.391,-5.859,-53.711,95.215
1688260685.196,-163.574,-24.414,-20.020,-280.762,-841.797
1688260685.200,-103.516,-25.879,-35.156,-188.965,-917.480
1688260685.204,44.434,-35.156,-27.832,94.727,-65.430
1688260685.208,100.098,-37.598,-22.461,214.355,794.434
1688260685.212,-20.508,-40.039,-41.504,-10.742,419.922
1688260685.215,-150.391,-46.387,-66.895,-253.418,-624.023
1688260685.219,-106.445,-38.086,-51.758,-198.242,-609.375
1688260685.223,41.504,-32.227,-14.160,75.195,69.824
1688260685.227,109.863,-30.762,-20.020,226.074,625.488
1688260685.231,-0.488,-18.555,-42.969,36.621,411.621
1688260685.248,-154.785,-28.809,-53.223,-226.074,-513.672
1688260685.252,-142.090,-45.410,-49.805,-227.051,-936.523
1688260685.256,2.930,-37.109,-25.391,23.438,-318.848
1688260685.260,89.355,-40.039,-3.418,214.844,632.324
1688260685.264,1.465,-40.527,-10.742,64.453,610.352
1688260685.268,-147.461,-28.320,-29.297,-225.098,-324.707
1688260685.272,-155.762,-28.320,-33.203,-258.301,-875.000
1688260685.275,-14.648,-33.203,-23.926,-3.418,-226.074
1688260685.279,101.562,-41.016,-11.230,236.816,887.695
1688260685.283,31.250,-45.410,-9.766,117.188,629.395
1688260685.287,-124.512,-31.250,-34.180,-187.988,-480.469
1688260685.291,-150.879,-20.996,-51.758,-257.812,-908.203
1688260685.295,-153.809,-45.898,-39.062,-289.551,-841.309
1688260685.299,-42.480,-50.781,-26.855,-86.426,-562.012
1688260685.303,82.520,-42.969,-7.324,180.176,562.012
1688260685.306,67.871,-33.203,-6.348,167.480,880.859
1688260685.310,-92.773,-40.527,-32.227,-123.535,-105.469
1688260685.314,-174.805,-42.480,-40.527,-270.996,-948.730
1688260685.318,-65.918,-30.762,-35.645,-112.305,-662.598
1688260685.322,80.566,-18.066,-28.320,164.062,576.660
1688260685.323,77.148,-19.531,-4.395,185.059,968.750
1688260685.327,-70.312,-31.250,-12.207,-104.004,5.859
1688260685.331,-172.852,-47.852,-44.922,-283.203,-839.844
1688260685.335,-100.098,-45.898,-33.691,-155.762,-739.258
1688260685.339,61.035,-38.574,-0.977,136.719,180.176
1688260685.343,102.539,-47.363,15.137,224.121,753.906
1688260685.347,-34.180,-33.691,2.441,-46.875,332.520
1688260685.350,-139.648,-34.668,-27.344,-253.906,-111.328
1688260685.354,-88.379,-42.969,-32.227,-161.621,-437.500
1688260685.358,44.922,-15.137,-4.395,98.633,-28.809
1688260685.362,106.445,-6.348,8.301,218.750,772.461
1688260685.366,-19.531,-34.668,-28.320,-7.324,385.254
1688260685.368,-166.992,-58.594,-51.270,-264.648,-720.215
1688260685.372,-118.652,-41.992,-29.785,-203.613,-945.312
1688260685.376,48.828,-14.160,-0.488,91.309,-111.328
1688260685.380,109.863,-35.645,8.789,238.281,629.395
1688260685.384,-5.371,-37.598,-10.742,27.832,321.289
1688260685.388,-147.461,-19.043,-37.109,-232.910,-517.578
1688260685.392,-128.906,-33.691,-31.250,-209.961,-492.188
1688260685.395,24.414,-42.969,0.000,42.480,134.766
1688260685.399,117.188,-31.250,12.207,225.586,613.770
1688260685.403,20.996,-25.879,-14.648,54.688,476.074
1688260685.407,-130.371,-30.273,-21.484,-223.633,-348.145
1688260685.411,-123.047,-46.387,-22.949,-220.215,-944.336
1688260685.423,19.531,-51.270,-15.137,16.113,-463.379
1688260685.427,112.793,-43.457,1.953,212.402,535.645
1688260685.431,36.133,-20.020,-6.836,91.797,613.281
1688260685.435,-134.766,-24.902,-28.809,-207.031,-355.957
1688260685.439,-160.645,-56.152,-39.062,-268.555,-940.430
1688260685.443,-22.461,-46.875,-28.809,-43.457,-246.582
1688260685.447,96.680,-39.551,-16.602,195.801,856.445
1688260685.450,30.762,-31.738,-32.227,112.793,724.121
1688260685.454,-139.648,-14.648,-54.199,-185.059,-292.480
1688260685.458,-173.828,-13.672,-61.035,-306.152,-742.188
1688260685.462,-49.316,-14.160,-57.617,-104.980,-131.836
1688260685.466,88.867,-23.438,-28.809,183.105,489.746
1688260685.474,57.129,-23.926,-37.109,137.695,564.941
1688260685.478,-98.145,-16.113,-71.777,-163.086,-155.273
1688260685.482,-152.832,-18.066,-83.984,-290.527,-891.113
1688260685.486,-48.828,-36.133,-72.266,-114.258,-699.707
1688260685.490,100.586,-39.062,-46.387,183.105,258.301
1688260685.494,95.215,-14.160,-43.945,198.730,890.137
1688260685.498,-60.059,-10.254,-63.477,-107.422,149.902
1688260685.501,-146.484,-9.766,-72.266,-272.949,-822.754
1688260685.505,-70.801,-35.645,-53.711,-129.883,-668.457
1688260685.509,83.008,-41.016,-17.090,150.391,516.602
1688260685.513,109.863,-13.672,-7.324,185.059,894.531
1688260685.517,-47.363,-27.344,-41.504,-94.238,74.707
1688260685.518,-169.434,-50.293,-50.293,-282.227,-680.176
1688260685.522,-101.562,-40.039,5.371,-185.547,-709.961
1688260685.526,49.316,-23.438,58.105,79.102,45.898
1688260685.530,93.750,-8.301,69.824,194.336,687.500
1688260685.534,-27.344,-7.324,46.875,-30.273,288.086
1688260685.538,-159.668,-21.484,11.230,-261.230,-515.137
1688260685.542,-103.027,-13.184,28.320,-186.035,-678.711
1688260685.545,58.105,-18.066,57.129,80.566,35.156
1688260685.549,117.676,-40.039,36.621,206.055,877.930
1688260685.553,6.836,-39.551,1.953,11.230,823.730
1688260685.557,-141.602,-36.621,-7.324,-254.883,-372.559
1688260685.561,-133.789,-37.109,0.000,-248.047,-1000.000
1688260685.563,11.230,-40.039,25.879,34.180,-252.441
1688260685.567,93.262,-41.504,42.969,212.402,589.355
1688260685.571,-3.418,-42.480,20.508,31.250,378.906
1688260685.575,-149.414,-48.828,-12.695,-235.840,-519.531
1688260685.579,-134.277,-51.758,-33.691,-239.258,-749.023
1688260685.583,13.672,-49.316,-12.207,11.230,-121.094
1688260685.587,97.656,-53.711,2.930,214.844,615.723
1688260685.590,5.859,-41.992,-19.531,81.543,546.387
1688260685.594,-146.484,-22.949,-40.527,-205.078,-95.215
1688260685.598,-155.273,-26.855,-26.367,-254.395,-656.738
1688260685.602,-4.395,-32.715,5.859,-19.531,-490.234
1688260685.606,108.887,-27.832,18.066,229.492,471.680
1688260685.608,33.203,-28.809,6.836,133.789,625.488
1688260685.612,-125.488,-28.809,-15.137,-168.457,-341.309
1688260685.616,-155.273,-29.785,-29.785,-254.883,-931.641
1688260685.620,-24.902,-49.316,-24.902,-62.988,-472.168
1688260685.624,97.168,-81.055,-5.859,190.430,487.305
1688260685.628,60.547,-64.941,-14.160,156.250,801.758
1688260685.632,-105.957,-33.691,-48.828,-155.273,-8.789
1688260685.635,-163.574,-27.832,-61.035,-272.949,-702.148
1688260685.639,-53.711,-23.926,-43.457,-89.844,-147.949
1688260685.643,72.266,-25.391,-16.602,155.273,554.688
1688260685.647,65.430,-28.320,-19.531,159.180,606.934
1688260685.651,-73.242,-20.996,-51.270,-103.027,87.891
1688260685.654,-158.691,-27.344,-67.383,-270.020,-566.406
1688260685.658,-71.777,-41.016,-44.434,-125.488,-723.633
1688260685.662,73.242,-38.086,-23.438,160.156,96.680
1688260685.666,76.660,-41.504,-24.902,203.125,771.484
1688260685.670,-69.824,-38.574,-52.246,-84.961,152.832
1688260685.674,-176.758,-27.344,-69.824,-288.574,-712.402
1688260685.678,-97.656,-32.227,-47.852,-168.945,-641.113
1688260685.681,64.941,-36.133,-27.344,110.840,432.617
1688260685.685,90.820,-41.016,-27.832,203.613,-997.070
1688260685.689,-43.945,-50.781,-28.809,-30.762,159.668
1688260685.693,-170.410,-55.664,-48.828,-268.555,-846.191
1688260685.697,-114.258,-44.434,-44.922,-183.594,-917.480
1688260685.698,51.270,-35.645,-7.812,109.375,-123.047
1688260685.702,102.539,-33.203,-16.602,216.309,613.770
1688260685.706,-33.691,-27.832,-60.059,-16.113,298.340
1688260685.710,-168.457,-20.020,-68.359,-254.883,-628.418
1688260685.714,-120.605,-29.785,-40.039,-204.102,-911.133
1688260685.718,30.762,-39.551,-12.207,48.828,-204.590
1688260685.722,101.562,-31.738,-3.418,220.703,804.688
1688260685.725,-3.418,-43.457,-30.762,43.945,790.039
1688260685.729,-159.668,-53.711,-50.293,-235.840,-366.211
1688260685.733,-141.113,-55.664,-44.434,-232.910,-948.730
1688260685.737,12.695,-56.641,-25.879,23.438,-129.883
1688260685.741,101.562,-45.898,-13.184,231.445,913.086
1688260685.743,12.207,-45.410,-29.785,81.543,541.992
1688260685.747,-141.113,-56.641,-45.410,-225.098,-503.418
1688260685.751,-138.184,-49.316,-31.738,-266.602,-881.836
1688260685.755,-4.395,-46.875,-8.789,-14.648,-401.367
1688260685.759,97.656,-49.316,13.184,229.004,440.918
1688260685.763,39.062,-58.105,-3.418,136.230,651.367
1688260685.767,-122.559,-69.336,-51.758,-168.457,46.875
1688260685.770,-150.879,-66.406,-37.598,-260.254,-718.750
1688260685.774,-28.320,-61.035,-3.906,-56.152,-579.590
1688260685.778,89.355,-54.688,4.883,191.895,392.090
1688260685.782,46.387,-46.875,0.977,151.367,680.176
1688260685.786,-115.723,-44.434,-18.066,-143.555,-229.004
1688260685.789,-173.828,-49.805,-27.344,-271.484,-936.523
1688260685.793,-53.711,-67.383,-9.277,-88.379,-511.719
1688260685.797,94.238,-55.664,6.836,184.082,454.590
1688260685.801,90.820,-20.020,6.836,196.289,754.883
1688260685.805,-74.219,-36.133,-22.461,-102.539,-104.980
1688260685.809,-162.598,-43.457,-40.527,-264.648,-769.043
1688260685.813,-63.965,-32.715,-17.578,-99.609,-389.648
1688260685.816,70.312,-47.852,2.930,158.203,388.672
1688260685.820,80.566,-53.711,-5.371,189.941,792.480
1688260685.824,-55.176,-41.016,-30.273,-67.383,299.805
1688260685.828,-159.180,-41.016,-38.086,-262.695,-360.840
1688260685.832,-80.078,-30.273,-7.324,-147.461,-700.195
1688260685.848,68.848,-37.598,17.090,142.090,-6.348
1688260685.852,103.516,-53.223,11.230,222.168,743.652
1688260685.856,-35.645,-32.715,-18.066,-23.926,212.402
1688260685.860,-170.898,-41.992,-51.270,-257.324,-717.285
1688260685.864,-112.793,-58.594,-43.945,-181.641,-814.941
1688260685.868,35.645,-49.316,-15.625,100.586,294.922
1688260685.872,84.961,-48.340,-12.207,212.402,937.988
1688260685.875,-21.973,-41.504,-34.180,-17.578,192.871
1688260685.879,-138.672,-47.363,-51.758,-260.254,-716.309
1688260685.883,-111.816,-62.988,-43.457,-210.938,-661.133
1688260685.887,31.250,-42.969,-12.695,60.059,-16.113
1688260685.891,103.516,-40.527,-18.555,228.027,639.648
1688260685.894,-8.301,-56.152,-45.898,51.758,407.715
1688260685.898,-150.879,-62.500,-61.035,-235.352,-565.918
1688260685.902,-126.953,-44.434,-50.781,-236.328,-920.898
1688260685.906,19.531,-33.203,-20.508,35.645,-246.094
1688260685.910,112.793,-27.832,-12.695,241.699,689.453
1688260685.914,32.715,-21.973,-43.457,75.684,639.160
1688260685.918,-132.812,-32.715,-63.965,-222.656,-308.594
1688260685.921,-146.484,-45.898,-43.945,-241.211,-789.062
1688260685.925,-9.766,-49.316,-23.926,-3.418,-81.055
1688260685.929,100.586,-48.828,-26.855,226.562,936.035
1688260685.933,32.227,-50.781,-31.250,115.234,749.512
1688260685.937,-130.859,-41.992,-52.246,-199.707,-395.996
1688260685.938,-154.785,-40.039,-58.594,-273.438,-940.918
1688260685.942,-18.555,-39.551,-25.879,-45.898,-514.160
1688260685.946,91.309,-35.645,-4.395,197.754,390.137
1688260685.950,53.223,-24.902,-15.625,131.836,648.438
1688260685.954,-112.305,-39.062,-43.457,-176.270,-105.469
1688260685.958,-182.129,-58.594,-55.176,-288.574,-772.949
1688260685.962,-59.082,-46.387,-31.738,-81.055,-526.855
1688260685.965,97.656,-27.344,-2.930,187.500,361.328
1688260685.969,89.355,-27.832,-16.113,190.430,954.590
1688260685.973,-87.402,-38.086,-38.574,-110.840,239.258
1688260685.977,-175.781,-44.922,-40.039,-273.926,-889.160
1688260685.981,-68.359,-50.781,-15.137,-104.004,-747.559
1688260685.983,78.125,-41.992,24.902,160.645,266.602
1688260685.987,77.637,-41.016,13.672,182.129,698.730
1688260685.991,-85.449,-58.594,-22.461,-98.633,-18.555
1688260685.995,-187.012,-56.152,-29.785,-283.203,-841.309
1688260685.999,-92.773,-40.527,-15.137,-151.367,-752.930
1688260686.003,62.500,-30.762,12.207,129.395,244.629
1688260686.007,85.449,-32.715,19.531,201.172,816.406
1688260686.010,-54.688,-43.945,-11.230,-62.988,349.609
1688260686.014,-165.527,-47.852,-42.480,-267.578,-221.680
1688260686.018,-102.051,-44.434,-22.461,-179.199,-624.512
1688260686.022,61.523,-39.551,10.742,102.539,-34.180
1688260686.026,106.445,-29.297,-0.488,232.910,925.293
1688260686.028,-28.320,-21.484,-26.367,-6.348,593.750
1688260686.032,-149.414,-20.996,-37.109,-257.324,-648.438
1688260686.036,-102.539,-21.484,-29.297,-197.266,-1000.000
1688260686.040,58.105,-20.508,-6.348,79.102,-156.738
1688260686.044,121.094,-25.879,7.324,230.469,675.781
1688260686.048,-15.137,-25.391,-19.043,23.926,394.531
1688260686.052,-162.109,-25.879,-46.875,-250.488,-571.289
1688260686.055,-133.789,-36.133,-49.805,-223.633,-698.730
1688260686.059,12.207,-42.969,-21.484,49.805,-75.195
1688260686.063,106.445,-33.203,8.301,247.070,579.590
1688260686.067,20.508,-25.879,-18.066,78.125,466.309
1688260686.071,-129.395,-32.715,-62.500,-212.402,-438.477
1688260686.074,-120.117,-39.062,-48.828,-234.375,-942.871
1688260686.078,31.250,-23.438,-10.254,8.789,-375.488
1688260686.082,138.672,-14.160,0.977,229.004,611.328
1688260686.086,61.523,-28.809,-18.066,104.980,712.891
1688260686.090,-120.605,-33.691,-48.828,-201.660,-325.684
1688260686.094,-151.367,-28.320,-52.734,-263.184,-915.039
1688260686.098,-5.859,-34.668,-27.832,-30.273,-199.219
1688260686.101,109.375,-40.527,4.883,224.121,880.371
1688260686.105,57.129,-27.344,0.488,145.508,826.172
1688260686.109,-117.188,-26.855,-45.410,-170.410,-304.199
1688260686.113,-176.270,-40.527,-69.824,-276.367,-881.348
1688260686.117,-42.480,-35.156,-38.574,-75.684,-424.805
1688260686.134,93.262,-19.531,-3.418,197.266,341.797
1688260686.138,52.734,-29.297,-19.531,166.504,634.766
1688260686.142,-112.305,-37.109,-51.270,-146.973,-58.594
1688260686.146,-178.223,-29.785,-54.199,-291.992,-851.562
1688260686.150,-68.359,-41.504,-39.551,-122.559,-681.152
1688260686.154,85.449,-41.992,-10.742,162.598,309.082
1688260686.158,80.078,-32.715,-6.348,194.336,-999.023
1688260686.161,-86.914,-40.039,-36.621,-91.797,395.996
1688260686.165,-162.109,-35.645,-42.480,-282.227,-805.664
1688260686.169,-69.336,-25.391,-26.367,-153.320,-845.703
1688260686.173,78.125,-29.785,4.883,143.066,125.977
1688260686.177,98.633,-29.785,14.648,225.586,675.781
1688260686.163,-54.688,-26.367,-13.672,-52.734,58.105
1688260686.167,-152.832,-25.391,-28.809,-270.508,-814.941
1688260686.171,-88.867,-23.926,-26.367,-170.898,-827.637
1688260686.175,59.082,-20.508,-8.301,112.305,73.242
1688260686.179,108.398,-30.762,4.883,229.004,779.785
1688260686.183,-42.969,-44.434,-5.371,-14.160,307.617
1688260686.187,-173.340,-38.086,-33.691,-248.047,-526.855
1688260686.190,-124.512,-33.691,-39.551,-196.289,-664.062
1688260686.194,33.691,-30.762,-4.883,76.172,20.508
1688260686.198,104.492,-27.344,8.301,238.281,820.801
1688260686.202,-5.859,-26.367,-23.438,27.344,910.156
1688260686.206,-151.855,-21.973,-44.434,-266.113,-187.988
1688260686.223,-123.535,-18.555,-28.809,-232.910,-962.402
1688260686.227,36.133,-11.230,-10.254,55.664,-221.680
1688260686.231,113.770,-7.812,-11.719,233.398,679.688
1688260686.235,12.207,-22.949,-28.809,54.199,449.219
1688260686.239,-149.902,-34.668,-48.828,-227.051,-537.109
1688260686.243,-149.902,-25.879,-48.340,-229.492,-696.777
1688260686.247,3.906,-28.809,-12.695,18.555,-51.270
1688260686.250,113.281,-36.133,10.254,227.539,589.844
1688260686.254,27.832,-26.367,-10.254,96.680,576.660
1688260686.258,-144.531,-22.949,-47.852,-205.566,-219.238
1688260686.262,-155.762,-33.203,-42.969,-256.836,-919.922
1688260686.266,-11.230,-21.973,-5.859,-22.461,-508.789
1688260686.268,101.074,-21.973,-1.953,215.332,489.258
1688260686.272,46.875,-39.551,-30.273,129.883,933.105
1688260686.276,-112.305,-28.809,-33.203,-185.547,-36.133
1688260686.280,-162.598,-30.273,-37.598,-299.805,-998.535
1688260686.284,-33.203,-44.922,-28.809,-72.754,-568.359
1688260686.288,97.656,-31.738,-2.930,196.777,523.926
1688260686.292,61.035,-21.973,-3.418,164.062,830.078
1688260686.295,-105.957,-34.668,-29.297,-140.137,-163.574
1688260686.299,-162.109,-35.156,-41.992,-278.809,-762.695
1688260686.303,-36.133,-26.855,-20.996,-82.520,-141.602
1688260686.307,94.727,-29.297,10.742,196.289,524.902
1688260686.311,88.379,-27.344,1.465,195.801,680.176
1688260686.314,-66.895,-30.762,-33.203,-92.773,86.426
1688260686.318,-164.062,-34.180,-45.410,-268.066,-796.387
1688260686.322,-72.754,-31.250,-27.832,-113.281,-806.152
1688260686.326,76.660,-27.832,-8.301,169.922,159.180
1688260686.330,101.074,-37.109,-15.137,206.055,749.023
1688260686.334,-52.734,-55.664,-42.969,-63.477,166.992
1688260686.338,-167.480,-37.109,-49.805,-272.949,-702.637
1688260686.341,-83.496,-10.742,-21.484,-170.410,-721.680
1688260686.345,86.426,-11.719,10.254,141.113,383.789
1688260686.349,129.395,-16.602,26.367,237.305,923.340
1688260686.353,-21.484,-24.902,-4.395,-41.016,157.715
1688260686.357,-155.762,-29.297,-32.715,-258.789,-679.199
1688260686.359,-84.961,-21.973,-4.395,-133.789,-724.121
1688260686.363,55.664,-20.020,17.090,130.859,0.000
1688260686.367,106.934,-33.691,5.859,232.910,732.422
1688260686.371,-10.742,-67.383,-12.207,16.113,371.582
1688260686.375,-149.414,-65.430,-33.691,-248.047,-560.547
1688260686.379,-95.215,-34.180,-38.086,-170.410,-693.359
1688260686.383,64.453,-26.855,-18.066,140.137,-2.441
1688260686.386,151.367,-5.859,-20.996,325.684,783.203
1688260686.390,17.090,-10.254,-69.824,92.773,952.148
1688260686.394,-152.344,-62.500,-57.617,-221.680,-107.422
1688260686.398,-139.160,-61.035,-28.320,-236.816,-937.500
1688260686.402,-13.184,-8.789,0.000,-18.555,-297.363
1688260686.403,41.504,-60.547,0.977,150.391,559.082
1688260686.407,-43.945,-81.055,-42.969,-16.113,400.391
1688260686.411,-153.320,1.953,-143.066,-277.344,-534.668
1688260686.415,-170.898,-103.027,-81.543,-313.965,-886.719
1688260686.419,-81.055,-180.664,58.594,-98.145,-335.938
1688260686.423,20.020,-63.965,36.621,135.742,533.691
1688260686.427,-49.805,28.809,29.297,39.551,672.852
1688260686.430,-217.285,36.621,11.230,-271.973,34.668
1688260686.434,-248.047,-61.035,4.883,-376.953,-543.457
1688260686.438,-105.957,-147.461,-19.043,-139.648,-476.074
1688260686.442,15.137,-102.539,41.504,124.512,383.789
1688260686.446,-33.203,-18.066,163.574,60.059,627.441
1688260686.448,-226.074,-57.129,126.953,-262.695,-245.605
1688260686.452,-313.965,-63.477,63.965,-398.926,-948.242
1688260686.456,-183.594,-42.480,74.219,-187.988,-595.703
1688260686.460,-21.973,-93.750,89.355,119.141,393.066
1688260686.464,-33.691,-98.633,52.246,128.418,715.332
1688260686.468,-223.145,-121.094,-58.105,-239.258,-85.449
1688260686.472,-289.551,-107.910,-50.781,-407.227,-626.953
1688260686.475,-157.715,-118.652,34.668,-200.684,-117.676
1688260686.479,-55.176,-75.195,3.418,37.598,450.684
1688260686.483,-56.641,2.930,27.344,53.711,594.238
1688260686.487,-192.383,-17.090,78.125,-201.172,68.848
1688260686.491,-282.715,-34.668,77.148,-378.906,-646.484
1688260686.494,-192.383,-39.551,72.754,-286.133,-802.246
1688260686.498,-39.062,-3.418,57.617,10.254,-5.859
1688260686.502,-25.879,25.879,-31.738,103.516,700.195
1688260686.506,-180.664,-18.066,-267.578,-184.570,152.832
1688260686.510,-253.906,-21.484,-443.848,-390.137,-785.156
1688260686.514,-180.664,-25.879,-524.414,-287.598,-762.695
1688260686.518,-64.453,-24.414,-632.812,-18.555,388.184
1688260686.521,-8.301,3.418,-699.219,111.816,982.422
1688260686.525,-98.145,-3.418,-746.582,-84.473,236.328
1688260686.529,-227.051,23.438,-840.820,-316.406,-563.965
1688260686.533,-177.246,42.969,-901.367,-260.742,-716.797
1688260686.537,-40.039,1.465,-887.695,-34.668,-207.031
1688260686.538,-8.301,-15.137,-906.738,76.172,475.098
1688260686.542,-104.004,-4.395,-947.754,-85.449,264.648
1688260686.546,-232.422,-19.531,-967.285,-329.102,-577.148
1688260686.550,-199.219,-11.230,-979.004,-330.566,-940.430
1688260686.554,-57.617,-7.324,-995.117,-82.031,-302.734
1688260686.558,16.113,6.348,-1000.000,62.012,617.188
1688260686.562,-48.828,21.973,-990.723,-82.520,521.973
1688260686.565,-175.293,6.836,-993.164,-296.875,-338.379
1688260686.569,-200.684,-20.020,-1000.000,-326.172,-781.250
1688260686.573,-67.383,-11.230,-948.242,-114.258,-186.523
1688260686.577,51.758,16.602,-888.184,121.582,845.703
1688260686.581,-10.254,31.250,-895.996,13.184,604.980
1688260686.598,-148.438,27.832,-910.645,-281.250,-440.430
1688260686.602,-155.273,24.414,-875.488,-324.707,-787.109
1688260686.606,-39.062,15.137,-820.801,-110.352,-365.234
1688260686.610,77.637,-1.953,-791.016,131.348,334.473
1688260686.614,42.969,-3.906,-775.391,83.984,495.605
1688260686.618,-104.004,-41.016,-765.625,-187.012,-64.941
1688260686.622,-151.367,-37.109,-762.207,-267.578,-671.875
1688260686.625,-60.059,13.672,-750.488,-115.723,-562.500
1688260686.629,71.289,18.555,-700.195,131.348,288.086
1688260686.633,71.289,0.488,-673.828,114.258,839.355
1688260686.637,-77.148,-16.113,-687.012,-186.523,0.488
1688260686.641,-149.902,-1.953,-678.711,-329.102,-812.500
1688260686.644,-61.523,-6.836,-670.410,-190.430,-558.105
1688260686.648,82.520,0.977,-640.625,107.910,331.055
1688260686.652,83.984,7.324,-620.605,168.945,848.633
1688260686.656,-60.547,3.906,-603.516,-70.312,135.742
1688260686.660,-151.855,2.441,-567.383,-230.469,-610.352
1688260686.664,-93.262,-12.695,-538.574,-129.883,-387.695
1688260686.668,76.660,-45.898,-500.977,123.535,317.871
1688260686.671,156.250,-48.828,-452.148,209.961,728.516
1688260686.675,8.301,19.531,-426.270,-26.367,430.664
1688260686.679,-143.066,31.250,-435.547,-246.094,-107.422
1688260686.683,-100.098,-27.344,-426.270,-178.711,-493.652
1688260686.687,37.109,-14.648,-383.301,63.965,-49.805
1688260686.688,92.773,5.859,-368.164,169.922,649.902
1688260686.692,-10.254,-11.230,-351.074,-17.090,192.383
1688260686.696,-141.113,0.977,-328.613,-246.094,-739.746
1688260686.700,-91.309,-0.488,-308.105,-199.707,-820.312
1688260686.704,61.035,-1.953,-252.441,53.223,51.758
1688260686.708,112.305,-10.254,-213.379,176.758,733.887
1688260686.712,26.855,-59.082,-229.004,20.020,354.492
1688260686.715,-93.262,-46.387,-243.164,-201.172,-518.066
1688260686.719,-118.164,17.090,-225.586,-216.797,-467.285
1688260686.723,4.883,-6.348,-168.945,23.438,197.754
1688260686.727,121.582,-44.434,-147.949,230.957,591.309
1688260686.731,58.594,-17.578,-162.598,83.984,360.352
1688260686.733,-137.695,17.090,-171.387,-229.004,-414.062
1688260686.737,-166.992,-10.254,-142.578,-252.930,-768.555
1688260686.741,-18.066,-20.020,-123.535,-5.371,-333.984
1688260686.745,95.215,-29.297,-111.816,207.031,460.938
1688260686.749,46.387,-60.547,-94.727,109.375,488.770
1688260686.753,-109.375,-21.484,-93.262,-180.664,-269.043
1688260686.757,-139.160,13.672,-77.637,-224.609,-698.242
1688260686.760,-17.578,-10.254,-71.289,6.348,-160.645
1688260686.764,94.727,-25.879,-70.312,229.004,873.047
1688260686.768,60.547,-17.578,-48.340,138.184,810.547
1688260686.772,-89.355,-12.695,-46.387,-146.973,-301.758
1688260686.776,-149.414,-34.180,-71.777,-255.859,-859.863
1688260686.794,-35.645,-5.371,-69.336,-87.891,-456.055
1688260686.798,109.375,21.484,-35.645,162.598,279.297
1688260686.802,71.777,-2.930,-29.297,120.117,495.605
1688260686.806,-110.840,-12.207,-39.062,-143.066,-145.508
1688260686.810,-175.781,-10.254,-44.434,-222.168,-766.113
1688260686.814,-57.617,-0.977,-45.898,-39.062,-509.766
1688260686.818,75.195,-15.625,-22.949,190.430,371.582
1688260686.821,90.332,-31.738,-11.719,185.059,896.484
1688260686.825,-41.992,-34.668,-56.152,-87.402,144.043
1688260686.829,-138.672,-37.109,-71.289,-233.398,-776.367
1688260686.833,-60.547,-3.906,-15.137,-94.238,-573.730
1688260686.837,63.965,-8.789,6.348,135.254,277.832
1688260686.838,87.402,-16.113,-4.883,155.762,581.543
1688260686.842,-41.016,14.160,-25.391,-77.637,-34.180
1688260686.846,-164.551,19.531,-44.922,-250.977,-718.750
1688260686.850,-97.656,13.184,-33.203,-142.090,-671.387
1688260686.854,62.988,6.348,-16.602,119.141,41.504
1688260686.858,103.516,-0.488,-34.180,198.730,648.926
1688260686.862,-20.508,20.020,-54.199,-25.391,350.098
1688260686.865,-145.508,8.301,-86.426,-232.422,-447.754
1688260686.869,-104.980,-29.297,-59.082,-176.270,-569.824
1688260686.873,42.969,-20.996,15.137,55.664,0.977
1688260686.877,103.516,-5.859,22.949,199.707,589.844
1688260686.881,1.465,14.160,-13.672,26.855,668.945
1688260686.869,-144.531,27.832,-43.457,-236.328,-220.703
1688260686.873,-130.371,20.508,-47.363,-214.844,-814.941
1688260686.877,16.602,3.906,-44.922,21.484,-154.785
1688260686.881,106.445,-11.719,-19.043,164.551,500.977
1688260686.885,19.043,-43.457,-11.230,35.156,217.773
1688260686.889,-80.566,-28.320,-11.230,-155.762,-380.859
1688260686.893,-94.727,-3.906,-19.043,-173.828,-500.977
1688260686.896,-9.277,-19.043,-14.160,1.953,-181.641
1688260686.900,96.191,-23.438,-28.320,173.828,423.340
1688260686.904,28.809,-7.812,-80.078,42.480,385.254
1688260686.908,-99.609,12.695,-64.453,-176.758,-67.871
1688260686.912,-144.531,-0.488,-59.082,-222.168,-517.578
1688260686.944,-47.363,-25.879,-65.430,-48.340,-366.211
1688260686.948,77.637,-20.020,-44.922,151.855,411.133
1688260686.952,40.527,-1.953,-51.758,81.055,528.809
1688260686.956,-97.656,-29.297,-54.199,-140.625,-215.332
1688260686.960,-131.348,-25.879,-62.012,-221.191,-745.117
1688260686.964,-20.020,15.625,-61.523,-69.336,-237.305
1688260686.968,100.586,5.859,-33.691,143.066,786.133
1688260686.971,66.406,-5.371,-31.738,113.770,684.082
1688260686.975,-56.641,-8.301,-38.086,-87.891,-203.125
1688260686.979,-116.211,-31.250,-49.805,-178.223,-588.379
1688260686.983,-60.547,-16.113,-27.832,-71.777,-260.742
1688260686.987,58.105,-7.812,2.930,114.258,218.262
1688260686.976,71.777,7.812,-6.348,126.953,362.793
1688260686.980,-70.801,-15.625,-26.855,-93.750,-126.953
1688260686.984,-158.203,-57.617,-29.297,-224.609,-672.363
1688260686.988,-64.941,-20.996,-9.766,-83.984,-540.527
1688260686.992,70.312,31.250,-4.395,113.281,159.180
1688260686.996,84.961,19.531,-23.926,129.883,649.414
1688260687.000,-51.270,-11.230,-51.758,-86.426,136.719
1688260687.003,-145.996,-53.711,-44.922,-230.469,-571.777
1688260687.007,-78.125,-52.246,-51.758,-123.535,-481.445
1688260687.011,59.570,20.996,-46.387,101.074,209.473
1688260687.015,118.164,47.852,-33.691,176.758,560.059
1688260687.019,-20.996,12.695,-56.152,-42.969,60.547
1688260687.018,-149.902,-22.949,-80.566,-237.305,-548.340
1688260687.022,-104.492,-14.160,-73.242,-157.227,-274.902
1688260687.026,34.180,14.648,-15.137,67.383,182.617
1688260687.030,86.426,20.020,8.789,148.926,423.340
1688260687.034,-46.875,4.395,-34.668,-54.688,162.598
1688260687.038,-164.062,2.441,-70.801,-232.910,-424.316
1688260687.042,-125.000,-13.184,-44.922,-168.945,-564.453
1688260687.045,9.277,-21.973,-13.672,38.574,-69.336
1688260687.049,96.680,6.836,-15.137,171.875,630.859
1688260687.053,6.836,43.945,-19.531,27.344,703.613
1688260687.057,-151.855,48.828,-44.922,-213.379,91.309
1688260687.061,-140.625,57.617,-51.270,-194.336,-217.773
1688260687.063,-5.371,66.406,-29.785,12.695,-55.176
1688260687.067,83.984,49.316,-20.020,160.156,314.453
1688260687.071,5.859,32.227,-46.387,33.691,181.641
1688260687.075,-137.207,0.977,-79.102,-195.312,-541.992
1688260687.079,-146.484,14.648,-55.176,-207.031,-628.418
1688260687.083,-19.043,41.016,-38.574,-26.367,-106.934
1688260687.087,101.074,29.785,-40.527,161.621,422.852
1688260687.090,50.781,13.672,-50.293,71.289,374.023
1688260687.094,-98.145,23.438,-77.637,-174.805,-85.449
1688260687.098,-147.461,7.812,-73.242,-234.863,-509.277
1688260687.102,-37.109,21.484,-44.434,-61.035,-438.477
1688260687.106,95.703,52.246,-38.086,168.945,288.086
1688260687.108,65.430,20.508,-40.527,119.141,497.070
1688260687.112,-99.121,21.484,-50.781,-133.301,-284.180
1688260687.116,-164.551,30.273,-62.012,-222.168,-842.285
1688260687.120,-51.270,17.090,-69.824,-65.430,-505.371
1688260687.124,98.145,12.207,-44.922,174.805,320.801
1688260687.128,99.609,-5.859,-39.062,149.902,575.684
1688260687.132,-44.434,4.883,-61.035,-113.281,-84.473
1688260687.135,-127.930,2.930,-70.801,-214.844,-546.875
1688260687.139,-73.242,-10.254,-77.637,-101.562,-3.418
1688260687.143,59.570,8.789,-63.477,103.516,465.820
1688260687.147,91.797,-0.977,-66.895,145.508,486.816
1688260687.151,-49.805,-20.020,-88.379,-83.496,17.090
1688260687.154,-149.414,-3.906,-53.223,-245.117,-664.062
1688260687.158,-80.078,16.113,-53.711,-131.348,-698.730
1688260687.162,67.383,1.953,-82.520,122.559,75.195
1688260687.166,105.957,-19.531,-52.734,208.984,749.512
1688260687.170,-44.434,-11.230,-50.293,-28.320,207.031
1688260687.174,-172.363,0.977,-55.664,-245.117,-555.664
1688260687.178,-113.281,-20.996,-49.316,-179.688,-517.578
1688260687.181,37.598,-18.555,-44.922,59.082,300.781
1688260687.185,110.352,2.441,-47.363,179.688,752.930
1688260687.189,8.789,-14.160,-44.434,-6.836,120.117
1688260687.193,-143.555,-30.762,-53.223,-218.750,-562.012
1688260687.197,-120.117,-29.297,-78.613,-174.805,-539.062
1688260687.198,31.250,-50.293,-72.754,60.059,-51.270
1688260687.202,120.605,-18.066,-37.109,209.961,471.680
1688260687.206,27.344,32.227,-19.531,61.523,311.523
1688260687.210,-142.090,16.113,-53.711,-185.547,-444.336
1688260687.214,-140.137,-10.254,-71.289,-187.500,-752.441
1688260687.218,13.672,-25.391,-48.340,22.949,-171.387
1688260687.222,114.258,-25.391,-53.223,167.480,627.441
1688260687.225,40.039,-43.945,-76.172,49.316,835.938
1688260687.229,-104.492,-63.965,-87.891,-183.105,-128.418
1688260687.233,-134.277,-32.227,-89.355,-216.797,-816.895
1688260687.237,-6.836,-24.414,-76.660,2.930,-215.332
1688260687.241,118.164,-28.320,-53.711,196.777,550.293
1688260687.244,39.551,-0.488,-42.969,66.895,360.352
1688260687.248,-127.930,-5.859,-52.734,-193.359,-387.207
1688260687.252,-157.715,-22.461,-63.965,-243.164,-687.012
1688260687.256,-28.809,-20.996,-37.109,-40.039,-383.301
1688260687.260,104.492,-3.418,-24.902,188.965,349.609
1688260687.264,58.594,5.859,-60.547,118.652,611.816
1688260687.268,-97.656,0.000,-83.496,-144.531,172.852
1688260687.271,-147.461,-23.438,-56.641,-236.816,-368.652
1688260687.275,-41.016,-37.109,-41.992,-72.266,-458.008
1688260687.279,104.004,-17.090,-41.992,177.734,303.711
1688260687.283,88.379,-12.695,-36.133,144.531,663.574
1688260687.287,-81.055,-22.949,-55.664,-134.277,-128.906
1688260687.288,-151.367,-50.293,-54.688,-238.281,-799.805
1688260687.292,-65.918,-13.184,-7.812,-84.961,-571.777
1688260687.296,71.289,21.973,-3.906,132.812,233.887
1688260687.300,83.008,-3.906,-47.363,136.719,553.711
1688260687.304,-67.383,-17.578,-45.410,-95.215,-75.684
1688260687.308,-169.922,-33.203,-12.695,-236.328,-557.617
1688260687.312,-87.891,-38.574,5.859,-130.859,-304.688
1688260687.315,69.824,-19.531,38.086,109.375,289.551
1688260687.319,92.773,-8.301,60.547,180.176,665.039
1688260687.323,-52.246,-20.508,42.969,-41.016,295.898
1688260687.327,-165.039,-18.066,30.762,-225.586,-147.949
1688260687.331,-110.352,-14.648,24.902,-150.879,-449.219
1688260687.363,44.434,-40.039,20.508,96.191,-69.336
1688260687.367,101.562,-26.367,22.949,184.570,547.363
1688260687.371,-26.855,-13.672,30.273,-33.691,164.062
1688260687.375,-165.039,-14.648,24.902,-233.887,-646.973
1688260687.379,-116.211,-21.484,19.043,-159.668,-691.406
1688260687.383,17.578,-32.715,23.926,52.734,130.371
1688260687.387,84.961,-13.184,28.320,154.297,666.016
1688260687.390,-11.230,-12.695,19.043,-33.691,251.465
1688260687.394,-152.344,-20.020,5.859,-247.070,-518.555
1688260687.398,-145.508,-23.438,-5.371,-210.449,-439.453
1688260687.402,-4.883,-28.809,5.859,3.418,62.988
1688260687.406,101.562,-35.156,33.203,160.645,445.312
1688260687.393,25.879,-17.090,24.902,25.879,336.426
1688260687.397,-139.160,-15.137,-20.020,-226.562,-323.730
1688260687.401,-168.945,-51.270,-35.645,-248.535,-756.836
1688260687.405,-18.555,-33.203,4.883,-17.578,-363.281
1688260687.409,106.445,-21.973,35.156,179.199,430.176
1688260687.413,38.574,-34.668,19.531,71.289,504.883
1688260687.417,-137.207,6.836,1.465,-195.312,-318.848
1688260687.420,-164.551,33.203,8.301,-229.492,-697.754
1688260687.424,-28.809,7.324,13.184,-28.809,-106.445
1688260687.428,106.934,-3.906,35.645,168.945,479.004
1688260687.432,98.145,10.254,54.199,135.254,405.273
1688260687.436,-113.770,-52.246,-6.348,-149.414,-311.523
1688260687.438,-198.242,-70.312,-24.414,-258.789,-543.457
1688260687.442,-38.574,-28.809,13.184,-34.180,167.969
1688260687.446,91.309,-33.203,2.930,179.199,615.234
1688260687.450,36.621,-36.133,-7.812,94.238,506.836
1688260687.454,-111.328,-15.137,23.438,-164.062,-128.906
1688260687.458,-166.016,12.695,48.340,-248.535,-678.711
1688260687.462,-65.918,-2.930,47.363,-83.496,-423.828
1688260687.465,82.520,-19.043,35.645,152.832,287.598
1688260687.469,79.590,-14.648,7.324,157.227,811.035
1688260687.473,-91.797,-37.598,-31.250,-111.816,105.469
1688260687.477,-172.852,-45.410,-19.043,-261.230,-802.734
1688260687.481,-78.613,-1.953,4.395,-118.164,-639.160
1688260687.484,58.105,10.742,20.508,118.164,143.555
1688260687.488,78.613,-13.672,48.828,154.297,548.340
1688260687.492,-64.941,-43.457,38.574,-75.195,6.836
1688260687.496,-174.805,-17.578,17.090,-251.465,-496.582
1688260687.500,-114.258,-0.488,12.695,-169.434,-411.621
1688260687.504,41.016,-20.508,29.297,78.125,171.875
1688260687.508,95.215,-35.645,31.250,170.898,630.371
1688260687.511,-28.320,-13.184,19.043,-27.832,295.898
1688260687.515,-162.598,-12.207,-7.812,-220.703,-38.574
1688260687.519,-137.207,-46.387,-19.531,-176.758,-447.266
1688260687.523,28.809,-55.176,-0.977,60.059,-202.637
1688260687.527,104.980,-43.457,18.555,192.871,588.867
1688260687.528,-28.320,-19.531,31.250,-10.742,280.273
1688260687.532,-176.270,-13.184,20.508,-246.582,-604.980
1688260687.536,-145.508,-3.906,8.301,-208.984,-787.598
1688260687.540,5.859,-3.418,11.719,24.414,-179.688
1688260687.544,94.727,-25.391,17.578,185.059,508.789
1688260687.548,1.465,-34.668,-8.789,30.762,395.020
1688260687.552,-145.020,-13.184,-48.828,-216.797,-355.957
1688260687.555,-136.230,-15.137,-45.898,-210.938,-330.078
1688260687.559,6.348,-49.805,-1.953,13.184,227.051
1688260687.563,104.004,-59.570,22.461,193.848,474.121
1688260687.567,29.785,-46.875,16.602,78.125,320.312
1688260687.571,-118.164,-35.645,3.418,-178.223,-368.652
1688260687.574,-144.043,-18.066,-0.977,-220.703,-823.242
1688260687.578,-24.902,-46.387,6.836,6.836,-444.336
1688260687.582,107.422,-29.785,3.418,220.215,374.023
1688260687.586,57.129,7.324,-41.016,90.820,458.008
1688260687.590,-139.160,-7.812,-45.410,-213.867,-289.551
1688260687.594,-209.473,-6.836,-25.391,-301.758,-696.777
1688260687.598,-73.242,-6.836,-3.906,-101.074,-181.641
1688260687.601,69.824,-30.273,13.184,143.555,770.996
1688260687.605,51.270,-35.156,1.465,97.168,724.609
1688260687.609,-97.656,-17.090,-8.301,-149.414,-169.434
1688260687.613,-175.293,-49.805,-20.508,-242.188,-648.438
1688260687.617,-65.430,-74.707,-27.344,-92.285,-231.445
1688260687.618,90.332,-16.602,5.859,136.719,323.242
1688260687.622,87.402,3.906,3.418,133.301,459.473
1688260687.626,-75.195,-22.949,-52.246,-118.652,-59.082
1688260687.630,-153.320,-13.184,-36.621,-240.723,-687.500
1688260687.634,-83.496,-27.344,1.953,-124.023,-621.582
1688260687.638,47.363,-32.715,4.883,111.328,190.918
1688260687.642,76.172,-20.996,1.465,165.039,873.047
1688260687.645,-76.172,-32.227,-24.902,-91.309,202.637
1688260687.649,-177.734,-27.832,-33.203,-267.090,-774.902
1688260687.653,-106.934,-23.926,-30.273,-156.250,-678.711
1688260687.657,31.738,-39.062,-23.438,91.309,175.781
1688260687.661,68.848,-69.336,-5.371,161.621,637.207
1688260687.663,-65.918,-39.062,-17.578,-76.660,50.781
1688260687.667,-187.500,6.348,-34.180,-270.020,-618.652
1688260687.671,-145.020,-11.719,-48.828,-205.078,-526.367
1688260687.675,0.977,-9.766,-22.461,42.480,33.203
1688260687.679,74.219,-8.301,10.742,168.457,509.277
1688260687.683,-35.645,-53.711,-21.484,-30.273,402.832
1688260687.687,-178.711,-37.109,-54.199,-248.047,-235.352
1688260687.690,-152.344,-13.672,-27.832,-201.660,-598.633
1688260687.694,-5.859,-39.551,0.977,15.625,-125.488
1688260687.698,78.125,-49.316,-2.930,159.180,642.090
1688260687.702,-24.414,-25.391,-21.484,8.789,721.680
1688260687.706,-178.711,-8.789,-31.738,-224.121,-357.422
1688260687.723,-157.227,-8.789,-47.363,-222.168,-851.562
1688260687.727,-15.625,-19.043,-38.574,-9.277,-146.484
1688260687.731,83.008,-12.695,17.578,162.598,522.949
1688260687.735,4.395,-22.949,13.184,35.156,290.527
1688260687.739,-156.738,-31.738,-44.434,-218.262,-450.684
1688260687.743,-153.320,-33.203,-47.852,-244.141,-461.914
1688260687.747,-16.602,-71.289,-10.254,-36.133,-81.543
1688260687.750,88.379,-16.602,15.625,166.504,375.000
1688260687.754,29.785,9.277,-50.781,67.871,479.004
1688260687.758,-145.996,-37.598,-68.359,-198.730,-78.125
1688260687.762,-198.242,-29.785,-14.160,-271.484,-694.824
1688260687.766,-61.035,-34.180,-2.441,-78.125,-458.496
1688260687.768,87.402,-40.039,4.395,164.551,383.789
1688260687.772,44.922,-5.371,-6.348,104.492,532.227
1688260687.776,-145.508,-9.766,-21.484,-189.453,-220.215
1688260687.780,-200.684,-32.715,-20.020,-274.902,-678.711
1688260687.784,-68.359,-21.973,-11.230,-87.891,-307.617
1688260687.788,65.430,-26.367,-7.324,137.695,546.387
1688260687.792,48.340,-55.176,-26.367,113.281,726.074
1688260687.795,-108.887,-55.176,-59.570,-145.996,-142.090
1688260687.799,-188.965,-33.691,-55.176,-268.066,-604.004
1688260687.803,-95.215,-25.391,-34.180,-120.605,-83.984
1688260687.807,61.035,-8.301,-26.367,127.930,397.461
1688260687.811,76.660,-16.602,-25.879,151.367,528.320
1688260687.814,-77.637,-44.922,-29.297,-96.191,57.129
1688260687.818,-170.410,-27.832,-28.809,-249.512,-667.480
1688260687.822,-89.844,-17.090,-14.648,-134.277,-682.617
1688260687.826,61.035,-29.785,-6.348,119.629,104.492
1688260687.830,89.355,-19.531,-26.855,177.734,727.539
1688260687.834,-62.988,-17.578,-31.738,-70.312,127.441
1688260687.838,-173.340,-39.062,-29.785,-233.398,-627.930
1688260687.841,-117.676,-47.852,-27.832,-148.438,-541.016
1688260687.845,41.016,-29.297,2.441,101.074,408.203
1688260687.849,108.398,-21.484,7.324,202.148,933.594
1688260687.853,-9.277,-44.922,-21.484,-11.230,191.406
1688260687.857,-140.625,-51.758,-22.949,-219.727,-639.160
1688260687.858,-124.023,-21.973,-31.250,-185.059,-686.523
1688260687.862,23.438,-15.625,-37.598,55.176,-99.121
1688260687.866,103.516,-31.738,-20.020,210.449,492.188
1688260687.870,-2.930,-12.695,-11.230,38.086,305.664
1688260687.874,-152.344,17.090,-30.273,-206.543,-397.461
1688260687.878,-144.043,-1.953,-22.461,-201.172,-638.184
1688260687.882,0.000,-31.250,19.043,22.949,-116.699
1688260687.885,84.961,-29.785,16.602,172.363,658.691
1688260687.889,8.301,-26.855,-3.418,46.875,858.887
1688260687.893,-134.766,-44.434,-23.926,-193.359,-40.039
1688260687.897,-151.367,-42.480,-26.855,-215.820,-788.086
1688260687.901,-19.531,-41.992,-13.184,-9.277,-270.996
1688260687.903,90.332,-40.527,-11.230,180.664,460.938
1688260687.907,28.320,-17.090,-19.043,68.848,329.590
1688260687.911,-118.652,2.930,-17.090,-184.082,-377.441
1688260687.915,-132.324,-3.906,-10.254,-202.148,-734.863
1688260687.919,-20.020,-37.598,-12.207,-7.812,-377.441
1688260687.923,104.004,-23.926,9.277,200.195,364.258
1688260687.927,51.270,-16.113,0.488,130.859,487.793
1688260687.930,-120.117,-32.715,-52.734,-145.508,10.742
1688260687.934,-168.945,-21.973,-59.570,-228.027,-533.691
1688260687.938,-44.922,-10.742,-19.531,-45.898,-514.160
1688260687.942,92.773,-21.484,-4.395,160.645,291.504
1688260687.946,69.336,-16.602,-18.066,128.418,827.637
1688260687.948,-70.801,-14.160,-35.645,-109.863,0.977
1688260687.952,-157.227,-54.199,-43.945,-242.676,-812.988
1688260687.956,-69.824,-55.664,-30.273,-112.793,-504.883
1688260687.960,75.195,-26.367,10.254,141.113,275.879
1688260687.964,69.336,-6.836,7.812,171.875,535.645
1688260687.968,-74.219,-10.254,-51.758,-76.660,-67.871
1688260687.972,-172.852,-12.207,-72.266,-242.188,-588.379
1688260687.975,-106.445,-20.020,-51.270,-133.789,-172.852
1688260687.979,38.574,-18.066,-6.836,116.211,380.859
1688260687.983,74.707,5.371,9.277,176.270,518.066
1688260687.987,-51.270,2.441,-27.832,-63.477,77.637
1688260687.991,-164.062,-17.578,-30.762,-242.188,-531.250
1688260687.994,-108.398,-25.879,-14.160,-148.926,-618.652
1688260687.998,28.809,-50.781,-30.273,74.219,81.543
1688260688.002,83.984,-53.223,-46.387,175.781,728.027
1688260688.006,-29.785,-17.090,-43.945,-27.344,186.523
1688260688.010,-178.223,-4.395,-38.574,-245.117,-662.109
1688260688.014,-151.855,-22.949,-33.691,-166.504,-604.492
1688260688.018,4.883,-34.668,-7.812,77.148,253.906
1688260688.021,86.914,-33.691,10.254,190.430,688.477
1688260688.025,-11.719,-20.508,-16.602,-13.184,103.516
1688260688.029,-159.180,-33.691,-59.082,-244.629,-562.988
1688260688.033,-150.391,-31.250,-70.312,-209.473,-574.219
1688260688.037,0.000,-17.578,-27.344,22.461,-104.492
1688260688.038,99.121,-42.480,-9.277,192.871,499.512
1688260688.042,-3.418,-33.691,-43.945,25.879,343.750
1688260688.046,-152.344,-2.441,-36.621,-240.723,-479.004
1688260688.050,-125.488,-4.883,-12.695,-225.586,-749.512
1688260688.054,-2.930,-6.348,-2.930,-9.277,-188.477
1688260688.058,81.055,-39.551,-2.441,164.062,607.910
1688260688.062,4.883,-53.223,-27.832,45.898,813.477
1688260688.065,-156.738,-31.738,-61.523,-206.543,-181.152
1688260688.069,-177.246,-27.344,-62.988,-242.676,-722.168
1688260688.073,-42.480,-55.664,-27.344,-38.086,-129.883
1688260688.077,73.242,-53.223,-26.855,157.715,642.090
1688260688.081,26.367,1.953,-18.555,82.031,458.496
1688260688.098,-118.652,-3.418,-22.949,-162.109,-339.355
1688260688.102,-170.410,-28.809,-51.270,-258.301,-685.059
1688260688.106,-62.988,-13.184,-42.969,-96.680,-364.746
1688260688.110,79.590,-14.648,-25.879,139.160,320.312
1688260688.114,65.430,-12.695,-10.742,114.746,512.207
1688260688.118,-110.352,-4.883,-30.273,-148.438,-47.852
1688260688.122,-191.406,-35.645,-53.711,-264.648,-607.910
1688260688.125,-72.266,-48.828,-27.832,-100.098,-412.598
1688260688.129,88.867,-38.574,1.465,146.973,266.113
1688260688.133,91.309,-3.906,12.207,159.180,799.805
1688260688.137,-87.891,-19.531,-37.109,-115.234,233.887
1688260688.141,-196.777,-47.852,-72.266,-276.367,-701.172
1688260688.144,-104.492,-16.113,-62.988,-137.695,-562.988
1688260688.148,41.992,-9.766,-40.527,90.332,288.086
1688260688.152,78.125,0.488,7.324,134.277,589.844
1688260688.156,-55.664,-11.230,-0.977,-93.750,-13.672
1688260688.160,-177.734,-71.289,-45.898,-256.348,-675.781
1688260688.164,-116.699,-74.707,-25.879,-150.391,-542.480
1688260688.168,29.297,-25.391,5.371,72.266,161.133
1688260688.171,80.566,-2.930,-18.066,153.320,529.297
1688260688.175,-35.645,-17.578,-41.992,-39.062,222.656
1688260688.179,-166.504,-21.973,-54.688,-223.633,-79.590
1688260688.183,-137.207,-22.461,-57.129,-166.504,-258.789
1688260688.187,26.367,-29.297,0.000,75.195,-10.254
1688260688.188,95.215,-24.414,29.297,175.293,561.523
1688260688.192,-37.109,-25.391,-20.508,-38.574,197.266
1688260688.196,-162.598,-13.672,-45.898,-245.117,-622.559
1688260688.200,-135.742,-20.996,-40.527,-205.078,-718.750
1688260688.204,-7.812,-67.383,-23.926,20.508,-66.895
1688260688.208,82.520,-74.219,-17.578,179.688,596.191
1688260688.212,-11.719,-21.973,-36.133,17.090,372.559
1688260688.215,-158.203,-35.645,-39.062,-225.098,-374.512
1688260688.219,-162.598,-64.941,-46.387,-225.098,-408.203
1688260688.223,-20.996,-14.648,-31.250,-4.395,53.223
1688260688.227,90.820,4.883,-13.672,147.949,441.406
1688260688.231,21.973,-28.320,-34.180,26.367,415.039
1688260688.234,-132.324,-45.898,-51.270,-201.660,-227.051
1688260688.238,-156.738,-27.832,-47.363,-230.957,-748.535
1688260688.242,-27.344,-19.531,-19.043,-25.879,-354.492
1688260688.246,112.793,-22.949,20.508,180.176,426.270
1688260688.250,57.617,-30.762,-3.906,82.031,448.730
1688260688.254,-130.859,-18.066,-41.504,-180.176,-276.367
1688260688.258,-179.688,-20.020,-28.809,-233.398,-739.746
1688260688.261,-50.293,-52.246,-17.578,-34.180,-220.215
1688260688.265,82.031,-54.199,-31.738,168.945,827.637
1688260688.269,65.918,-20.508,-35.156,107.910,701.172
1688260688.273,-103.516,-21.973,-41.016,-145.508,-259.766
1688260688.277,-191.406,-64.941,-62.012,-260.254,-698.242
1688260688.279,-83.496,-55.176,-51.270,-92.773,-466.309
1688260688.283,62.012,5.371,-29.785,134.766,228.027
1688260688.287,69.336,9.277,-18.555,117.188,559.570
1688260688.291,-89.844,-21.484,-46.875,-126.465,29.297
1688260688.295,-184.570,-35.645,-56.152,-262.207,-671.875
1688260688.299,-70.312,-30.762,-30.762,-114.746,-564.453
1688260688.303,77.148,-40.039,-22.949,121.582,259.277
1688260688.306,75.195,-36.621,-33.691,149.414,827.637
1688260688.310,-76.660,-17.090,-54.199,-89.844,171.875
1688260688.314,-178.711,-39.062,-61.523,-250.977,-785.156
1688260688.318,-99.121,-33.203,-53.711,-134.766,-701.660
1688260688.322,56.641,-19.531,-25.879,107.910,97.168
1688260688.324,102.539,-27.344,2.930,195.801,575.195
1688260688.328,-27.832,-22.461,-8.301,-32.715,84.961
1688260688.332,-166.504,-9.766,-48.828,-252.441,-672.852
1688260688.336,-114.258,-12.207,-48.828,-163.574,-688.965
1688260688.340,43.945,-21.973,-12.695,85.938,89.355
1688260688.344,98.145,-40.527,-24.902,179.199,663.086
1688260688.348,-8.789,-60.059,-41.504,-10.254,339.355
1688260688.351,-146.484,-46.875,-53.223,-224.609,-80.078
1688260688.355,-132.324,-20.996,-41.504,-198.242,-358.398
1688260688.359,24.902,15.137,-22.949,49.316,-151.367
1688260688.363,111.328,7.324,-42.480,208.496,479.492
1688260688.367,6.836,-13.672,-38.574,36.621,271.973
1688260688.368,-139.160,-12.207,-46.875,-201.172,-598.633
1688260688.372,-131.348,-20.508,-52.734,-186.523,-830.078
1688260688.376,15.137,-28.320,-22.461,50.781,-52.246
1688260688.380,110.352,-32.715,4.395,210.938,597.656
1688260688.384,13.672,-47.852,-20.508,38.574,337.891
1688260688.388,-156.738,-50.293,-80.566,-224.609,-306.641
1688260688.392,-160.156,-29.297,-50.293,-229.004,-406.250
1688260688.395,-7.324,-19.531,-22.949,0.000,32.227
1688260688.399,107.422,-13.184,-21.484,183.105,474.609
1688260688.403,69.824,-5.859,3.418,100.586,413.574
1688260688.407,-104.980,-12.207,-29.785,-151.367,-153.320
1688260688.411,-173.340,-34.668,-52.734,-235.352,-735.840
1688260688.421,-42.969,-35.645,-37.598,-58.105,-464.355
1688260688.425,92.773,-19.043,-8.301,162.598,393.555
1688260688.429,68.848,-21.484,-7.812,130.859,484.375
1688260688.433,-104.980,-34.668,-46.875,-139.648,-259.766
1688260688.437,-181.641,-16.602,-52.246,-251.953,-802.246
1688260688.441,-53.223,-13.672,-42.969,-70.312,-325.684
1688260688.445,83.496,-32.227,-39.551,162.598,674.316
1688260688.448,64.941,-34.180,-39.551,136.230,637.695
1688260688.452,-90.820,-58.105,-52.246,-126.953,-95.215
1688260688.456,-165.039,-45.410,-41.992,-248.047,-470.215
1688260688.460,-73.730,-39.062,-35.645,-99.121,-40.039
1688260688.464,62.988,-32.227,-21.484,131.348,447.266
1688260688.474,81.055,-19.043,-12.207,154.297,547.363
1688260688.478,-59.570,-13.184,-43.457,-83.984,8.789
1688260688.482,-166.016,-6.348,-32.227,-247.070,-716.309
1688260688.486,-99.121,-32.227,-16.602,-135.254,-694.824
1688260688.490,58.594,-23.438,-22.461,116.211,62.012
1688260688.494,97.656,-13.184,-22.461,176.758,687.500
1688260688.498,-47.852,-30.762,-33.203,-60.547,176.758
1688260688.501,-170.410,-40.527,-44.434,-253.418,-689.453
1688260688.505,-106.934,-46.875,-40.039,-153.809,-634.277
1688260688.509,62.012,-34.180,-18.555,106.934,360.352
1688260688.513,118.164,-29.297,-16.113,195.312,747.070
1688260688.517,-19.531,-51.758,-46.387,-23.926,96.680
1688260688.518,-164.551,-39.062,-66.895,-239.746,-546.875
1688260688.522,-131.348,1.953,-49.316,-186.523,-568.359
1688260688.526,23.438,1.465,-20.508,49.316,-43.457
1688260688.530,108.887,-30.273,-3.418,177.734,455.566
1688260688.534,1.953,-38.086,-32.715,-1.953,235.840
1688260688.538,-151.855,-33.691,-68.359,-220.215,-333.984
1688260688.542,-136.230,-30.273,-53.711,-191.895,-541.504
1688260688.545,2.930,-29.785,-5.371,28.320,-124.023
1688260688.549,88.379,-24.414,0.977,170.898,640.625
1688260688.553,3.906,-22.461,-44.434,24.414,757.812
1688260688.557,-140.137,-16.113,-48.828,-191.406,-194.336
1688260688.561,-137.207,-29.785,-33.203,-191.895,-715.820
1688260688.564,-2.441,-31.738,-29.785,9.766,-166.016
1688260688.568,105.469,-18.555,-11.230,189.453,483.398
1688260688.572,33.203,-48.340,-19.531,57.617,390.625
1688260688.576,-134.277,-41.992,-38.574,-207.031,-354.492
1688260688.580,-160.156,-11.719,-54.199,-242.188,-615.234
1688260688.584,-23.926,-19.531,-47.852,-38.086,-134.277
1688260688.588,109.863,-21.484,-3.418,180.664,478.027
1688260688.591,62.012,-26.367,-27.832,102.539,428.223
1688260688.595,-101.074,-38.086,-68.359,-153.809,4.883
1688260688.599,-145.996,-28.320,-31.738,-213.867,-481.934
1688260688.603,-25.879,-26.855,-12.695,-36.621,-420.898
1688260688.607,91.797,-40.527,-3.418,169.434,328.125
1688260688.608,48.828,-35.156,-19.043,126.953,491.699
1688260688.612,-98.633,-27.832,-48.340,-122.559,-229.004
1688260688.616,-161.621,-47.852,-36.621,-229.492,-751.465
1688260688.620,-69.824,-39.551,-28.320,-81.055,-458.496
1688260688.624,59.570,-7.812,-23.926,129.883,279.297
1688260688.628,90.332,5.371,-11.719,151.367,626.953
1688260688.632,-33.691,-1.953,-43.945,-62.500,99.609
1688260688.635,-152.832,-32.227,-77.148,-227.539,-501.465
