timestamps,TP9,AF7,AF8,TP10,Right AUX
1689942995.177,-55.176,-20.508,-36.133,-62.988,-136.230
1689942995.181,-55.664,-18.555,-42.480,-52.246,-110.352
1689942995.185,-21.484,-8.301,-41.992,13.184,-141.602
1689942995.189,-16.113,-7.812,-39.062,39.062,-37.109
1689942995.193,-24.902,-14.160,-37.109,4.395,102.051
1689942995.197,-32.715,-16.113,-36.621,-43.945,83.984
1689942995.201,-19.043,-16.602,-37.598,-40.039,26.367
1689942995.204,-0.488,-19.043,-39.062,4.395,-118.652
1689942995.208,2.441,-24.414,-34.668,39.551,56.152
1689942995.212,-8.789,-20.020,-36.133,10.254,259.766
1689942995.216,-38.086,-7.812,-42.969,-46.875,-109.863
1689942995.220,-21.484,-8.301,-39.551,-33.691,-255.859
1689942995.222,2.441,-15.625,-40.527,11.719,11.719
1689942995.226,5.371,-9.277,-42.480,37.109,-24.414
1689942995.230,-20.508,-9.277,-35.645,5.371,-178.223
1689942995.234,-39.062,-17.090,-36.621,-47.852,-110.352
1689942995.238,-25.879,-18.555,-37.109,-61.035,-55.664
1689942995.242,-4.883,-15.137,-33.203,-12.695,3.418
1689942995.246,6.348,-8.301,-34.180,34.668,-6.836
1689942995.249,-8.301,-16.602,-29.785,15.625,36.133
1689942995.253,-33.203,-21.973,-31.738,-36.621,264.648
1689942995.257,-39.551,-13.672,-37.598,-61.523,39.551
1689942995.261,-18.555,-15.625,-33.691,-14.648,-173.828
1689942995.265,-1.953,-21.973,-30.273,33.203,-24.902
1689942995.267,-9.766,-19.043,-29.785,18.555,188.965
1689942995.271,-32.227,-7.812,-34.668,-33.691,-15.625
1689942995.275,-32.227,-3.906,-32.715,-63.965,-206.543
1689942995.279,-22.461,-8.301,-33.691,-24.902,-131.348
1689942995.283,-3.418,-9.277,-36.621,30.273,-82.031
1689942995.287,1.953,-7.324,-32.715,24.902,-52.734
1689942995.291,-26.367,-3.906,-32.715,-33.691,-31.738
1689942995.294,-28.809,-6.836,-30.273,-66.406,90.332
1689942995.298,-15.137,-6.836,-34.668,-39.551,144.043
1689942995.302,5.859,-4.395,-32.715,7.812,-62.988
1689942995.306,1.953,-14.648,-26.855,27.344,-39.551
1689942995.310,-25.391,-19.531,-25.879,-1.465,234.863
1689942995.312,-37.109,-9.277,-29.785,-52.246,102.539
1689942995.316,-23.438,-8.301,-32.715,-44.434,-232.910
1689942995.320,-2.441,-16.113,-31.250,17.090,-217.285
1689942995.324,-1.953,-19.531,-32.227,45.410,-88.867
1689942995.328,-8.301,-19.531,-28.320,5.859,-32.227
1689942995.332,-19.531,-26.855,-28.320,-50.781,-11.719
1689942995.336,-22.461,-23.926,-29.785,-41.016,19.043
1689942995.339,-4.883,-15.137,-25.879,20.020,296.875
1689942995.343,-8.789,-7.324,-27.832,31.738,126.953
1689942995.347,-35.156,-9.766,-28.809,-6.836,-219.238
1689942995.351,-46.387,-15.625,-27.832,-56.152,-226.562
1689942995.355,-26.855,-12.695,-30.762,-49.805,-135.254
1689942995.357,-9.766,-8.789,-32.227,-0.488,-98.145
1689942995.361,5.371,-9.277,-32.715,38.086,-134.277
1689942995.365,-2.930,-16.113,-29.785,9.766,-48.828
1689942995.369,-26.367,-10.742,-27.344,-47.852,-24.414
1689942995.373,-28.320,-12.695,-34.180,-57.617,-137.207
1689942995.377,-8.301,-22.949,-35.645,-16.602,-79.590
1689942995.381,16.113,-23.926,-30.762,27.344,256.836
1689942995.384,1.465,-8.789,-27.832,13.672,300.293
1689942995.388,-38.574,-7.812,-32.227,-55.664,-108.887
1689942995.392,-31.738,-15.625,-36.133,-60.059,-168.945
1689942995.396,4.395,-10.742,-31.250,10.254,145.508
1689942995.400,7.324,-9.766,-33.203,52.734,55.664
1689942995.418,-4.883,-17.578,-31.250,32.715,-220.215
1689942995.422,-27.344,-20.020,-27.344,-24.902,-162.109
1689942995.426,-39.062,-16.113,-30.762,-52.734,82.520
1689942995.430,-31.738,-14.648,-31.250,-20.020,-32.715
1689942995.434,-20.020,-20.508,-31.250,23.926,-206.055
1689942995.438,-21.973,-26.367,-32.227,24.414,-79.102
1689942995.442,-39.062,-35.645,-31.738,-26.367,292.480
1689942995.445,-41.992,-22.949,-31.738,-71.777,103.027
1689942995.449,-25.879,-17.578,-32.227,-33.203,-174.805
1689942995.453,6.836,-19.043,-29.297,20.508,-96.191
1689942995.457,0.000,-11.719,-28.320,9.766,-57.617
1689942995.461,-31.738,-14.648,-33.691,-41.016,-115.234
1689942995.462,-39.062,-21.973,-36.133,-69.336,-177.246
1689942995.466,-28.320,-23.438,-32.227,-38.086,-147.461
1689942995.470,-20.508,-16.602,-33.203,13.184,-87.891
1689942995.474,-19.531,-14.160,-37.109,26.855,-89.355
1689942995.478,-28.320,-18.066,-32.227,-2.930,-89.355
1689942995.482,-35.645,-16.602,-33.203,-41.016,62.988
1689942995.486,-21.973,-12.695,-39.551,-35.645,135.742
1689942995.489,-6.348,-12.207,-37.109,5.371,-7.324
1689942995.493,-19.043,-11.230,-33.203,13.184,-140.625
1689942995.497,-41.504,-19.531,-29.785,-18.555,91.309
1689942995.501,-49.316,-19.043,-30.762,-57.617,547.363
1689942995.505,-41.504,-1.465,-34.180,-57.617,151.855
1689942995.507,-13.184,0.488,-32.715,0.977,-198.730
1689942995.511,3.906,-6.836,-31.738,28.809,-53.223
1689942995.515,-4.883,-6.836,-31.250,-20.508,-103.027
1689942995.519,-16.113,-5.371,-30.762,-64.941,-166.016
1689942995.523,-24.902,-4.883,-30.762,-46.387,-158.203
1689942995.527,-16.113,-10.254,-29.785,8.789,-45.898
1689942995.531,-8.789,-16.113,-35.156,32.715,94.727
1689942995.534,-23.438,-14.648,-37.109,0.488,15.137
1689942995.538,-38.574,-13.672,-31.250,-44.434,-82.520
1689942995.542,-35.156,-10.254,-29.297,-43.945,265.137
1689942995.546,-20.020,0.977,-31.250,-4.883,138.672
1689942995.550,-4.883,-2.441,-25.391,27.344,-203.125
1689942995.552,1.465,-4.883,-20.508,18.555,-128.906
1689942995.556,-12.207,-2.441,-23.438,-32.227,-155.762
1689942995.560,-25.391,-13.672,-27.344,-42.480,-208.984
1689942995.564,-12.207,-21.484,-31.250,0.977,-140.625
1689942995.568,16.602,-15.137,-29.297,42.969,-30.762
1689942995.572,11.230,-7.324,-24.902,33.203,-33.691
1689942995.576,-22.461,-7.324,-26.855,-33.203,-26.367
1689942995.579,-40.527,-11.230,-28.320,-56.641,-100.098
1689942995.583,-26.367,-21.973,-30.273,1.953,74.707
1689942995.587,-7.812,-14.648,-32.715,43.945,283.203
1689942995.591,-10.742,0.977,-30.762,33.203,82.031
1689942995.595,-21.973,-4.395,-29.297,-26.855,-8.301
1689942995.597,-16.113,-10.742,-34.668,-58.594,-19.043
1689942995.601,8.301,-4.395,-39.551,-15.137,-125.977
1689942995.605,12.207,-5.859,-35.156,41.016,-189.941
1689942995.609,0.000,-15.137,-28.809,54.199,-109.375
1689942995.613,-24.902,-26.367,-33.691,-13.672,199.707
1689942995.617,-45.410,-19.531,-40.039,-67.383,168.457
1689942995.621,-33.203,-7.812,-41.504,-27.832,-73.730
1689942995.624,-2.930,-15.625,-42.480,34.668,-50.781
1689942995.628,-9.277,-22.461,-43.457,40.039,195.312
1689942995.632,-36.621,-9.277,-46.875,-36.621,54.688
1689942995.636,-48.340,-11.719,-53.223,-85.449,-199.219
1689942995.640,-21.484,-16.602,-50.781,-42.969,-126.953
1689942995.642,6.836,-10.254,-42.480,15.625,-19.531
1689942995.646,-0.977,-16.113,-41.016,16.602,-104.004
1689942995.650,-26.367,-29.297,-39.551,-31.250,-166.016
1689942995.654,-43.457,-28.320,-35.645,-75.684,-98.145
1689942995.658,-32.227,-15.625,-34.668,-55.176,-52.734
1689942995.662,-8.789,-17.578,-36.621,12.207,-67.383
1689942995.666,5.859,-18.066,-35.156,33.203,-106.934
1689942995.669,-0.977,-19.043,-28.809,-10.254,73.730
1689942995.673,-22.949,-13.184,-29.785,-55.664,172.363
1689942995.677,-18.066,-20.020,-38.574,-36.133,-120.605
1689942995.681,15.137,-29.297,-35.156,27.344,-90.820
1689942995.685,10.254,-18.066,-25.391,49.805,167.969
1689942995.688,-36.621,-11.719,-35.645,-17.090,41.992
1689942995.692,-47.852,-18.066,-40.527,-77.148,-159.668
1689942995.696,-35.156,-26.855,-34.180,-68.359,12.695
1689942995.700,-19.531,-20.508,-33.691,-33.691,150.879
1689942995.704,-12.207,-10.742,-37.109,0.000,-42.480
1689942995.708,-25.879,-14.160,-37.598,-21.973,-106.445
1689942995.712,-51.758,-20.508,-38.086,-89.355,54.688
1689942995.715,-71.777,-26.367,-41.504,-110.840,256.348
1689942995.719,-59.082,-9.277,-45.898,-53.223,60.059
1689942995.723,-42.969,-3.418,-43.945,-3.906,-134.766
1689942995.727,-54.199,-17.578,-44.922,-42.480,-104.004
1689942995.731,-71.777,-14.648,-50.781,-126.465,-167.480
1689942995.732,-79.590,-5.859,-53.711,-156.250,-210.449
1689942995.736,-72.754,-0.488,-51.758,-104.004,-155.273
1689942995.740,-42.969,-1.465,-49.316,-53.711,-39.062
1689942995.744,-40.527,7.812,-47.363,-70.312,11.719
1689942995.748,-70.801,8.301,-53.223,-122.070,-44.922
1689942995.752,-69.336,3.418,-52.734,-126.465,-48.340
1689942995.756,-54.688,-5.371,-50.293,-74.707,187.012
1689942995.759,-38.574,-12.695,-54.688,-27.832,510.742
1689942995.763,-47.363,-5.859,-56.152,-39.551,90.332
1689942995.767,-57.129,-12.207,-47.852,-91.309,-169.434
1689942995.771,-46.387,-12.695,-41.504,-116.699,24.414
1689942995.775,-33.691,-1.465,-39.062,-74.707,-167.969
1689942995.777,-24.414,3.418,-35.156,-13.672,-329.590
1689942995.781,-20.508,-12.695,-38.086,4.883,-173.828
1689942995.785,-26.367,-23.926,-36.621,-32.715,34.668
1689942995.789,-44.434,-14.648,-37.598,-81.055,-99.609
1689942995.793,-29.785,-12.207,-35.645,-45.898,-257.812
1689942995.797,-5.859,-9.277,-30.762,41.016,-70.312
1689942995.801,3.418,-10.254,-27.344,51.270,255.371
1689942995.804,-19.043,-8.789,-33.203,-19.531,104.004
1689942995.808,-45.898,-6.836,-37.598,-78.125,-209.961
1689942995.812,-30.273,-14.648,-36.133,-56.152,-191.406
1689942995.816,-14.160,-8.301,-32.227,22.461,52.246
1689942995.820,-10.742,-3.418,-31.738,39.062,-37.109
1689942995.822,-10.254,-13.672,-28.809,-2.930,-202.637
1689942995.826,-32.715,-18.066,-30.762,-56.641,-158.203
1689942995.830,-42.969,-16.602,-35.156,-45.898,-93.262
1689942995.834,-7.812,-13.184,-32.227,31.250,-66.895
1689942995.838,8.301,-13.184,-27.832,44.434,-85.938
1689942995.842,-11.230,-15.625,-29.297,-1.465,28.809
1689942995.846,-25.879,-9.277,-29.785,-52.246,63.477
1689942995.849,-24.414,-6.348,-29.297,-50.781,-104.980
1689942995.853,3.906,-10.254,-29.785,11.230,-170.898
1689942995.857,6.348,-17.578,-26.855,43.457,65.430
1689942995.861,-23.438,-16.113,-29.297,0.488,227.539
1689942995.865,-41.992,-10.254,-35.156,-62.012,-14.648
1689942995.882,-35.156,-7.812,-35.156,-59.570,-173.340
1689942995.886,-4.395,-13.672,-29.785,4.883,68.848
1689942995.890,7.324,-3.418,-29.297,41.992,41.016
1689942995.894,5.371,3.906,-32.715,16.113,-190.918
1689942995.898,-14.160,-7.324,-33.691,-30.273,-116.699
1689942995.902,-34.668,-11.230,-33.203,-49.316,31.738
1689942995.906,-28.320,-10.742,-32.715,-3.906,44.434
1689942995.909,-8.301,-11.719,-34.668,40.527,-52.734
1689942995.913,-4.883,-20.508,-30.762,11.719,-85.449
1689942995.917,-20.508,-20.020,-28.320,-42.480,128.418
1689942995.921,-32.227,-1.953,-34.668,-56.641,-5.371
1689942995.925,-15.625,0.488,-30.273,-5.859,-186.523
1689942995.927,8.301,-0.977,-24.414,49.805,-37.598
1689942995.931,5.371,4.883,-22.949,32.227,5.859
1689942995.935,-4.395,4.883,-21.484,-33.203,-134.766
1689942995.939,-3.906,0.977,-26.855,-60.547,-185.059
1689942995.943,-6.348,-5.371,-26.855,-20.508,-85.449
1689942995.947,5.371,-5.371,-23.438,41.992,-22.949
1689942995.951,6.836,-12.207,-26.855,41.016,-53.711
1689942995.954,-25.391,-20.020,-25.391,-18.066,-60.547
1689942995.958,-46.387,-20.020,-25.879,-44.922,62.500
1689942995.962,-35.645,-13.184,-31.738,-8.301,155.273
1689942995.966,-15.625,-8.789,-34.668,28.320,15.625
1689942995.970,6.348,-10.742,-33.691,25.879,-84.961
1689942995.972,-7.324,-24.414,-30.762,-17.090,53.223
1689942995.976,-35.156,-18.555,-36.621,-67.871,4.395
1689942995.980,-35.645,-12.207,-40.527,-47.852,-168.945
1689942995.984,-19.531,-20.508,-40.039,27.344,-60.059
1689942995.988,1.465,-19.043,-39.062,49.316,74.707
1689942995.992,-12.695,-14.648,-37.109,-5.371,20.508
1689942995.996,-28.809,-15.137,-37.598,-59.082,-97.168
1689942995.999,-30.273,-12.695,-37.109,-49.316,-115.234
1689942996.003,-16.113,-7.324,-34.180,13.184,225.098
1689942996.007,-15.137,-7.812,-33.691,19.043,113.770
1689942996.011,-28.809,-17.578,-36.621,-31.738,-194.336
1689942996.015,-44.922,-18.555,-36.621,-64.941,-145.508
1689942996.017,-26.367,-12.695,-39.551,-39.062,-89.355
1689942996.021,-18.555,-16.602,-37.109,8.789,-101.562
1689942996.025,-30.762,-17.578,-31.250,17.090,-123.535
1689942996.029,-42.969,-13.184,-23.438,-20.508,-97.656
1689942996.033,-63.965,-14.160,-24.902,-66.895,-125.488
1689942996.037,-62.988,-20.508,-33.691,-79.590,-82.520
1689942996.041,-54.199,-21.973,-32.227,-48.828,-80.078
1689942996.044,-41.504,-22.461,-30.273,-3.906,138.184
1689942996.048,-54.199,-18.066,-29.297,-28.320,397.949
1689942996.052,-78.613,-13.184,-29.785,-84.961,2.441
1689942996.056,-59.570,-23.926,-31.250,-76.172,-109.863
1689942996.060,-40.527,-27.832,-30.273,-18.066,145.508
1689942996.062,-43.945,-17.578,-33.691,22.461,33.691
1689942996.066,-37.598,-22.949,-32.227,-2.930,-155.762
1689942996.070,-53.223,-24.902,-29.297,-46.875,-148.438
1689942996.074,-55.664,-9.766,-33.203,-57.617,-107.910
1689942996.078,-31.738,-12.207,-34.668,-32.227,-120.117
1689942996.082,-2.930,-20.508,-34.668,23.438,-46.387
1689942996.086,1.953,-25.879,-29.297,36.133,104.980
1689942996.089,-25.391,-36.621,-28.320,-14.648,325.684
1689942996.093,-59.082,-25.391,-38.086,-61.035,160.645
1689942996.097,-41.016,-15.137,-32.715,-26.855,-143.555
1689942996.101,0.000,-11.230,-26.367,39.551,-75.195
1689942996.105,4.395,-6.836,-33.691,38.574,62.500
1689942996.122,2.441,-12.207,-39.062,-33.691,-60.059
1689942996.126,-34.668,-10.254,-35.645,-86.914,-136.719
1689942996.130,-23.438,-5.859,-35.645,-35.645,-49.316
1689942996.134,11.719,-13.184,-37.109,21.484,-40.039
1689942996.138,5.371,-14.648,-36.133,26.367,-69.336
1689942996.142,-4.395,-15.137,-34.668,3.418,-13.184
1689942996.146,-17.090,-20.508,-27.832,-20.508,178.711
1689942996.149,-15.625,-9.766,-30.273,-9.277,215.820
1689942996.153,-11.719,-7.812,-34.180,21.484,-60.547
1689942996.157,-13.184,-18.066,-28.320,48.828,-47.852
1689942996.161,-36.133,-21.484,-28.320,-7.324,100.586
1689942996.165,-50.293,-20.020,-32.715,-72.754,12.695
1689942996.152,-32.715,-16.113,-34.668,-62.012,-80.078
1689942996.156,-8.789,-27.832,-31.738,-4.395,-149.902
1689942996.160,0.977,-30.273,-25.879,37.109,110.352
1689942996.164,-43.945,-14.648,-23.926,-20.996,48.340
1689942996.168,-49.805,-16.602,-31.738,-62.988,-213.379
1689942996.172,-22.461,-20.508,-32.715,-41.504,-49.316
1689942996.176,-17.090,-18.066,-28.809,-16.113,95.703
1689942996.179,-10.254,-14.648,-37.109,10.742,-56.152
1689942996.183,-27.832,-13.672,-40.527,-18.066,-198.242
1689942996.187,-60.547,-21.484,-35.156,-67.871,-102.051
1689942996.191,-43.945,-17.578,-34.668,-39.551,96.680
1689942996.195,-5.371,-6.348,-37.598,4.395,-63.477
1689942996.198,-0.977,-22.461,-38.574,26.855,-207.031
1689942996.202,-21.484,-36.133,-41.992,0.000,-20.020
1689942996.206,-47.363,-22.461,-46.387,-68.848,154.297
1689942996.210,-54.688,-12.695,-47.852,-82.031,-111.816
1689942996.214,-32.227,-17.578,-41.504,-16.602,-185.059
1689942996.218,1.953,-28.809,-34.180,31.250,61.523
1689942996.222,-10.742,-33.203,-37.598,7.324,97.168
1689942996.225,-54.688,-18.555,-45.898,-52.734,-107.422
1689942996.229,-29.297,-13.672,-38.574,-51.758,-257.812
1689942996.233,-1.953,-20.508,-29.785,18.555,46.387
1689942996.237,-26.855,-15.137,-31.250,40.039,344.727
1689942996.241,-26.367,-9.766,-33.691,-6.836,1.953
1689942996.257,-19.531,-18.066,-29.785,-39.062,-166.016
1689942996.261,-33.691,-20.996,-29.297,-48.828,29.297
1689942996.265,-14.648,-13.184,-32.715,-0.977,-23.438
1689942996.269,15.137,-10.742,-31.738,71.289,-141.602
1689942996.273,-4.883,-10.254,-38.574,36.133,-99.609
1689942996.277,-46.387,-15.625,-37.109,-61.035,172.363
1689942996.281,-52.246,-17.090,-30.273,-78.613,19.043
1689942996.284,-41.504,-5.371,-33.203,-48.340,-253.418
1689942996.288,-21.973,-4.395,-27.344,7.324,-104.004
1689942996.292,-8.301,-21.973,-20.508,64.453,101.562
1689942996.296,-22.949,-24.902,-32.227,-37.109,-119.629
1689942996.300,-29.297,-21.973,-38.086,-107.422,-271.973
1689942996.302,-8.301,-20.996,-35.645,-56.641,-109.863
1689942996.306,0.000,-14.648,-38.574,-20.508,-61.523
1689942996.310,-22.461,-9.277,-36.621,8.301,-149.414
1689942996.314,-48.340,-14.648,-30.762,5.859,-155.273
1689942996.318,-30.762,-24.414,-29.297,-44.434,-101.074
1689942996.322,-24.414,-23.926,-32.715,-27.344,-83.008
1689942996.326,-6.348,-17.090,-30.273,15.625,-4.883
1689942996.329,13.672,-7.324,-28.320,21.973,56.152
1689942996.333,-21.484,-16.602,-30.762,-22.949,166.504
1689942996.337,-38.574,-16.602,-27.832,-49.805,392.578
1689942996.341,-27.344,5.371,-32.227,-8.301,61.035
1689942996.345,-18.555,-4.883,-37.598,16.602,-148.438
1689942996.362,-3.906,-15.625,-29.297,33.691,138.672
1689942996.366,-17.090,-1.465,-22.949,12.695,70.312
1689942996.370,-31.250,-4.883,-28.809,-52.734,-178.223
1689942996.374,-28.320,-14.160,-29.297,-31.250,-160.645
1689942996.378,-22.461,-9.766,-28.809,31.738,-101.562
1689942996.382,-5.371,-11.719,-33.691,29.785,-26.855
1689942996.386,-16.602,-15.137,-37.598,-15.137,-72.754
1689942996.389,-42.480,-19.043,-35.645,-47.852,-91.797
1689942996.393,-36.621,-16.602,-33.691,-31.738,309.570
1689942996.397,-22.461,-1.465,-36.621,37.109,213.867
1689942996.401,-21.484,-3.906,-44.434,49.805,-114.258
1689942996.405,-31.250,-15.137,-44.434,-14.160,-61.523
1689942996.392,-52.246,-17.578,-38.574,-45.410,-63.965
1689942996.396,-54.199,-16.113,-41.992,-41.016,-113.770
1689942996.400,-38.086,-19.043,-38.574,-35.645,-70.801
1689942996.404,-29.785,-22.461,-41.504,-3.418,15.137
1689942996.408,-39.062,-14.648,-43.945,-6.348,29.297
1689942996.412,-56.641,-8.789,-36.133,-59.570,37.598
1689942996.416,-60.059,-6.836,-35.645,-58.594,35.156
1689942996.419,-23.926,-9.277,-39.062,-20.996,104.004
1689942996.423,-2.930,-10.742,-34.180,7.324,65.918
1689942996.427,-12.695,-13.672,-31.738,-12.695,-59.570
1689942996.431,-31.250,-12.207,-34.180,-47.852,-91.309
1689942996.435,-51.270,-20.508,-31.250,-63.965,187.988
1689942996.437,-31.250,-20.508,-32.227,-6.348,489.258
1689942996.441,-13.184,-10.254,-34.180,43.945,150.391
1689942996.445,-12.207,-19.531,-30.273,16.113,-110.352
1689942996.449,-21.973,-20.996,-33.203,-42.480,-95.215
1689942996.453,-25.879,-14.648,-34.180,-73.242,-157.227
1689942996.457,-15.625,-7.812,-29.785,-46.387,-125.488
1689942996.461,-0.488,-7.324,-35.645,12.695,1.465
1689942996.464,3.906,-13.184,-35.156,41.504,235.840
1689942996.468,-22.461,-0.977,-35.156,-21.973,42.969
1689942996.472,-48.828,-12.207,-37.109,-75.684,-262.207
1689942996.476,-31.738,-23.926,-27.832,-56.641,-182.129
1689942996.480,-6.836,-19.043,-25.391,1.465,-98.633
1689942996.485,-2.441,-25.879,-27.832,33.691,-111.328
1689942996.489,-16.602,-29.785,-24.902,-26.855,-45.898
1689942996.493,-29.297,-24.414,-26.855,-77.148,-17.090
1689942996.497,-14.160,-12.207,-30.273,-46.387,13.184
1689942996.501,-14.160,-13.672,-32.227,9.277,-40.527
1689942996.505,-11.230,-22.461,-34.668,50.781,-56.641
1689942996.509,-9.766,-27.832,-33.691,8.789,200.684
1689942996.512,-38.086,-22.949,-38.574,-57.617,319.824
1689942996.516,-35.645,-18.066,-39.062,-61.523,-104.004
1689942996.520,5.859,-26.855,-31.738,-22.949,-196.289
1689942996.524,0.488,-25.391,-31.250,8.789,69.824
1689942996.528,-35.645,-25.391,-38.574,-19.531,-37.109
1689942996.527,-38.574,-22.949,-40.527,-67.383,-190.918
1689942996.531,-23.438,-16.113,-35.645,-64.941,-118.164
1689942996.535,-10.742,-8.301,-27.832,-12.695,42.480
1689942996.539,1.465,-2.930,-30.762,15.625,44.922
1689942996.543,-9.766,-15.137,-39.062,-18.555,-66.406
1689942996.547,-23.926,-16.113,-33.203,-51.758,-59.082
1689942996.551,-24.902,-13.672,-26.367,-30.273,300.293
1689942996.554,-13.184,-3.906,-31.250,9.277,458.008
1689942996.558,-5.371,10.742,-30.273,20.020,53.711
1689942996.562,-21.484,3.906,-24.902,24.414,-195.801
1689942996.566,-32.715,0.488,-33.691,-27.832,-164.551
1689942996.570,-32.227,-1.465,-37.109,-64.941,-155.762
1689942996.587,-30.273,-9.277,-33.203,-26.855,-190.918
1689942996.591,-5.859,-11.719,-29.785,28.809,-94.727
1689942996.595,-8.301,-14.648,-30.762,15.137,-51.758
1689942996.599,-43.457,-19.043,-31.738,-33.691,-190.430
1689942996.603,-23.438,-15.137,-32.715,-56.152,-224.609
1689942996.607,-13.672,-17.090,-33.203,-39.062,27.344
1689942996.611,-28.809,-16.602,-30.762,12.207,110.840
1689942996.614,-29.785,-15.137,-25.879,20.996,2.930
1689942996.618,-35.156,-14.160,-24.414,-40.039,-165.527
1689942996.622,-33.203,-21.484,-26.367,-83.984,60.059
1689942996.626,-33.691,-23.926,-27.344,-33.203,452.637
1689942996.630,-22.461,-14.648,-27.832,43.945,39.551
1689942996.632,-7.324,-18.066,-25.879,41.016,-166.992
1689942996.636,-22.461,-17.578,-32.227,-35.156,-67.383
1689942996.640,-32.227,-8.301,-40.527,-95.215,-124.512
1689942996.644,-19.043,-8.789,-41.992,-58.105,-164.062
1689942996.648,-8.301,-4.883,-35.156,2.930,-128.418
1689942996.652,6.348,4.395,-33.691,7.324,-23.438
1689942996.656,-0.488,5.859,-39.062,-44.434,-4.395
1689942996.659,-28.320,6.836,-46.875,-98.145,-107.422
1689942996.663,-41.992,1.465,-54.688,-67.383,-117.676
1689942996.667,-24.902,-3.418,-48.828,-10.742,277.832
1689942996.671,0.000,9.277,-44.434,0.977,172.852
1689942996.675,-24.902,0.488,-49.805,-45.410,-206.055
1689942996.677,-39.551,-13.672,-51.270,-92.773,-184.570
1689942996.681,-17.578,-4.883,-45.410,-71.289,-181.641
1689942996.685,14.160,2.441,-42.480,-1.953,-144.531
1689942996.689,15.625,3.418,-41.016,31.250,-89.355
1689942996.693,-14.648,-0.977,-36.621,2.441,-32.227
1689942996.697,-41.016,-5.371,-39.062,-51.758,31.250
1689942996.701,-24.414,2.441,-43.945,-78.613,-9.766
1689942996.704,6.348,16.113,-41.016,-18.066,-115.723
1689942996.708,6.348,7.324,-38.574,38.574,69.336
1689942996.712,-5.371,9.277,-36.621,-3.906,279.297
1689942996.716,-14.648,13.184,-32.227,-73.730,43.945
1689942996.720,0.488,-2.441,-33.691,-83.008,-88.867
1689942996.722,5.371,-13.672,-34.180,-11.230,131.836
1689942996.726,-7.812,-3.418,-38.574,49.316,153.320
1689942996.730,-9.766,-3.906,-39.062,-12.207,-116.699
1689942996.734,-20.996,-14.160,-33.203,-76.172,-192.871
1689942996.738,-4.395,-9.766,-35.645,-67.871,-139.160
1689942996.742,17.090,-8.789,-37.109,-26.855,-34.180
1689942996.746,8.789,-13.184,-33.691,36.621,8.789
1689942996.749,-0.488,-17.090,-30.273,41.016,-101.074
1689942996.753,-19.043,-21.973,-29.785,-29.785,113.770
1689942996.757,-37.109,-11.719,-30.273,-56.641,-1.953
1689942996.761,-25.879,-12.695,-29.785,-9.277,-232.910
1689942996.765,-3.418,-19.531,-29.785,41.016,-117.676
1689942996.768,-15.625,-17.090,-29.297,31.250,-115.234
1689942996.772,-25.391,-20.020,-33.691,-41.016,-81.055
1689942996.776,-15.625,-26.855,-33.691,-79.590,-80.078
1689942996.780,-12.695,-25.879,-30.762,-36.621,-101.074
1689942996.784,-6.836,-17.090,-33.691,13.184,-25.391
1689942996.788,-8.301,-20.020,-37.109,27.832,2.930
1689942996.792,-20.020,-23.926,-38.574,-28.809,-22.949
1689942996.795,-29.297,-29.785,-35.645,-62.500,167.480
1689942996.799,-22.949,-20.508,-31.738,-23.438,261.230
1689942996.803,-30.273,-16.113,-29.297,10.254,-6.836
1689942996.807,-19.043,-19.531,-35.645,6.836,-37.598
1689942996.811,1.465,-11.719,-36.133,-29.297,97.656
1689942996.812,-13.184,-7.812,-38.086,-66.406,22.461
1689942996.816,-23.926,-10.254,-39.062,-41.016,-187.500
1689942996.820,-20.020,-18.555,-32.715,22.461,-136.719
1689942996.824,-0.488,-23.438,-41.016,25.391,-10.742
1689942996.828,-21.484,-23.438,-43.945,-21.484,-0.977
1689942996.832,-43.945,-19.531,-37.109,-66.406,-80.078
1689942996.836,-27.832,-20.508,-35.156,-71.289,-75.195
1689942996.839,-20.508,-20.508,-30.762,4.395,230.469
1689942996.843,-22.949,-5.859,-32.227,42.969,219.727
1689942996.847,-11.719,-6.836,-33.691,-18.555,-87.891
1689942996.851,-33.691,-13.672,-36.133,-67.871,-139.160
1689942996.855,-44.434,-9.766,-34.668,-34.180,-135.742
1689942996.857,-3.906,-12.207,-32.715,4.883,-97.656
1689942996.861,7.324,-19.043,-34.180,31.738,-89.844
1689942996.865,-20.020,-25.879,-34.668,9.277,-53.223
1689942996.869,-41.504,-22.949,-37.598,-32.227,-46.387
1689942996.873,-29.297,-18.066,-34.668,-37.598,-145.020
1689942996.877,-6.348,-11.719,-35.645,-12.695,-125.000
1689942996.881,-3.906,-15.625,-37.598,15.625,172.363
1689942996.884,-16.113,-13.672,-37.598,-18.555,328.125
1689942996.888,-40.527,-11.230,-43.945,-67.871,-25.879
1689942996.892,-35.156,-24.902,-37.598,-61.035,-159.180
1689942996.896,-9.766,-27.832,-29.785,2.930,173.340
1689942996.900,-8.789,-12.207,-37.598,48.828,213.867
1689942996.902,-23.926,-9.277,-41.992,26.855,-112.793
1689942996.906,-28.809,-20.996,-35.156,-32.227,-189.941
1689942996.910,-36.621,-22.949,-32.227,-56.152,-121.094
1689942996.914,-26.367,-16.602,-30.762,-21.484,-142.090
1689942996.918,0.977,-16.113,-29.785,15.137,-176.270
1689942996.922,-16.602,-22.461,-28.809,21.973,-12.695
1689942996.926,-34.668,-28.809,-29.297,-13.184,287.109
1689942996.929,-23.438,-24.902,-33.203,-73.242,-15.137
1689942996.933,-1.953,-22.949,-36.133,-49.316,-276.367
1689942996.937,2.930,-32.227,-32.227,33.691,-42.480
1689942996.941,-20.020,-29.297,-29.297,34.180,110.352
1689942996.945,-29.297,-18.066,-34.180,-41.016,-96.191
1689942996.947,-15.625,-21.973,-31.738,-69.824,-201.172
1689942996.951,-17.090,-27.344,-23.438,-28.320,-157.227
1689942996.955,-17.578,-22.461,-21.484,15.625,-54.199
1689942996.959,-18.066,-23.438,-19.531,15.137,-65.918
1689942996.963,-28.809,-29.297,-20.020,-21.484,-171.387
1689942996.967,-61.035,-34.668,-20.996,-47.852,-51.758
1689942996.971,-68.359,-33.203,-17.090,-45.898,68.848
1689942996.974,-48.340,-28.809,-17.578,-11.719,-21.484
1689942996.978,-48.828,-30.762,-17.578,28.809,-89.355
1689942996.982,-57.617,-37.598,-9.766,13.672,59.570
1689942996.986,-75.195,-31.738,-10.254,-50.781,110.840
1689942996.990,-55.664,-20.996,-17.578,-60.547,-99.609
1689942997.007,-15.137,-20.508,-18.066,2.930,-102.539
1689942997.011,-18.066,-23.438,-10.742,44.922,152.832
1689942997.015,-34.668,-18.555,-17.578,-7.324,127.441
1689942997.019,-41.504,-20.020,-27.344,-60.059,-156.738
1689942997.023,-57.617,-30.762,-28.320,-47.852,-149.414
1689942997.027,-32.227,-38.086,-30.273,-3.418,8.789
1689942997.031,-2.930,-34.668,-32.715,41.504,59.570
1689942997.034,-27.344,-34.180,-35.156,4.395,-60.059
1689942997.038,-46.387,-42.480,-38.574,-61.523,-96.680
1689942997.042,-45.898,-40.527,-39.062,-55.176,137.695
1689942997.046,-20.020,-23.438,-37.598,-11.719,0.488
1689942997.050,-2.930,-23.438,-37.598,23.438,-171.875
1689942997.053,-29.297,-30.273,-37.598,5.371,-93.750
1689942997.057,-41.504,-30.762,-40.039,-47.363,-56.641
1689942997.061,-33.203,-24.902,-36.133,-53.711,-29.297
1689942997.065,-24.414,-23.926,-29.785,-6.348,-89.844
1689942997.069,-7.324,-27.344,-30.273,30.762,-3.906
1689942997.073,-1.953,-15.137,-30.273,15.625,100.098
1689942997.077,-20.020,-3.906,-30.273,-29.785,-75.195
1689942997.080,-36.133,-8.301,-31.250,-44.434,-175.293
1689942997.084,-27.344,-19.043,-27.344,-20.020,58.105
1689942997.088,-4.883,-14.160,-25.879,41.504,288.086
1689942997.092,-8.301,-13.672,-27.344,49.805,118.164
1689942997.096,-30.762,-14.160,-25.391,-31.738,-65.430
1689942997.097,-35.645,-15.625,-24.902,-69.824,27.832
1689942997.101,-9.277,-16.602,-32.227,-37.598,-74.219
1689942997.105,-6.348,-15.625,-33.691,17.090,-190.430
1689942997.109,-21.484,-22.949,-28.320,21.973,-120.605
1689942997.113,-37.109,-20.996,-28.320,-33.203,-21.973
1689942997.117,-38.086,-13.672,-32.715,-52.734,0.977
1689942997.121,-29.297,-13.672,-31.250,-25.879,-56.152
1689942997.124,-4.395,-13.672,-32.227,13.672,-23.438
1689942997.128,8.301,-16.113,-29.297,28.320,256.348
1689942997.132,-20.020,-0.488,-32.227,-21.484,146.973
1689942997.136,-22.461,-1.465,-34.668,-73.242,-217.773
1689942997.140,-9.766,-10.742,-30.762,-38.086,-217.773
1689942997.142,-7.324,-4.395,-32.227,35.156,-126.953
1689942997.146,-5.371,-4.883,-27.344,44.922,-159.180
1689942997.150,-18.066,-12.207,-29.297,-13.184,-196.777
1689942997.154,-28.809,-18.066,-33.203,-48.828,-110.840
1689942997.158,-33.203,-15.625,-28.809,-43.945,-32.227
1689942997.162,-28.809,-12.207,-25.391,-11.230,-31.250
1689942997.166,-17.578,-13.672,-27.832,27.832,-57.617
1689942997.169,-6.836,-28.320,-26.855,19.531,172.852
1689942997.173,-11.719,-30.273,-25.391,-10.254,398.926
1689942997.177,-10.742,-16.113,-34.180,-15.137,16.113
1689942997.181,24.414,-18.555,-30.762,37.109,-160.156
1689942997.185,42.969,-26.367,-18.066,100.098,79.102
1689942997.187,14.160,-20.996,-18.066,66.406,34.180
1689942997.191,-9.766,-22.949,-27.344,-3.906,-183.105
1689942997.195,-2.930,-27.832,-25.879,-5.859,-166.504
1689942997.199,12.207,-21.484,-25.879,26.367,-106.934
1689942997.203,20.996,-20.996,-28.809,52.734,-113.281
1689942997.207,3.906,-23.926,-23.438,34.668,-78.613
1689942997.211,-9.766,-17.090,-22.461,-9.277,-7.324
1689942997.214,-1.953,-13.672,-23.438,-8.301,250.488
1689942997.218,1.953,-8.301,-28.809,35.156,107.910
1689942997.222,14.648,-12.695,-27.344,82.031,-96.680
1689942997.226,14.160,-16.113,-24.414,45.898,0.977
1689942997.230,-5.371,-10.742,-26.367,-28.320,-29.297
1689942997.232,-9.277,-14.648,-29.785,-39.551,-156.738
1689942997.236,12.695,-19.043,-30.762,18.555,-134.277
1689942997.240,19.043,-20.996,-31.738,64.941,-42.480
1689942997.244,6.348,-13.184,-34.180,48.340,-66.895
1689942997.248,-3.906,-7.324,-35.645,-11.230,-126.953
1689942997.252,-20.996,-17.090,-34.668,-35.645,-192.871
1689942997.256,-9.277,-22.461,-28.320,6.836,74.707
1689942997.259,13.672,-10.742,-26.855,50.781,294.922
1689942997.263,10.254,-9.766,-32.715,43.945,-30.273
1689942997.267,-16.113,-21.973,-32.227,-5.859,-149.902
1689942997.271,-25.391,-24.902,-31.250,-28.809,43.945
1689942997.275,-5.371,-15.625,-38.086,-5.371,-10.742
1689942997.278,16.602,-8.301,-39.551,42.480,-95.703
1689942997.282,24.902,-10.254,-31.250,52.734,-33.691
1689942997.286,-4.883,-14.648,-24.414,9.766,167.480
1689942997.290,-39.551,-8.301,-29.785,-32.715,57.617
1689942997.294,-14.160,-11.230,-30.273,-9.277,-152.344
1689942997.298,18.066,-15.625,-26.855,47.363,13.672
1689942997.302,14.648,-15.625,-28.320,54.199,292.480
1689942997.305,-9.277,-18.066,-38.574,-10.742,12.695
1689942997.309,-12.695,-25.879,-41.504,-39.551,-289.551
1689942997.313,-15.137,-31.738,-36.621,-20.996,-212.402
1689942997.317,-13.672,-26.855,-40.039,2.930,-131.836
1689942997.321,-9.277,-20.508,-41.504,34.180,-110.840
1689942997.337,-29.297,-20.508,-35.645,-10.254,-149.902
1689942997.341,-40.039,-20.020,-33.691,-64.453,-100.098
1689942997.345,-28.809,-19.043,-35.645,-50.293,34.180
1689942997.349,-21.973,-22.949,-36.621,6.836,9.277
1689942997.353,-14.160,-25.879,-34.180,33.203,-56.641
1689942997.357,-25.879,-28.320,-32.227,-4.883,132.324
1689942997.361,-34.668,-20.020,-31.250,-46.387,312.500
1689942997.364,-29.297,-6.348,-33.691,-44.922,-24.414
1689942997.368,-22.949,-11.230,-32.227,2.441,-163.086
1689942997.372,-3.418,-17.090,-27.344,30.273,128.418
1689942997.376,-3.418,-12.207,-32.227,9.277,141.602
1689942997.380,-32.227,-6.348,-31.250,-44.922,-131.348
1689942997.382,-39.062,-6.836,-27.832,-58.594,-172.363
1689942997.386,-12.695,-14.648,-30.762,1.465,132.812
1689942997.390,-0.977,-5.859,-31.250,51.270,158.691
1689942997.394,-9.277,-8.789,-31.250,32.227,-86.914
1689942997.398,-22.461,-24.414,-31.738,-36.621,-97.656
1689942997.402,-27.344,-20.996,-29.785,-46.387,-13.184
1689942997.406,-20.508,-16.113,-30.762,-1.465,-65.918
1689942997.409,-5.371,-16.113,-29.297,19.043,-62.012
1689942997.413,8.789,-17.578,-25.879,7.812,-21.973
1689942997.417,-11.230,-19.043,-25.879,-20.020,235.352
1689942997.421,-49.316,-11.230,-35.156,-43.945,105.957
1689942997.425,-37.598,-9.277,-36.133,-26.855,-162.109
1689942997.427,-20.996,-14.160,-29.785,9.277,-101.074
1689942997.431,-30.762,-18.555,-28.809,-6.348,-80.566
1689942997.435,-60.059,-20.508,-28.809,-66.406,-166.504
1689942997.439,-86.426,-26.855,-23.926,-91.309,-217.773
1689942997.443,-68.848,-33.203,-21.484,-69.336,-162.598
1689942997.447,-52.246,-31.738,-25.391,-27.832,-61.035
1689942997.451,-63.477,-29.297,-27.344,-6.836,14.160
1689942997.454,-88.379,-31.250,-27.832,-43.457,-101.074
1689942997.458,-83.984,-36.133,-25.391,-63.477,42.969
1689942997.462,-69.824,-34.180,-29.297,-50.781,380.859
1689942997.466,-52.734,-20.996,-35.645,-23.926,82.520
1689942997.470,-44.922,-28.809,-37.109,-8.789,-154.297
1689942997.472,-52.246,-38.574,-35.645,-41.504,12.695
1689942997.476,-62.988,-19.043,-34.668,-68.848,-101.562
1689942997.480,-53.223,-16.602,-34.180,-55.176,-284.668
1689942997.484,-24.414,-24.902,-36.133,-8.301,-161.621
1689942997.488,-20.508,-19.531,-36.133,31.738,5.859
1689942997.492,-36.133,-20.020,-32.227,5.859,35.645
1689942997.496,-46.875,-31.250,-31.250,-56.152,-31.250
1689942997.499,-22.461,-32.715,-31.250,-51.270,-80.078
1689942997.503,7.812,-31.250,-31.250,11.719,214.844
1689942997.507,-6.836,-21.973,-31.738,35.645,138.672
1689942997.511,-27.832,-22.949,-35.645,0.977,-68.359
1689942997.515,-38.086,-28.320,-35.156,-60.059,-70.801
1689942997.517,-38.574,-19.531,-30.273,-66.895,-22.461
1689942997.521,-18.066,-13.184,-34.668,-16.113,-57.129
1689942997.525,1.465,-12.695,-34.180,21.973,-91.797
1689942997.529,-6.348,-15.625,-31.250,-0.488,-62.500
1689942997.533,-32.715,-18.066,-35.156,-58.105,-93.750
1689942997.537,-28.320,-20.996,-35.156,-45.410,-94.727
1689942997.541,-12.695,-22.461,-35.645,14.160,-83.008
1689942997.544,-1.953,-20.508,-35.156,48.340,100.098
1689942997.548,-21.973,-16.602,-36.133,19.043,85.938
1689942997.552,-35.156,-16.113,-34.180,-33.203,-117.676
1689942997.556,-23.926,-16.113,-32.227,-25.879,-140.137
1689942997.560,-8.301,-21.484,-29.297,11.230,115.723
1689942997.562,-1.465,-13.672,-29.297,35.156,403.809
1689942997.566,-14.160,-3.418,-41.016,10.742,27.832
1689942997.570,-35.156,-21.484,-40.527,-48.340,-165.039
1689942997.574,-43.945,-27.344,-38.574,-61.523,-101.074
1689942997.578,-24.902,-22.461,-41.992,-13.184,-145.996
1689942997.582,-1.953,-23.926,-36.621,29.297,-79.102
1689942997.586,-7.324,-26.367,-34.180,28.320,16.113
1689942997.589,-33.203,-32.227,-34.180,-11.719,207.031
1689942997.593,-48.828,-18.555,-36.621,-61.035,22.461
1689942997.597,-32.227,-17.578,-37.598,-24.414,-217.773
1689942997.601,-9.277,-23.926,-34.180,36.621,-134.277
1689942997.605,-15.137,-17.578,-36.133,20.508,-96.191
1689942997.607,-31.250,-14.648,-39.551,-29.785,-179.688
1689942997.611,-37.598,-19.043,-38.086,-75.684,-216.309
1689942997.615,-26.855,-19.531,-37.598,-38.574,-81.055
1689942997.619,-16.602,-11.719,-38.574,33.691,-18.066
1689942997.623,-15.625,-14.648,-38.086,30.273,-73.242
1689942997.627,-24.902,-22.461,-37.598,-19.531,-93.262
1689942997.631,-42.969,-34.180,-36.621,-54.688,152.344
1689942997.634,-38.086,-28.809,-33.691,-22.461,390.137
1689942997.638,-25.879,-15.137,-38.574,15.137,7.324
1689942997.642,-12.695,-22.461,-41.504,0.977,-143.555
1689942997.646,-12.207,-25.879,-37.109,-32.227,91.797
1689942997.650,-33.691,-15.137,-38.086,-62.012,-10.742
1689942997.652,-35.156,-9.277,-41.016,-65.430,-194.824
1689942997.656,-13.672,-15.625,-37.109,-20.020,-107.910
1689942997.660,-11.230,-13.184,-35.156,24.902,30.762
1689942997.664,-34.668,-9.766,-36.133,-2.441,-36.133
1689942997.668,-42.969,-11.230,-35.156,-54.199,-189.941
1689942997.672,-27.832,-16.113,-34.180,-40.527,-71.289
1689942997.676,-8.301,-18.555,-32.227,14.160,298.828
1689942997.679,-7.812,-6.836,-32.715,45.410,214.844
1689942997.683,-25.391,-9.277,-34.668,0.000,-106.445
1689942997.687,-29.297,-20.996,-32.715,-56.641,-109.375
1689942997.691,-26.367,-21.973,-27.344,-55.664,73.242
1689942997.695,-17.090,-27.344,-28.809,-7.812,-70.312
1689942997.697,4.883,-24.902,-24.414,32.227,-191.895
1689942997.701,-1.465,-9.766,-26.855,8.789,-127.930
1689942997.705,-18.555,-4.883,-41.992,-51.758,-94.727
1689942997.709,-21.973,-9.277,-44.434,-75.684,-153.809
1689942997.713,-9.277,-16.113,-41.504,-17.090,-147.461
1689942997.717,12.695,-24.902,-35.156,52.734,121.582
1689942997.721,4.883,-16.602,-38.574,28.809,182.129
1689942997.724,-20.020,-11.230,-41.992,-44.922,-45.410
1689942997.728,-18.555,-15.137,-40.039,-69.336,-178.223
1689942997.732,5.859,-18.555,-35.645,-11.230,120.605
1689942997.736,27.344,-18.555,-34.180,52.246,570.801
1689942997.740,24.902,-9.277,-39.062,30.762,90.332
1689942997.757,-3.418,-21.484,-41.504,-29.297,-210.938
1689942997.761,-18.066,-29.297,-46.875,-37.109,-17.090
1689942997.765,7.324,-21.484,-41.016,12.695,-110.352
1689942997.769,24.902,-25.879,-37.109,41.016,-206.543
1689942997.773,3.418,-28.320,-39.551,21.484,-60.547
1689942997.777,-24.414,-27.832,-36.621,-20.996,130.371
1689942997.781,-36.621,-24.902,-39.062,-58.105,95.215
1689942997.784,-28.320,-20.020,-47.852,-36.621,-96.680
1689942997.788,-4.883,-22.461,-46.875,28.809,-144.531
1689942997.792,2.930,-18.555,-42.480,43.945,156.738
1689942997.796,-19.531,-7.812,-45.410,-19.043,68.848
1689942997.800,-36.621,-12.695,-44.434,-64.453,-217.773
1689942997.802,-25.879,-19.531,-46.875,-40.039,-150.391
1689942997.806,-1.465,-18.066,-46.875,10.742,-5.371
1689942997.810,-1.465,-20.996,-41.504,21.973,-63.965
1689942997.814,-21.973,-28.809,-40.039,-15.625,-113.770
1689942997.818,-22.949,-27.832,-38.574,-62.012,-97.656
1689942997.822,-25.879,-17.578,-34.668,-56.152,-81.543
1689942997.826,-16.602,-12.695,-37.109,-2.930,15.137
1689942997.829,-3.906,-13.184,-36.621,37.109,-32.715
1689942997.833,-30.273,-30.273,-34.180,-0.488,67.383
1689942997.837,-46.387,-25.879,-40.039,-77.637,178.223
1689942997.841,-37.598,-11.230,-43.945,-79.590,-7.324
1689942997.845,-21.973,-11.719,-35.156,-1.465,-60.547
1689942997.847,5.859,-10.742,-28.320,45.898,161.621
1689942997.851,-3.906,-4.395,-30.762,3.906,132.812
1689942997.855,-25.879,-7.324,-33.203,-45.410,-202.148
1689942997.859,-8.789,-14.160,-32.715,-45.410,-221.191
1689942997.863,3.906,-15.137,-36.621,8.789,-64.453
1689942997.867,8.301,-17.578,-39.551,56.152,-15.625
1689942997.871,-5.859,-15.625,-37.109,20.996,-75.195
1689942997.874,-39.551,-19.043,-40.039,-46.387,-135.254
1689942997.878,-43.457,-22.949,-40.039,-47.363,114.746
1689942997.882,-21.973,-15.137,-46.387,-17.578,-19.531
1689942997.886,-14.160,-15.137,-50.781,6.836,-217.285
1689942997.890,-29.785,-23.438,-41.992,-13.672,-74.219
1689942997.892,-34.180,-22.949,-37.598,-64.453,-35.156
1689942997.896,-33.691,-19.043,-43.457,-76.660,-134.277
1689942997.900,-23.926,-20.508,-45.898,-23.926,-113.770
1689942997.904,0.488,-25.391,-36.621,48.340,94.727
1689942997.908,-10.742,-19.043,-36.621,16.602,89.844
1689942997.912,-39.062,-16.113,-41.992,-58.594,-58.105
1689942997.916,-40.039,-19.043,-35.645,-60.059,-72.754
1689942997.919,-26.855,-23.926,-35.645,-6.836,75.684
1689942997.923,-17.578,-21.973,-41.016,54.688,239.746
1689942997.927,-25.391,-19.531,-35.156,36.621,-25.391
1689942997.931,-37.598,-30.762,-34.180,-46.387,-127.930
1689942997.935,-35.156,-36.133,-35.645,-74.219,38.086
1689942997.937,-24.414,-20.996,-31.250,-28.809,-31.738
1689942997.941,-15.625,-19.043,-33.691,22.461,-188.965
1689942997.945,-19.531,-27.832,-34.668,25.391,-136.230
1689942997.949,-30.273,-28.320,-31.738,-24.902,-88.867
1689942997.953,-43.457,-24.902,-30.273,-50.293,-155.762
1689942997.957,-36.133,-26.367,-28.320,-27.832,-158.691
1689942997.961,-16.113,-26.855,-30.273,19.531,-33.203
1689942997.964,-13.672,-23.438,-31.250,34.668,364.258
1689942997.968,-26.855,-11.719,-34.668,-30.762,293.945
1689942997.972,-41.504,-16.602,-39.551,-72.754,-156.738
1689942997.976,-36.133,-24.902,-34.180,-32.227,-198.730
1689942997.980,-5.371,-17.578,-27.344,8.789,-114.258
1689942997.982,3.906,-20.996,-32.715,23.926,-125.977
1689942997.986,-24.414,-25.879,-33.203,-8.301,-158.691
1689942997.990,-46.387,-26.855,-34.668,-65.430,-133.789
1689942997.994,-39.551,-23.926,-39.551,-57.129,-96.191
1689942997.998,-8.789,-23.926,-40.039,-5.371,-97.168
1689942998.002,16.602,-25.391,-33.691,33.203,-40.039
1689942998.006,-2.441,-23.926,-29.297,15.137,158.203
1689942998.009,-30.273,-17.090,-32.227,-49.805,277.832
1689942998.013,-30.273,-5.859,-36.621,-58.594,30.273
1689942998.017,-19.043,-4.883,-39.062,-10.742,-124.512
1689942998.021,-6.348,-16.113,-34.180,43.945,195.801
1689942998.025,-10.254,-13.184,-37.598,15.625,261.719
1689942998.027,-22.949,-15.625,-39.551,-51.758,-123.535
1689942998.031,-16.602,-19.531,-31.738,-45.410,-164.551
1689942998.035,-7.812,-16.602,-30.762,7.812,-96.191
1689942998.039,-7.812,-18.555,-33.691,28.809,-126.465
1689942998.043,-13.672,-25.879,-30.762,5.859,-125.977
1689942998.047,-13.672,-34.180,-28.809,-36.621,4.395
1689942998.051,-17.578,-34.180,-32.227,-60.547,339.844
1689942998.054,-22.461,-20.996,-37.598,-28.320,203.613
1689942998.058,-15.137,-20.508,-36.621,21.973,-90.820
1689942998.062,-26.855,-35.645,-36.621,18.066,-67.383
1689942998.066,-39.062,-34.180,-37.109,-43.457,-58.105
1689942998.070,-37.598,-25.879,-37.598,-72.754,-147.461
1689942998.087,-20.996,-23.438,-36.621,-34.180,-172.363
1689942998.091,-1.465,-22.949,-30.273,23.926,-70.312
1689942998.095,4.883,-16.602,-29.785,24.414,24.902
1689942998.099,-21.973,-16.113,-33.691,-16.602,-125.488
1689942998.103,-37.598,-21.973,-31.738,-49.316,-221.191
1689942998.107,-27.344,-23.438,-32.227,-43.457,22.949
1689942998.111,-1.953,-13.184,-32.227,24.902,156.250
1689942998.114,8.789,-9.277,-33.203,41.992,-8.789
1689942998.118,-16.113,-17.578,-30.273,-24.414,-131.836
1689942998.122,-37.109,-28.320,-21.484,-62.500,36.621
1689942998.126,-26.367,-26.855,-23.926,-39.551,169.434
1689942998.130,2.930,-19.531,-33.203,10.254,-104.004
1689942998.132,12.695,-10.742,-38.086,26.367,-150.391
1689942998.136,-18.555,-7.812,-35.156,-24.902,203.125
1689942998.140,-50.781,-3.906,-41.504,-86.426,99.121
1689942998.144,-35.645,-4.883,-48.828,-67.383,-208.008
1689942998.148,-10.254,-7.324,-51.270,0.000,-107.422
1689942998.152,-9.277,-9.277,-55.664,15.625,62.500
1689942998.156,-15.137,-10.254,-52.734,-46.875,24.414
1689942998.159,-44.434,-0.977,-52.734,-88.379,-120.117
1689942998.163,-37.598,-5.859,-58.105,-75.195,-151.855
1689942998.167,-3.906,-14.160,-51.270,-19.043,177.734
1689942998.171,-11.719,-7.324,-52.734,7.812,74.219
1689942998.175,-25.879,-11.230,-53.711,-42.480,-186.035
1689942998.177,-33.203,-12.695,-50.293,-71.289,-192.383
1689942998.181,-37.109,0.000,-51.758,-60.059,-204.102
1689942998.185,-14.648,8.301,-47.852,-28.809,-184.082
1689942998.189,-1.465,-1.465,-43.945,-0.488,-125.000
1689942998.193,-13.184,-6.348,-46.875,-13.184,14.160
1689942998.197,-34.668,-4.883,-49.316,-66.406,98.633
1689942998.201,-45.898,-6.348,-46.875,-79.590,43.457
1689942998.204,-16.113,-2.930,-44.922,-11.719,-67.383
1689942998.208,4.883,-9.766,-41.504,36.133,50.781
1689942998.212,-11.230,-11.230,-38.086,2.930,248.047
1689942998.216,-24.414,-0.977,-38.086,-47.852,-5.859
1689942998.220,-17.578,-9.277,-37.598,-61.035,-141.113
1689942998.222,10.742,-15.137,-33.691,-6.348,105.469
1689942998.226,25.879,-4.883,-33.203,39.062,82.031
1689942998.230,2.441,-11.719,-33.203,19.531,-133.789
1689942998.234,-37.109,-21.973,-39.551,-32.227,-159.180
1689942998.238,-42.969,-22.461,-42.480,-57.129,-132.324
1689942998.242,-16.113,-16.113,-33.691,-12.207,-29.785
1689942998.246,-4.395,-12.207,-36.621,34.668,41.504
1689942998.249,0.977,-19.043,-41.016,16.602,99.609
1689942998.253,-9.766,-18.555,-31.738,-30.762,320.312
1689942998.257,-26.367,0.000,-33.203,-53.223,149.414
1689942998.261,-17.578,1.953,-41.992,-31.250,-161.133
1689942998.265,1.953,-7.812,-41.992,30.762,-81.055
1689942998.266,-8.301,-10.742,-43.457,36.621,-91.797
1689942998.270,-36.621,-16.602,-41.016,-49.805,-182.129
1689942998.274,-39.062,-22.461,-40.527,-86.914,-249.512
1689942998.278,-17.578,-24.414,-37.109,-30.762,-134.766
1689942998.282,3.906,-21.484,-36.621,42.480,0.000
1689942998.286,-0.488,-22.461,-38.574,38.086,-34.180
1689942998.290,-19.043,-20.996,-37.109,-28.809,-93.750
1689942998.293,-23.438,-28.809,-34.180,-54.199,32.715
1689942998.297,-13.184,-25.391,-33.203,-30.762,212.402
1689942998.301,-2.930,-21.484,-40.039,-4.395,2.930
1689942998.305,-5.859,-32.227,-37.109,9.766,-105.469
1689942998.309,-19.531,-27.832,-31.738,-12.695,20.996
1689942998.312,-41.504,-20.020,-34.180,-35.645,-71.289
1689942998.316,-33.691,-17.090,-35.156,-28.320,-192.871
1689942998.320,-10.742,-20.020,-34.180,-6.836,-153.809
1689942998.324,-9.766,-26.855,-34.180,24.414,132.812
1689942998.328,-35.156,-20.020,-34.668,-0.977,140.625
1689942998.332,-33.203,-17.578,-35.645,-53.711,-67.871
1689942998.336,-20.508,-21.973,-33.691,-54.688,-5.371
1689942998.339,-12.207,-24.902,-34.180,11.230,280.273
1689942998.343,-7.324,-16.113,-41.504,41.504,151.367
1689942998.347,3.906,-18.555,-39.551,-5.371,-176.270
1689942998.351,-3.418,-32.227,-36.133,-43.945,-156.250
1689942998.355,-30.762,-27.344,-37.109,-22.949,-105.957
1689942998.357,-22.461,-23.438,-39.551,20.020,-126.465
1689942998.361,-10.742,-29.785,-41.016,33.203,-131.348
1689942998.365,-24.902,-29.785,-34.180,1.465,-59.082
1689942998.369,-31.738,-21.484,-33.691,-63.965,-3.906
1689942998.373,-40.527,-19.531,-34.180,-60.547,-92.285
1689942998.377,-26.367,-25.879,-35.156,8.301,-55.176
1689942998.381,-9.766,-30.762,-39.551,32.227,143.555
1689942998.384,-14.648,-22.461,-41.504,-2.930,111.816
1689942998.388,-32.715,-20.020,-43.945,-50.781,-149.414
1689942998.392,-40.527,-22.461,-40.527,-56.152,-250.000
1689942998.396,-27.832,-27.832,-37.598,2.930,95.215
1689942998.400,-12.695,-25.391,-36.133,36.133,417.969
1689942998.403,-21.484,-17.578,-39.062,2.441,29.785
1689942998.407,-33.203,-23.926,-40.527,-43.945,-138.184
1689942998.411,-35.156,-25.879,-40.039,-57.617,50.293
1689942998.415,-40.527,-24.902,-42.480,-20.020,-100.586
1689942998.419,-27.344,-26.367,-40.527,32.227,-159.668
1689942998.423,-14.160,-25.879,-33.203,32.715,26.367
1689942998.427,-31.738,-24.414,-36.133,-25.391,259.277
1689942998.430,-43.457,-13.184,-42.969,-75.684,52.246
1689942998.434,-12.695,-15.625,-43.945,-51.758,-244.141
1689942998.438,1.953,-18.066,-41.504,14.648,-120.117
1689942998.442,-7.324,-13.184,-37.109,30.273,-32.227
1689942998.446,-20.996,-11.230,-38.574,-15.625,-133.789
1689942998.447,-31.738,-8.789,-39.062,-60.547,-173.340
1689942998.451,-19.531,-9.277,-35.156,-22.461,-128.906
1689942998.455,0.000,-13.672,-38.086,34.668,-104.980
1689942998.459,-6.836,-19.043,-36.133,25.879,-77.148
1689942998.463,-30.273,-20.996,-29.297,-13.672,-68.359
1689942998.467,-39.551,-31.738,-33.203,-40.527,106.934
1689942998.471,-28.809,-28.809,-35.156,-27.832,426.270
1689942998.474,-8.301,-20.020,-33.203,-4.395,98.145
1689942998.478,10.742,-23.438,-34.668,5.371,-156.250
1689942998.482,11.230,-25.391,-38.574,-19.531,-20.020
1689942998.486,-32.227,-23.926,-37.109,-61.035,-63.965
1689942998.490,-41.016,-20.020,-38.574,-58.594,-199.707
1689942998.507,-9.277,-18.555,-37.598,2.441,-187.988
1689942998.511,-7.324,-20.508,-27.832,45.898,65.430
1689942998.515,-27.344,-14.160,-31.250,-0.977,20.508
1689942998.519,-49.316,-7.324,-33.691,-52.734,-205.566
1689942998.523,-40.527,-12.207,-37.109,-35.156,-118.652
1689942998.527,-29.297,-16.602,-42.480,12.695,63.965
1689942998.531,-11.719,-13.672,-40.039,35.645,80.078
1689942998.534,-4.883,-12.207,-41.016,-8.789,-2.441
1689942998.538,-27.832,-17.090,-36.621,-59.570,-64.941
1689942998.542,-41.504,-23.926,-26.855,-53.711,242.676
1689942998.546,-44.434,-11.719,-33.203,-15.625,184.082
1689942998.550,-31.738,-13.672,-31.250,23.438,-115.234
1689942998.552,-25.879,-27.832,-20.996,17.578,-83.496
1689942998.556,-41.992,-24.902,-17.578,-42.480,-68.848
1689942998.560,-55.664,-26.367,-16.602,-67.383,-180.176
1689942998.564,-52.246,-39.062,-13.672,-17.578,-174.316
1689942998.568,-40.039,-48.828,-6.836,38.574,-64.941
1689942998.572,-55.664,-50.781,-3.418,27.832,4.883
1689942998.576,-81.543,-52.246,-9.277,-33.691,-20.508
1689942998.579,-91.309,-52.246,-8.789,-59.570,-149.902
1689942998.583,-75.684,-59.570,-2.930,-8.789,15.625
1689942998.587,-50.781,-56.641,-2.441,33.691,420.410
1689942998.591,-47.852,-39.062,-10.742,10.254,81.055
1689942998.595,-57.129,-42.969,-15.137,-36.621,-230.957
1689942998.597,-47.852,-46.875,-12.207,-36.621,46.875
1689942998.601,-36.621,-35.645,-12.695,0.977,15.137
1689942998.605,-14.648,-32.715,-17.090,55.176,-130.859
1689942998.609,-18.066,-32.227,-19.531,61.523,-103.027
1689942998.613,-33.691,-29.297,-19.531,8.301,-71.289
1689942998.617,-27.832,-24.414,-23.438,-23.926,36.621
1689942998.621,-28.809,-15.625,-24.414,-18.555,-20.020
1689942998.624,-4.395,-14.160,-25.879,15.137,-66.406
1689942998.628,12.695,-17.578,-27.832,47.852,187.500
1689942998.632,-18.555,-10.742,-30.273,-3.906,83.496
1689942998.636,-31.738,-13.184,-34.180,-50.293,-164.551
1689942998.640,-22.949,-19.043,-32.715,-6.836,-90.332
1689942998.641,-10.742,-14.160,-30.273,33.691,14.160
1689942998.645,-17.578,-16.602,-32.715,41.504,-105.957
1689942998.649,-42.969,-29.785,-35.156,8.789,-193.848
1689942998.653,-51.270,-30.273,-34.668,-72.754,-82.520
1689942998.657,-29.297,-20.508,-38.086,-58.594,-39.062
1689942998.661,-13.672,-30.762,-32.715,21.484,-16.602
1689942998.665,-2.930,-32.227,-29.297,29.785,29.297
1689942998.668,-6.348,-27.344,-28.809,-6.348,81.055
1689942998.672,-29.785,-19.531,-27.344,-49.805,124.512
1689942998.676,-42.480,-18.066,-30.762,-50.781,-93.262
1689942998.680,-15.625,-24.902,-29.785,11.719,-67.383
1689942998.684,8.301,-29.297,-25.879,36.621,124.023
1689942998.688,-20.996,-26.367,-32.227,-11.719,-1.465
1689942998.692,-44.922,-26.855,-38.574,-52.734,-179.688
1689942998.696,-31.250,-34.668,-33.203,-33.203,-49.805
1689942998.700,-3.418,-31.738,-32.227,11.230,79.102
1689942998.704,0.977,-26.367,-39.062,24.902,-43.457
1689942998.708,-25.879,-33.203,-40.527,0.000,-106.445
1689942998.712,-47.852,-40.039,-36.621,-50.781,-43.945
1689942998.715,-54.688,-35.156,-38.086,-58.594,179.688
1689942998.719,-27.832,-16.602,-39.551,-28.320,83.984
1689942998.723,-4.395,-16.602,-35.156,10.254,-148.926
1689942998.727,-12.695,-21.973,-30.273,19.043,-128.418
1689942998.731,-34.180,-13.184,-33.203,-27.344,-97.168
1689942998.732,-33.203,-11.719,-35.645,-57.129,-167.969
1689942998.736,-17.578,-10.742,-30.762,-10.254,-195.312
1689942998.740,2.930,-11.719,-26.855,49.805,-106.445
1689942998.744,-0.977,-20.508,-28.320,37.109,-37.598
1689942998.748,-17.578,-23.438,-31.250,-15.625,25.391
1689942998.752,-11.719,-18.066,-28.809,-40.527,-72.266
1689942998.756,-2.930,-22.949,-21.973,-6.348,59.082
1689942998.759,-2.930,-23.926,-24.902,49.805,402.344
1689942998.763,-17.578,-12.207,-34.668,35.156,38.574
1689942998.767,-26.855,-18.555,-35.645,-18.555,-236.816
1689942998.771,-18.555,-27.832,-27.832,-43.945,-29.297
1689942998.775,-21.484,-12.695,-27.344,-29.785,-57.129
1689942998.777,-16.602,-6.836,-37.598,15.137,-181.641
1689942998.781,-12.207,-12.207,-37.109,32.227,-133.301
1689942998.785,-26.855,-15.137,-34.180,-14.160,-22.461
1689942998.789,-45.410,-7.324,-31.250,-66.895,-85.938
1689942998.793,-45.898,-11.719,-31.738,-52.734,-183.594
1689942998.797,-9.277,-19.043,-33.203,22.949,-22.949
1689942998.801,4.395,-12.207,-27.832,70.801,291.992
1689942998.804,-20.996,-3.418,-29.297,5.859,177.734
1689942998.808,-42.480,-5.859,-34.668,-62.012,-135.742
1689942998.812,-30.762,-16.113,-33.691,-49.316,-112.793
1689942998.816,-14.160,-13.672,-30.273,10.742,106.445
1689942998.820,-8.789,-4.395,-32.715,42.480,-44.922
1689942998.822,-27.344,-12.207,-34.180,-0.488,-191.895
1689942998.826,-42.480,-18.066,-38.086,-47.852,-132.324
1689942998.830,-29.785,-16.113,-37.598,-38.574,-119.141
1689942998.834,-18.066,-17.578,-33.203,0.488,-161.133
1689942998.838,-10.254,-15.625,-34.180,24.414,-163.086
1689942998.842,-21.484,-23.926,-31.250,12.695,61.523
1689942998.846,-49.805,-26.367,-33.691,-49.316,135.742
1689942998.849,-41.992,-15.137,-38.086,-74.707,-82.031
1689942998.853,-21.973,-18.555,-35.645,-3.906,-163.574
1689942998.857,-9.277,-26.367,-30.762,49.805,216.309
1689942998.861,-19.531,-15.137,-27.832,3.418,522.461
1689942998.865,-36.621,-4.883,-32.715,-64.941,-4.883
1689942998.882,-32.715,-5.859,-28.320,-72.266,-250.977
1689942998.886,-11.719,-12.207,-22.461,-22.949,8.301
1689942998.890,22.949,-7.812,-29.297,35.645,-27.344
1689942998.894,3.418,-11.719,-34.180,26.367,-140.137
1689942998.898,-49.316,-24.902,-35.645,-38.574,-99.609
1689942998.902,-48.828,-22.949,-30.273,-54.199,65.918
1689942998.906,-36.621,-15.625,-30.273,-13.184,58.105
1689942998.909,-32.715,-20.020,-37.109,9.277,-21.484
1689942998.913,-32.715,-23.926,-36.621,-22.949,-40.527
1689942998.917,-50.781,-24.414,-35.645,-59.570,163.086
1689942998.921,-65.918,-25.391,-41.992,-79.590,13.672
1689942998.925,-63.965,-34.668,-41.016,-76.660,-207.520
1689942998.927,-57.617,-39.551,-40.039,-32.715,-10.254
1689942998.931,-69.824,-35.645,-43.945,-33.691,22.461
1689942998.935,-75.195,-28.320,-38.574,-93.750,-147.461
1689942998.939,-79.102,-24.902,-36.621,-116.699,-204.590
1689942998.943,-73.242,-20.508,-38.574,-70.312,-125.488
1689942998.947,-47.852,-13.672,-40.527,-12.695,41.016
1689942998.951,-41.016,-17.578,-41.992,-3.418,115.234
1689942998.954,-62.500,-21.484,-41.992,-60.547,-81.543
1689942998.958,-61.523,-25.879,-39.551,-96.680,-38.574
1689942998.962,-46.875,-22.461,-37.109,-73.242,129.883
1689942998.966,-31.738,-16.113,-39.062,-20.508,-134.277
1689942998.970,-18.555,-19.531,-34.180,-1.465,-224.121
1689942998.973,-32.227,-25.391,-33.203,-28.320,-8.301
1689942998.977,-54.199,-25.879,-40.527,-61.035,-3.418
1689942998.981,-44.434,-32.715,-38.574,-43.945,-115.723
1689942998.985,-7.812,-35.645,-36.621,-0.488,-120.117
1689942998.989,1.953,-29.785,-35.156,2.441,20.508
1689942998.993,-19.531,-25.391,-39.062,-30.273,14.648
1689942998.997,-36.133,-28.320,-43.457,-63.477,-155.273
1689942999.000,-41.016,-29.785,-41.992,-58.594,-168.945
1689942999.004,-26.855,-21.484,-36.621,-3.906,150.879
1689942999.008,-11.230,-10.254,-35.645,17.090,104.492
1689942999.012,-22.461,-14.648,-35.645,-11.230,-181.641
1689942999.016,-42.969,-23.438,-38.086,-69.336,-160.645
1689942999.017,-49.316,-22.949,-42.480,-76.172,-171.387
1689942999.021,-38.574,-14.160,-36.133,-13.184,-160.645
1689942999.025,-13.184,-8.789,-31.738,11.230,-109.863
1689942999.029,-13.184,-18.066,-35.156,-14.648,-109.863
1689942999.033,-22.949,-17.090,-35.645,-46.875,-74.219
1689942999.037,-15.625,-10.742,-37.109,-66.406,-67.383
1689942999.041,3.906,-7.812,-41.016,-37.109,-108.398
1689942999.044,17.578,-6.348,-31.738,26.367,153.809
1689942999.048,2.441,-3.906,-20.996,40.527,416.016
1689942999.052,-24.902,-1.465,-24.902,-30.273,59.082
1689942999.056,-27.344,-4.395,-26.367,-65.918,-164.551
1689942999.060,-6.836,-10.254,-25.391,0.000,51.758
1689942999.062,8.789,0.488,-30.273,31.250,14.648
1689942999.066,-5.371,-7.812,-28.809,-1.953,-209.473
1689942999.070,-19.531,-12.695,-25.879,-26.367,-204.102
1689942999.074,-20.996,-1.953,-29.297,-37.109,-122.070
1689942999.078,-10.254,-5.859,-29.785,-29.297,-123.047
1689942999.082,16.602,-7.324,-30.762,16.113,-112.793
1689942999.086,5.371,-5.859,-29.785,34.668,-42.969
1689942999.089,-36.133,-10.254,-26.855,-22.461,312.988
1689942999.093,-53.711,2.441,-35.156,-62.988,314.453
1689942999.097,-42.969,-1.465,-42.480,-34.668,-45.410
1689942999.101,-9.277,-9.766,-38.574,12.695,-20.020
1689942999.105,0.000,-6.836,-38.086,19.043,61.523
1689942999.106,-26.367,-7.324,-41.992,-9.766,-105.469
1689942999.110,-50.293,-7.812,-40.039,-39.551,-177.734
1689942999.114,-35.156,-8.789,-37.109,-21.973,-57.129
1689942999.118,-6.836,-11.719,-30.762,39.551,-41.504
1689942999.122,0.977,-8.301,-24.414,48.828,-45.410
1689942999.126,-16.113,-8.301,-30.273,3.418,-19.043
1689942999.130,-35.645,-13.672,-31.250,-34.668,56.641
1689942999.133,-33.203,-10.254,-32.227,-39.551,129.883
1689942999.137,-9.766,-9.277,-39.551,6.348,-62.500
1689942999.141,9.766,-19.043,-34.668,39.062,-147.461
1689942999.145,-0.488,-28.320,-28.320,-11.230,169.434
1689942999.149,-46.875,-22.461,-29.297,-51.758,358.887
1689942999.151,-67.383,-14.648,-36.621,-60.547,-81.055
1689942999.155,-32.227,-20.996,-35.645,-32.715,-221.680
1689942999.159,-10.254,-25.879,-30.273,20.996,-1.953
1689942999.163,-18.066,-27.832,-37.109,6.348,-70.312
1689942999.167,-32.227,-23.926,-40.039,-42.480,-182.617
1689942999.171,-42.480,-23.926,-37.109,-58.105,-64.941
1689942999.175,-45.410,-24.414,-34.668,-20.020,262.207
1689942999.178,-51.758,-22.461,-41.016,4.395,180.664
1689942999.182,-62.988,-23.926,-33.691,-39.551,-96.680
1689942999.186,-68.848,-22.949,-22.949,-75.195,-147.949
1689942999.190,-55.664,-17.578,-31.250,-86.426,-115.234
1689942999.194,-35.156,-15.625,-36.621,-64.941,-105.957
1689942999.199,-28.320,-20.996,-34.668,-18.066,-74.219
1689942999.203,-44.434,-20.020,-36.621,-42.969,-50.293
1689942999.207,-85.938,-16.113,-40.527,-125.488,-48.828
1689942999.211,-102.539,-17.578,-41.504,-150.879,-136.719
1689942999.215,-81.543,-22.461,-38.574,-95.703,-157.227
1689942999.219,-71.289,-26.367,-31.738,-49.316,106.445
1689942999.223,-79.590,-27.832,-30.762,-51.758,175.781
1689942999.226,-83.496,-29.785,-37.598,-94.238,-44.434
1689942999.230,-72.266,-33.691,-38.574,-124.023,-190.430
1689942999.234,-53.711,-38.574,-33.203,-59.570,2.441
1689942999.238,-30.762,-31.738,-34.668,3.906,174.316
1689942999.242,-24.414,-26.855,-36.133,-15.137,-72.266
1689942999.257,-51.758,-36.133,-34.668,-55.664,-153.809
1689942999.261,-79.102,-43.457,-37.598,-83.496,12.695
1689942999.265,-58.105,-39.551,-35.156,-53.711,42.969
1689942999.269,-15.137,-29.297,-34.180,3.418,-42.969
1689942999.273,-3.906,-23.926,-38.086,23.438,-93.750
1689942999.277,-20.996,-32.227,-34.180,-28.320,269.043
1689942999.281,-20.508,-20.020,-33.203,-80.078,410.156
1689942999.284,-20.508,-6.348,-36.621,-61.523,-61.523
1689942999.288,-14.160,-21.484,-36.621,-2.441,-134.277
1689942999.292,-15.137,-30.273,-37.109,15.137,-51.758
1689942999.296,-34.668,-30.273,-41.992,-19.531,-150.391
1689942999.300,-33.203,-27.344,-38.086,-45.898,-188.965
1689942999.302,-7.812,-24.414,-33.691,-33.203,-159.180
1689942999.306,-3.906,-26.855,-39.062,8.789,-97.656
1689942999.310,-9.277,-22.461,-33.691,26.367,-106.934
1689942999.314,-14.648,-21.484,-33.691,-33.203,-153.320
1689942999.318,-25.879,-25.391,-34.668,-73.730,-66.406
1689942999.322,-8.301,-20.020,-31.250,-40.039,1.465
1689942999.326,-2.441,-15.137,-29.785,28.809,-22.949
1689942999.329,-15.137,-15.137,-27.344,42.480,41.504
1689942999.333,-20.996,-22.949,-30.762,-15.137,211.914
1689942999.337,-35.645,-27.832,-32.227,-63.965,371.094
1689942999.341,-38.086,-17.578,-35.645,-63.477,121.094
1689942999.345,-14.160,-16.602,-40.527,-5.371,-96.191
1689942999.347,3.906,-27.344,-34.668,38.086,120.605
1689942999.351,-16.602,-25.879,-35.156,-1.953,41.016
1689942999.355,-44.434,-23.438,-33.203,-57.617,-197.754
1689942999.359,-43.945,-24.414,-30.762,-61.523,-166.016
1689942999.363,-28.320,-29.297,-37.598,-31.738,-101.562
1689942999.367,-22.949,-28.809,-40.527,3.418,-3.418
1689942999.371,-23.438,-25.879,-42.969,-2.441,-33.691
1689942999.374,-28.809,-31.250,-38.086,-50.293,-76.172
1689942999.378,-22.949,-32.227,-32.715,-61.523,203.125
1689942999.382,-17.090,-18.555,-39.551,-19.043,178.711
1689942999.386,-13.184,-17.090,-41.504,19.531,-182.129
1689942999.390,-22.461,-25.391,-38.086,-7.812,-209.473
1689942999.392,-42.480,-20.020,-40.039,-58.594,-136.719
1689942999.396,-49.805,-13.672,-43.945,-63.965,-172.852
1689942999.400,-24.902,-21.484,-45.410,-21.973,-172.852
1689942999.404,-0.977,-30.762,-37.109,22.461,-42.969
1689942999.408,-12.695,-35.156,-33.691,15.137,-3.418
1689942999.412,-37.109,-28.809,-36.621,-33.691,-75.195
1689942999.416,-32.227,-25.391,-34.668,-45.898,-127.441
1689942999.419,3.418,-30.273,-31.738,11.719,60.059
1689942999.423,28.809,-18.066,-28.809,62.500,231.934
1689942999.427,11.719,-14.648,-31.738,24.414,-44.922
1689942999.431,-8.789,-20.996,-31.738,-24.414,-103.027
1689942999.435,-11.230,-28.320,-26.367,-37.598,140.137
1689942999.438,0.488,-25.391,-29.785,-13.184,40.039
1689942999.442,25.391,-18.066,-34.668,42.480,-142.090
1689942999.446,23.438,-26.855,-30.762,48.340,-167.480
1689942999.450,1.465,-24.902,-27.344,-7.812,5.371
1689942999.454,-21.484,-13.184,-35.645,-55.664,-2.930
1689942999.458,-20.996,-21.973,-38.086,-38.574,-121.582
1689942999.462,-6.836,-32.227,-39.062,9.766,0.977
1689942999.465,-8.301,-34.668,-40.527,38.086,259.766
1689942999.469,-27.344,-31.738,-42.969,-23.926,110.352
1689942999.473,-35.645,-35.156,-44.434,-86.914,-209.961
1689942999.477,-14.648,-28.809,-47.852,-51.758,-208.984
1689942999.481,5.371,-22.949,-43.457,6.348,-122.559
1689942999.483,2.441,-28.809,-35.645,23.926,-88.867
1689942999.487,-15.137,-30.273,-32.715,-3.418,-108.398
1689942999.491,-28.809,-40.527,-30.273,-38.086,-148.926
1689942999.495,-20.020,-30.273,-31.250,-45.410,-99.121
1689942999.499,-0.977,-20.020,-37.598,-12.207,-93.750
1689942999.503,8.789,-20.020,-40.039,28.320,-78.613
1689942999.507,-3.418,-21.484,-33.691,18.555,161.621
1689942999.510,-34.668,-22.461,-29.297,-54.688,414.551
1689942999.514,-39.551,-9.277,-37.598,-87.402,24.902
1689942999.518,-12.207,-8.789,-36.133,-20.508,-165.527
1689942999.522,13.184,-12.695,-28.320,35.645,147.461
1689942999.526,-0.977,-3.418,-25.879,6.836,109.375
1689942999.527,-33.691,-5.371,-25.391,-56.152,-198.730
1689942999.531,-34.180,-14.648,-26.367,-58.105,-213.379
1689942999.535,-12.207,-21.973,-24.902,-6.348,-59.082
1689942999.539,6.348,-26.855,-26.367,45.410,-39.551
1689942999.543,-2.930,-24.414,-26.855,36.133,-61.035
1689942999.547,-43.945,-28.320,-24.902,-32.227,27.832
1689942999.551,-43.457,-26.367,-26.367,-60.059,313.965
1689942999.554,-17.578,-12.695,-33.691,-10.742,273.926
1689942999.558,-5.859,-15.137,-38.086,26.367,-49.316
1689942999.562,-8.301,-22.461,-38.574,-5.859,-102.051
1689942999.566,-28.809,-12.207,-38.086,-61.035,-71.777
1689942999.570,-27.344,-13.672,-35.156,-58.105,-153.809
1689942999.572,-15.137,-19.043,-35.645,4.883,-223.633
1689942999.576,-11.719,-14.648,-35.645,27.832,-110.840
1689942999.580,-19.531,-18.555,-37.598,4.883,-24.414
1689942999.584,-24.414,-18.555,-35.156,-35.645,-96.191
1689942999.588,-26.367,-18.066,-37.598,-60.547,-155.273
1689942999.592,-23.438,-24.902,-39.551,-29.785,-30.762
1689942999.596,-7.812,-17.090,-35.156,34.668,47.852
1689942999.599,-15.625,-15.137,-31.250,46.875,60.059
1689942999.603,-28.809,-20.508,-37.109,-1.953,-25.879
1689942999.607,-27.832,-22.949,-35.156,-34.668,112.793
1689942999.611,-23.926,-22.949,-31.250,-9.766,454.102
1689942999.615,-3.906,-8.301,-36.133,26.855,160.645
1689942999.632,-0.977,-11.719,-39.551,16.113,-177.246
1689942999.636,-24.414,-23.438,-38.086,-34.180,-130.371
1689942999.640,-39.062,-19.531,-36.621,-65.430,-142.578
1689942999.644,-29.297,-21.484,-36.133,-41.504,-196.289
1689942999.648,-9.277,-25.879,-32.715,13.184,-120.117
1689942999.652,-0.488,-24.902,-29.297,29.785,48.340
1689942999.656,-17.090,-21.484,-31.250,-20.996,56.641
1689942999.659,-25.879,-17.578,-31.250,-58.105,-138.184
1689942999.663,-4.395,-16.602,-25.879,-33.691,-123.535
1689942999.667,20.020,-10.742,-22.461,29.297,283.203
1689942999.671,10.254,3.906,-27.832,43.457,172.852
1689942999.675,-12.207,-0.488,-32.227,15.625,-146.973
1689942999.677,-33.691,-12.207,-32.715,-31.250,-170.410
1689942999.681,-33.691,-5.859,-29.297,-42.480,-176.758
1689942999.685,-9.277,-3.906,-30.762,1.465,-130.859
1689942999.689,9.277,-4.883,-30.273,20.020,-97.656
1689942999.693,-5.371,-11.230,-30.273,-11.230,-97.656
1689942999.697,-22.461,-18.555,-32.715,-41.504,-53.711
1689942999.701,-17.090,-14.160,-35.156,-35.645,-7.812
1689942999.704,-1.465,-9.766,-34.180,3.418,-97.168
1689942999.708,7.812,-21.973,-31.250,61.523,17.090
1689942999.712,0.977,-26.855,-32.227,44.922,207.520
1689942999.716,-26.367,-24.414,-37.598,-39.551,-13.184
1689942999.720,-34.180,-26.855,-39.062,-41.504,-111.328
1689942999.722,-14.648,-22.461,-37.598,13.672,104.980
1689942999.726,9.766,-7.812,-32.227,30.762,160.645
1689942999.730,14.648,-10.254,-26.855,22.949,-104.980
1689942999.734,-18.555,-26.855,-30.273,-9.766,-187.500
1689942999.738,-49.316,-32.227,-33.691,-50.781,-89.355
1689942999.742,-30.762,-29.785,-30.762,-22.949,-15.137
1689942999.746,-5.859,-19.531,-25.391,35.645,-44.922
1689942999.749,-18.555,-20.020,-25.879,43.945,6.836
1689942999.753,-40.039,-28.809,-25.391,-2.441,189.941
1689942999.757,-43.457,-15.625,-29.785,-69.824,-21.484
1689942999.761,-13.672,-11.230,-29.297,-35.645,-226.562
1689942999.765,5.371,-22.949,-26.855,32.715,-127.930
1689942999.768,-12.207,-24.902,-30.273,21.973,-64.941
1689942999.772,-33.203,-22.949,-32.227,-16.113,-4.395
1689942999.776,-49.805,-27.344,-39.062,-50.781,-115.234
1689942999.780,-48.828,-29.785,-33.691,-30.273,-148.438
1689942999.784,-22.461,-21.484,-35.645,12.207,-36.621
1689942999.788,-13.672,-27.344,-39.551,10.254,54.199
1689942999.792,-25.879,-28.809,-36.621,-16.602,31.250
1689942999.795,-40.039,-28.809,-37.109,-47.363,46.387
1689942999.799,-41.016,-27.832,-41.992,-32.227,206.055
1689942999.803,-22.461,-22.461,-40.527,19.043,0.488
1689942999.807,-8.301,-32.715,-34.180,19.531,-35.156
1689942999.811,-16.113,-35.156,-30.762,-13.672,106.445
1689942999.812,-35.156,-20.508,-27.832,-55.176,-21.973
1689942999.816,-38.574,-21.484,-24.902,-58.105,-204.590
1689942999.820,-11.719,-32.715,-21.484,-0.488,-147.949
1689942999.824,2.441,-31.738,-27.344,26.855,1.465
1689942999.828,-11.719,-19.043,-30.762,-10.254,-55.176
1689942999.832,-9.766,-15.137,-28.809,-43.457,-103.027
1689942999.836,-13.184,-19.043,-30.762,-36.133,-46.875
1689942999.839,-7.812,-22.949,-27.832,14.160,229.980
1689942999.843,-10.254,-20.508,-31.250,38.086,331.543
1689942999.847,-37.598,-14.648,-35.156,-11.230,-105.957
1689942999.851,-64.453,-15.625,-34.180,-73.730,-202.148
1689942999.855,-50.781,-11.719,-38.086,-84.473,-132.324
1689942999.857,-4.883,-6.348,-33.691,-23.926,-160.645
1689942999.861,0.000,-8.301,-28.809,25.391,-184.082
1689942999.865,-12.207,-12.695,-29.297,2.441,-156.250
1689942999.869,-28.320,-3.906,-30.273,-49.316,-78.613
1689942999.873,-30.273,-1.465,-29.785,-60.547,-64.453
1689942999.877,9.766,1.465,-28.320,1.465,-90.332
1689942999.881,23.438,-1.953,-27.832,56.641,121.094
1689942999.884,-8.789,-3.418,-30.273,7.812,444.336
1689942999.888,-36.621,5.371,-34.668,-61.035,68.359
1689942999.892,-35.645,6.348,-31.250,-61.035,-232.422
1689942999.896,-10.742,-3.418,-22.461,-11.719,61.523
1689942999.900,8.301,0.488,-28.809,39.551,194.336
1689942999.903,-0.488,-1.465,-35.645,19.531,-119.141
1689942999.907,-23.438,-13.672,-28.809,-18.555,-165.039
1689942999.911,-34.668,-9.766,-25.391,-23.926,-83.496
1689942999.915,-0.977,-1.953,-27.832,-13.184,-128.418
1689942999.919,20.508,-2.441,-27.832,14.160,-157.715
1689942999.923,-4.395,-8.789,-25.391,13.184,29.785
1689942999.927,-27.832,-10.742,-24.414,-25.879,317.871
1689942999.930,-36.621,1.465,-32.227,-70.801,-5.371
1689942999.934,-26.367,-5.371,-35.645,-56.152,-247.559
1689942999.938,-8.789,-5.859,-35.156,20.508,-83.008
1689942999.942,-0.488,4.395,-34.180,41.504,2.441
1689942999.946,-18.555,-1.953,-36.621,-20.020,-41.016
1689942999.947,-43.457,-14.648,-39.062,-63.477,-133.789
1689942999.951,-17.578,-20.508,-36.621,-33.691,-106.445
1689942999.955,6.348,-10.742,-36.133,30.762,-40.527
1689942999.959,-0.488,-9.766,-33.691,53.223,-52.246
1689942999.963,-19.043,-18.555,-34.668,2.441,-142.578
1689942999.967,-35.156,-27.344,-34.180,-75.684,48.340
1689942999.971,-28.320,-23.926,-28.809,-71.289,381.348
1689942999.974,-25.879,-8.789,-37.109,-7.812,57.129
1689942999.978,-21.973,-16.602,-43.457,25.391,-203.613
1689942999.982,-28.809,-30.762,-40.039,-17.090,41.504
1689942999.986,-57.129,-26.855,-38.574,-65.430,145.508
1689942999.990,-54.199,-27.344,-40.039,-48.340,-58.594
1689943000.007,-25.879,-33.691,-35.645,3.418,-169.922
1689943000.011,-1.953,-34.668,-28.320,31.738,48.340
1689943000.015,-6.836,-26.367,-30.273,-0.977,57.129
1689943000.019,-26.367,-21.973,-32.227,-59.570,-201.660
1689943000.023,-18.555,-21.973,-28.809,-53.223,-198.730
1689943000.027,3.418,-17.578,-27.344,12.695,53.223
1689943000.031,-1.465,-12.695,-29.785,34.668,60.547
1689943000.034,-31.250,-12.207,-33.691,-10.254,-150.879
1689943000.038,-47.852,-25.391,-34.180,-63.477,-139.160
1689943000.042,-50.781,-28.320,-30.762,-57.617,137.207
1689943000.046,-32.227,-13.184,-32.715,-6.348,16.113
1689943000.050,-14.648,-17.090,-36.621,22.461,-140.625
1689943000.053,-27.344,-24.414,-38.574,-19.531,-126.465
1689943000.057,-43.945,-16.602,-33.691,-91.309,-95.215
1689943000.061,-55.664,-9.766,-33.203,-108.398,-120.605
1689943000.065,-57.617,-16.602,-30.762,-75.684,-193.359
1689943000.069,-45.898,-26.855,-22.461,-25.391,-41.504
1689943000.073,-57.617,-27.344,-20.996,-19.531,139.648
1689943000.077,-86.426,-16.602,-29.297,-101.074,22.461
1689943000.080,-108.398,-11.230,-37.109,-157.715,-143.066
1689943000.084,-102.539,-11.230,-36.621,-113.281,-36.133
1689943000.088,-100.098,-1.953,-32.715,-91.797,118.164
1689943000.092,-125.977,-3.418,-35.645,-134.766,0.977
1689943000.096,-147.949,-5.859,-43.457,-193.848,-107.910
1689943000.112,-164.551,-6.348,-43.945,-224.609,25.391
1689943000.116,-173.828,3.418,-55.664,-204.590,96.680
1689943000.120,-158.203,7.324,-60.547,-173.828,-128.906
1689943000.124,-155.762,1.465,-54.199,-167.969,-164.062
1689943000.128,-171.387,3.906,-56.152,-194.336,26.367
1689943000.132,-164.551,12.207,-66.895,-246.094,29.785
1689943000.136,-145.020,17.090,-73.242,-244.141,-50.781
1689943000.139,-115.723,20.996,-66.895,-163.574,-14.648
1689943000.143,-107.910,18.066,-63.965,-127.930,242.188
1689943000.147,-122.559,23.926,-67.871,-168.457,92.773
1689943000.151,-110.352,27.344,-64.941,-192.871,-234.863
1689943000.155,-71.777,16.113,-63.965,-154.297,-137.695
1689943000.157,-39.062,14.160,-64.453,-85.449,155.273
1689943000.161,-31.738,20.996,-66.895,-52.734,4.883
1689943000.165,-44.922,20.996,-61.035,-71.777,-174.316
1689943000.169,-40.527,19.043,-57.129,-116.211,-118.652
1689943000.173,-29.785,12.207,-59.570,-105.957,-117.188
1689943000.177,14.160,3.906,-53.711,-40.039,-19.531
1689943000.181,42.969,-0.488,-48.828,-15.137,58.594
1689943000.184,17.578,-2.441,-43.945,-28.809,70.312
1689943000.188,7.324,2.930,-44.922,-45.898,-54.199
1689943000.192,11.230,-1.465,-47.852,-47.852,-184.082
1689943000.196,18.555,-2.930,-42.480,25.391,-71.289
1689943000.200,33.691,-6.836,-38.086,63.965,147.949
1689943000.186,27.344,-12.207,-35.156,7.324,413.574
1689943000.190,5.859,3.906,-36.621,-41.992,145.020
1689943000.194,13.672,0.488,-38.086,-45.410,-178.223
1689943000.198,41.992,-11.719,-36.621,9.766,-54.688
1689943000.202,53.223,-12.695,-33.691,62.500,-70.801
1689943000.206,38.086,-20.020,-29.785,38.086,-83.984
1689943000.210,12.695,-25.391,-30.273,-19.043,2.441
1689943000.213,8.789,-21.484,-33.691,-22.461,17.578
1689943000.217,32.715,-20.996,-35.645,23.926,-70.801
1689943000.221,41.016,-18.066,-34.180,70.801,-104.980
1689943000.225,20.996,-14.160,-28.320,61.523,-81.543
1689943000.229,5.859,-20.996,-27.344,-2.441,259.277
1689943000.232,-2.930,-11.719,-37.598,-46.387,112.305
1689943000.236,5.859,-9.277,-40.039,-7.324,-252.441
1689943000.240,24.414,-20.996,-38.086,52.734,-153.320
1689943000.244,16.602,-20.996,-31.738,52.734,-124.512
1689943000.248,-8.301,-22.949,-25.391,-3.418,-169.434
1689943000.252,-11.230,-19.043,-30.273,-21.973,-163.086
1689943000.256,15.137,-13.184,-28.320,21.484,62.988
1689943000.259,46.387,-2.441,-20.996,87.402,299.805
1689943000.263,36.621,0.488,-21.484,73.242,-23.926
1689943000.267,2.441,-17.090,-25.879,-8.789,-258.789
1689943000.271,-5.371,-21.484,-23.438,-31.250,-58.105
1689943000.275,6.348,-13.184,-26.855,-1.953,27.344
1689943000.292,13.184,-9.277,-35.156,40.527,-127.930
1689943000.296,12.207,-12.695,-31.250,49.805,-138.184
1689943000.300,-2.441,-19.043,-25.879,12.695,22.461
1689943000.304,-20.020,-8.301,-34.180,-42.480,-63.965
1689943000.308,-9.766,1.953,-34.180,-20.020,-197.266
1689943000.312,10.742,2.441,-18.066,47.363,-43.457
1689943000.316,14.160,0.977,-15.625,60.547,305.176
1689943000.319,-6.348,3.418,-21.484,9.766,106.934
1689943000.323,-19.531,-4.395,-25.391,-41.504,-171.875
1689943000.327,-2.930,-12.207,-29.785,-22.949,-134.766
1689943000.331,19.043,-8.789,-31.738,34.668,-24.414
1689943000.335,10.254,-9.766,-33.203,63.965,-21.973
1689943000.323,-17.090,-22.461,-33.691,25.879,-157.715
1689943000.327,-19.531,-18.066,-26.855,-24.902,-105.469
1689943000.331,-9.766,-6.836,-28.320,-36.133,83.496
1689943000.335,0.000,-8.301,-34.180,7.812,-78.125
1689943000.339,3.418,-8.301,-34.180,68.359,-164.062
1689943000.343,4.883,-10.254,-29.297,22.461,27.344
1689943000.347,-6.836,-12.207,-24.902,-45.410,79.102
1689943000.350,-22.461,-15.137,-23.438,-43.945,-89.355
1689943000.354,-3.906,-12.207,-24.414,6.348,-157.227
1689943000.358,20.996,-16.113,-27.832,46.387,98.145
1689943000.362,16.113,-22.949,-23.926,27.344,495.117
1689943000.366,-6.348,-12.207,-26.367,-29.297,216.309
1689943000.382,-33.203,-16.113,-30.273,-31.738,-134.766
1689943000.386,-41.992,-24.902,-27.832,0.488,-52.734
1689943000.390,-32.715,-20.996,-28.809,19.043,-115.723
1689943000.394,-27.832,-19.531,-28.809,9.277,-190.918
1689943000.398,-42.480,-29.297,-29.297,-58.105,-91.797
1689943000.402,-49.805,-34.180,-30.273,-95.703,151.367
1689943000.406,-30.273,-27.832,-34.668,-60.547,102.051
1689943000.409,-9.766,-20.020,-37.109,-5.859,-133.789
1689943000.413,-11.719,-23.926,-31.250,26.855,-124.512
1689943000.417,-23.438,-28.809,-24.414,10.254,168.457
1689943000.421,-44.922,-21.973,-29.785,-44.922,40.039
1689943000.425,-32.227,-25.879,-29.297,-47.363,-204.102
1689943000.427,-5.371,-31.738,-25.391,18.555,-126.953
1689943000.431,-15.625,-30.762,-34.180,15.625,-68.848
1689943000.435,-30.762,-31.738,-39.062,-42.480,-91.309
1689943000.439,-40.039,-39.062,-34.668,-61.035,-204.102
1689943000.443,-37.598,-45.410,-36.133,-28.809,-118.164
1689943000.447,-18.555,-33.203,-34.180,16.113,28.320
1689943000.451,-20.020,-23.926,-28.320,19.043,28.809
1689943000.454,-38.086,-22.461,-29.297,-13.672,-32.715
1689943000.458,-28.809,-26.855,-28.809,-36.133,-2.441
1689943000.462,-15.137,-27.832,-27.344,-10.254,305.176
1689943000.466,-16.602,-20.508,-37.109,14.160,160.645
1689943000.470,-13.672,-30.273,-41.992,16.602,-154.785
1689943000.472,-13.184,-38.574,-37.598,-14.160,-70.801
1689943000.476,-34.668,-23.926,-36.621,-45.410,-79.102
1689943000.480,-31.250,-18.066,-32.227,-16.113,-203.125
1689943000.484,-0.488,-23.926,-33.691,34.180,-121.094
1689943000.488,-7.812,-21.484,-35.156,22.949,-39.062
1689943000.492,-34.180,-24.902,-39.551,-38.574,-104.004
1689943000.496,-39.551,-30.762,-41.016,-89.355,-142.578
1689943000.499,-21.973,-32.715,-37.109,-60.547,-116.699
1689943000.503,16.113,-31.250,-34.180,27.344,145.996
1689943000.507,9.766,-19.043,-39.551,38.574,157.227
1689943000.511,-8.789,-20.508,-44.922,-10.254,-107.422
1689943000.515,-36.621,-32.715,-38.086,-60.547,-113.770
1689943000.516,-47.363,-24.902,-31.250,-54.688,-14.648
1689943000.520,-18.066,-20.996,-30.762,8.789,-88.867
1689943000.524,1.465,-27.344,-30.273,45.410,-150.879
1689943000.528,-9.277,-28.809,-31.250,2.441,-65.430
1689943000.532,-38.086,-30.273,-36.621,-46.875,-58.105
1689943000.536,-38.086,-29.297,-35.645,-34.180,-31.250
1689943000.540,-14.160,-24.414,-23.926,13.672,47.852
1689943000.543,-5.371,-26.367,-16.113,37.598,166.504
1689943000.547,-37.598,-28.809,-17.578,6.836,296.387
1689943000.551,-88.867,-35.645,-19.531,-68.848,-19.043
1689943000.555,-91.797,-48.340,-7.812,-86.914,-196.777
1689943000.559,-67.871,-57.617,2.441,-37.109,86.914
1689943000.562,-59.570,-52.246,7.324,1.953,180.664
1689943000.566,-59.082,-45.410,17.578,14.648,-122.070
1689943000.570,-64.453,-52.734,18.066,-22.949,-170.410
1689943000.574,-66.895,-58.594,12.695,-57.617,-29.297
1689943000.578,-56.641,-53.711,20.996,-13.672,-47.852
1689943000.582,-43.457,-49.805,22.949,34.180,-86.426
1689943000.586,-50.781,-52.734,15.137,28.320,29.785
1689943000.589,-64.941,-50.781,15.137,-4.395,272.461
1689943000.593,-59.082,-32.227,10.742,-38.086,123.535
1689943000.597,-41.992,-38.574,2.441,-9.766,-161.133
1689943000.601,-19.531,-50.293,1.465,65.430,-94.238
1689943000.605,-4.395,-39.062,-3.418,84.473,-40.039
1689943000.608,-20.020,-34.668,-7.812,33.203,-130.371
1689943000.612,-30.273,-37.109,-7.812,-26.855,-181.152
1689943000.616,-16.602,-42.480,-11.719,-14.648,-53.223
1689943000.620,0.977,-39.551,-17.090,52.246,16.113
1689943000.624,-16.602,-42.969,-23.438,48.828,-59.082
1689943000.628,-33.691,-45.898,-20.020,15.625,-53.223
1689943000.632,-49.805,-43.457,-15.625,-20.020,40.527
1689943000.635,-45.410,-35.156,-17.578,-21.973,215.332
1689943000.639,-12.695,-27.344,-21.973,21.973,-6.836
1689943000.643,0.000,-36.133,-22.461,16.113,-124.512
1689943000.647,-30.762,-41.992,-17.578,-15.137,110.352
1689943000.651,-62.012,-29.785,-22.949,-46.875,18.066
1689943000.652,-49.316,-20.020,-31.738,-41.992,-206.055
1689943000.656,-7.324,-20.996,-30.762,22.461,-113.770
1689943000.660,9.766,-21.484,-25.391,43.945,12.207
1689943000.664,-2.930,-17.090,-22.461,5.859,-67.383
1689943000.668,-14.160,-16.113,-19.531,-35.645,-108.398
1689943000.672,-7.812,-22.461,-21.484,-18.555,12.207
1689943000.676,3.418,-24.414,-23.438,45.410,394.043
1689943000.679,-1.465,-10.254,-29.297,72.266,322.754
1689943000.683,-14.648,-8.301,-34.668,27.344,-165.527
1689943000.687,-31.738,-15.137,-27.832,-39.551,-228.516
1689943000.691,-36.133,-18.555,-27.344,-66.895,-150.391
1689943000.695,-17.090,-20.020,-29.297,-27.344,-164.551
1689943000.697,-5.371,-15.137,-26.855,28.809,-151.367
1689943000.701,-9.277,-11.230,-26.367,10.742,-127.441
1689943000.705,-20.508,-6.836,-24.902,-40.527,-144.531
1689943000.709,-22.461,-6.836,-26.367,-42.969,-197.266
1689943000.713,-7.812,-9.766,-28.320,-11.230,-178.711
1689943000.717,13.672,-14.648,-27.832,35.156,11.719
1689943000.721,3.906,-18.555,-28.320,31.738,179.199
1689943000.724,-22.949,-16.113,-30.273,-32.715,82.520
1689943000.728,-27.832,-12.695,-32.715,-46.387,-121.582
1689943000.732,-16.113,-21.484,-23.926,-1.953,20.020
1689943000.736,-18.555,-23.438,-23.438,17.578,470.215
1689943000.740,-21.973,-16.602,-39.551,-12.207,96.680
1689943000.757,-35.156,-25.391,-39.551,-45.410,-233.398
1689943000.761,-47.852,-30.273,-32.715,-59.570,-91.797
1689943000.765,-26.367,-19.531,-35.645,-36.621,-95.703
1689943000.769,3.906,-21.484,-39.551,-7.812,-163.086
1689943000.773,-0.488,-26.855,-35.156,1.465,-105.469
1689943000.777,-17.090,-24.902,-26.367,-10.742,103.027
1689943000.781,-17.578,-21.973,-25.391,-55.664,15.625
1689943000.784,-12.695,-19.043,-24.902,-39.551,-171.875
1689943000.788,-1.953,-20.996,-27.832,18.555,-102.051
1689943000.792,0.977,-19.531,-22.949,29.785,286.133
1689943000.796,-25.391,-10.254,-27.832,-36.133,178.223
1689943000.800,-32.227,-16.113,-35.156,-73.242,-83.984
1689943000.802,-22.461,-26.367,-30.273,-42.969,-61.523
1689943000.806,-6.836,-25.879,-32.227,0.977,-8.789
1689943000.810,2.441,-21.973,-35.645,18.066,-69.824
1689943000.814,-19.531,-26.367,-31.250,-22.461,-142.090
1689943000.818,-32.715,-25.879,-28.809,-70.801,-105.957
1689943000.822,-32.227,-28.320,-31.738,-59.570,-33.691
1689943000.826,-16.113,-35.645,-36.621,0.977,-16.602
1689943000.829,-5.371,-33.691,-37.109,45.898,-114.258
1689943000.833,-9.277,-35.156,-27.832,8.789,42.480
1689943000.837,-29.785,-36.133,-28.320,-58.105,248.535
1689943000.841,-40.039,-31.250,-35.156,-57.129,15.625
1689943000.845,-18.066,-25.879,-33.691,-0.977,-117.188
1689943000.848,11.719,-34.668,-30.762,33.691,152.344
1689943000.852,-11.230,-28.809,-31.250,-4.395,182.617
1689943000.856,-38.574,-21.484,-31.250,-62.500,-180.664
1689943000.860,-34.180,-25.879,-29.785,-54.199,-206.543
1689943000.864,-19.531,-28.320,-28.320,-8.301,-95.703
1689943000.868,-6.836,-25.879,-27.344,26.367,-11.230
1689943000.872,-12.695,-14.160,-26.855,-0.977,16.602
1689943000.875,-26.855,-11.719,-22.949,-45.898,-133.301
1689943000.879,-22.949,-14.160,-19.531,-41.016,73.730
1689943000.883,-12.207,-10.254,-30.273,-4.395,21.973
1689943000.887,-8.789,-20.020,-33.691,26.367,-161.621
1689943000.891,-21.973,-21.973,-28.320,1.465,-141.602
1689943000.892,-35.645,-19.043,-32.227,-57.617,-143.555
1689943000.896,-32.715,-25.879,-33.203,-89.355,-149.414
1689943000.900,-19.043,-24.902,-27.344,-41.992,-158.203
1689943000.904,2.441,-25.391,-26.855,17.090,-48.828
1689943000.908,0.488,-27.344,-28.809,7.812,2.930
1689943000.912,-17.578,-26.367,-32.227,-48.828,-47.852
1689943000.916,-37.598,-23.438,-30.273,-65.918,-61.523
1689943000.919,-39.551,-25.391,-27.344,-15.137,59.082
1689943000.923,-22.949,-24.902,-30.273,20.020,342.285
1689943000.927,-28.320,-13.672,-34.668,-9.277,75.195
1689943000.931,-39.062,-14.160,-31.250,-42.480,-208.496
1689943000.935,-35.645,-20.996,-24.414,-71.777,-34.668
1689943000.937,-22.949,-11.719,-26.855,-53.711,-39.062
1689943000.941,-17.090,-5.371,-30.273,6.348,-211.914
1689943000.945,-29.785,-8.789,-28.809,22.461,-142.578
1689943000.949,-55.176,-14.160,-27.832,-14.648,-54.199
1689943000.953,-57.617,-22.949,-28.809,-70.801,-116.211
1689943000.957,-39.062,-23.926,-31.250,-66.895,-69.824
1689943000.961,-31.738,-20.508,-31.738,-15.137,66.895
1689943000.964,-16.602,-28.320,-30.762,19.531,433.594
1689943000.968,-21.973,-23.926,-28.320,0.488,332.031
1689943000.972,-43.945,-20.020,-28.809,-64.453,-220.215
1689943000.976,-28.320,-20.508,-31.250,-73.730,-278.809
1689943000.980,0.977,-13.184,-38.574,-8.301,-124.023
1689943000.981,13.184,-11.719,-40.527,48.340,-137.695
1689943000.985,13.184,-13.184,-38.574,18.555,-182.617
1689943000.989,4.395,-16.113,-40.039,-33.203,-158.203
1689943000.993,11.719,-10.742,-43.457,-43.945,-133.301
1689943000.997,38.574,-10.742,-47.852,4.883,-88.379
1689943001.001,49.316,-12.207,-42.480,56.152,-11.719
1689943001.005,43.945,-10.254,-36.133,37.109,106.934
1689943001.008,24.414,-6.836,-40.039,-14.160,252.930
1689943001.012,17.090,2.441,-45.898,-7.324,-81.543
1689943001.016,44.922,-5.371,-40.039,61.035,-220.215
1689943001.020,65.918,-9.766,-31.738,77.637,71.289
1689943001.024,46.387,-3.418,-30.762,8.301,87.891
1689943001.027,17.578,-7.324,-32.227,-37.109,-155.273
1689943001.031,18.555,-11.230,-30.762,-15.137,-193.359
1689943001.035,38.086,-7.812,-27.832,26.855,1.465
1689943001.039,32.715,-2.441,-31.250,54.688,-21.973
1689943001.043,19.531,-10.742,-32.227,59.082,-131.836
1689943001.047,15.625,-16.602,-28.320,-0.488,-28.809
1689943001.051,8.301,-21.973,-27.832,-21.484,265.625
1689943001.054,19.531,-17.578,-26.367,27.832,107.422
1689943001.058,34.668,-16.113,-29.297,63.477,-163.574
1689943001.062,23.438,-26.855,-33.203,42.480,-103.027
1689943001.066,-4.883,-30.273,-31.738,-13.672,-8.301
1689943001.070,-23.926,-19.531,-27.832,-44.922,-112.793
1689943001.087,-8.301,-14.648,-28.809,-22.949,-234.863
1689943001.091,17.090,-14.648,-24.902,47.363,-111.328
1689943001.095,14.648,-16.602,-27.832,62.012,33.203
1689943001.099,7.324,-25.879,-33.203,-2.441,-82.031
1689943001.103,-15.137,-30.273,-34.668,-41.016,-188.477
1689943001.107,-21.973,-37.109,-41.016,-4.883,-28.320
1689943001.111,-3.906,-35.645,-39.551,29.297,144.043
1689943001.114,-6.348,-23.926,-40.039,18.555,-19.043
1689943001.118,-19.043,-23.926,-40.039,-20.508,-195.801
1689943001.122,-37.109,-31.250,-38.574,-61.035,20.508
1689943001.126,-28.809,-20.996,-40.527,-34.180,247.559
1689943001.130,7.812,-13.672,-39.062,28.320,-18.066
1689943001.132,1.465,-23.926,-36.621,34.668,-93.750
1689943001.136,-28.809,-32.715,-36.133,-19.531,138.184
1689943001.140,-37.598,-22.461,-38.574,-75.684,68.359
1689943001.144,-20.020,-19.043,-38.086,-48.828,-189.941
1689943001.148,0.000,-29.785,-39.062,12.207,-138.184
1689943001.152,-3.906,-32.227,-31.250,32.227,95.703
1689943001.156,-27.832,-23.438,-29.297,-0.977,72.754
1689943001.159,-39.551,-19.531,-37.598,-33.203,-86.914
1689943001.163,-25.879,-24.414,-32.715,-22.461,-106.934
1689943001.167,-3.906,-22.949,-27.832,15.625,203.613
1689943001.171,-1.465,-7.324,-31.738,38.574,117.676
1689943001.175,-16.602,-13.672,-38.086,-4.883,-175.293
1689943001.177,-26.855,-20.996,-35.156,-47.363,-166.504
1689943001.181,-20.996,-13.184,-32.227,-19.531,-157.715
1689943001.185,-6.836,-14.648,-32.227,24.414,-133.789
1689943001.189,-7.812,-25.879,-32.227,45.410,-90.820
1689943001.193,-18.066,-35.156,-39.062,16.113,-45.898
1689943001.197,-23.438,-35.645,-38.574,-39.551,26.855
1689943001.201,-29.785,-37.598,-38.086,-55.664,3.906
1689943001.204,-27.344,-29.785,-42.969,-10.254,-72.754
1689943001.208,-18.066,-35.645,-33.691,38.574,65.430
1689943001.212,-13.184,-43.457,-18.066,41.992,294.922
1689943001.216,-27.344,-35.156,-20.020,-2.930,84.961
1689943001.220,-40.527,-38.574,-24.414,-47.852,-91.309
1689943001.222,-13.184,-39.062,-16.602,-1.953,31.250
1689943001.226,7.324,-26.367,-16.113,41.992,44.922
1689943001.230,-5.859,-20.508,-19.531,7.324,-117.188
1689943001.234,-30.762,-20.996,-17.090,-15.625,-95.703
1689943001.238,-33.691,-23.926,-19.531,0.000,-59.082
1689943001.242,-18.066,-25.879,-23.438,22.949,-90.820
1689943001.246,1.953,-29.785,-25.879,47.363,26.367
1689943001.249,2.930,-31.250,-28.809,31.738,102.051
1689943001.253,-12.695,-31.738,-27.344,-11.719,278.809
1689943001.257,-19.043,-21.484,-38.574,-20.508,180.176
1689943001.261,-20.508,-18.066,-47.363,-12.695,-186.035
1689943001.265,-1.465,-28.809,-46.875,23.438,-186.035
1689943001.267,-14.648,-30.762,-47.852,39.551,-104.980
1689943001.271,-23.926,-35.645,-40.527,-11.230,-180.176
1689943001.275,-22.949,-44.434,-40.039,-40.039,-213.379
1689943001.279,-37.598,-39.551,-46.875,10.742,-77.637
1689943001.283,-19.531,-36.133,-44.922,40.527,-22.949
1689943001.287,1.953,-35.645,-41.504,12.207,-43.945
1689943001.291,-22.949,-28.320,-37.598,-37.598,-6.348
1689943001.294,-41.504,-36.133,-35.645,-72.754,62.988
1689943001.298,-22.949,-34.668,-37.598,-26.367,346.191
1689943001.302,-2.930,-20.020,-41.504,17.578,89.844
1689943001.306,13.672,-25.391,-38.086,18.066,-104.004
1689943001.310,-8.789,-41.016,-35.156,6.348,70.312
1689943001.327,-46.387,-36.133,-40.039,-39.551,-35.645
1689943001.331,-41.504,-31.250,-40.527,-56.641,-211.914
1689943001.335,-3.906,-32.715,-36.621,0.488,-172.363
1689943001.339,1.465,-22.461,-36.133,35.156,-44.434
1689943001.343,-20.020,-22.461,-33.691,-0.488,-22.461
1689943001.347,-26.367,-25.879,-35.645,-54.688,-93.262
1689943001.351,-24.414,-27.344,-34.668,-68.359,-71.777
1689943001.354,0.977,-34.668,-30.762,-6.836,180.176
1689943001.358,-7.812,-20.996,-35.156,30.762,113.770
1689943001.362,-39.062,-23.438,-36.133,-6.348,-110.840
1689943001.366,-41.504,-35.645,-33.203,-61.523,-50.781
1689943001.370,-43.457,-26.855,-29.297,-71.777,-21.973
1689943001.356,-30.273,-19.531,-22.461,-15.137,-150.879
1689943001.360,-8.789,-12.695,-21.484,27.832,-180.176
1689943001.364,-12.695,-16.113,-28.320,10.254,-81.055
1689943001.368,-32.227,-26.367,-30.273,-33.691,-35.156
1689943001.372,-33.691,-24.902,-31.250,-55.176,-83.008
1689943001.376,-9.277,-18.555,-28.320,-27.344,-15.625
1689943001.380,6.348,-15.625,-24.414,25.879,116.211
1689943001.383,-14.160,-15.625,-29.297,8.301,30.273
1689943001.387,-37.598,-18.066,-31.250,-42.480,-120.117
1689943001.391,-36.621,-19.531,-30.273,-50.293,-144.043
1689943001.395,-3.906,-20.996,-23.926,-0.977,92.285
1689943001.399,15.137,-9.766,-16.113,52.734,384.766
1689943001.403,2.930,1.953,-19.531,16.602,82.031
1689943001.407,-15.625,-10.254,-22.949,-29.297,-86.914
1689943001.411,-16.602,-16.113,-13.184,-31.738,12.207
1689943001.415,-8.301,-10.742,-9.766,0.977,-82.520
1689943001.419,4.395,-9.277,-13.672,34.180,-155.273
1689943001.423,0.000,-15.625,-10.742,4.395,6.836
1689943001.427,-17.578,-16.113,-8.301,-46.387,276.367
1689943001.430,-26.855,-0.488,-17.578,-66.895,80.566
1689943001.434,-20.996,3.906,-22.461,-44.434,-222.168
1689943001.438,-6.836,2.930,-13.672,23.438,-184.082
1689943001.442,-0.977,2.930,-12.207,50.293,-97.168
1689943001.446,-7.812,-1.953,-12.207,12.695,-128.906
1689943001.447,-7.812,-5.859,-9.766,-33.691,-193.359
1689943001.451,-2.441,-8.301,-10.742,-20.996,-169.434
1689943001.455,0.488,-4.883,-6.836,21.973,-107.422
1689943001.459,-1.953,-9.766,-8.301,21.973,-13.184
1689943001.463,-19.043,-7.324,-15.137,-19.043,-8.789
1689943001.467,-22.949,-10.254,-17.578,-41.992,21.484
1689943001.471,-3.906,-15.625,-16.113,-11.719,311.523
1689943001.474,20.020,-1.465,-20.508,27.344,79.590
1689943001.478,22.949,-2.441,-24.414,38.574,-134.277
1689943001.482,0.000,-9.766,-19.531,12.695,55.176
1689943001.486,-18.066,-7.812,-24.902,-32.715,77.637
1689943001.490,-21.484,-5.371,-27.344,-31.738,-146.484
1689943001.507,8.789,-5.371,-20.020,20.508,-191.895
1689943001.511,21.973,-3.418,-17.578,26.855,42.969
1689943001.515,3.906,1.465,-18.066,-12.695,62.500
1689943001.519,-16.113,0.977,-18.066,-46.875,-172.852
1689943001.523,-11.719,0.488,-18.555,-37.598,-139.160
1689943001.527,11.719,7.324,-17.578,6.348,65.430
1689943001.531,7.812,10.742,-14.160,38.574,56.152
1689943001.534,-6.836,7.324,-15.625,19.531,1.953
1689943001.538,-13.672,9.766,-14.648,-32.715,-76.172
1689943001.542,-9.277,5.371,-14.160,-57.129,166.992
1689943001.546,4.883,13.184,-17.578,-22.461,164.062
1689943001.550,22.461,18.555,-14.160,33.691,-127.930
1689943001.552,12.695,8.301,-7.812,17.578,-83.984
1689943001.556,-11.230,2.930,-3.906,-26.855,-98.145
1689943001.560,-18.066,2.441,-5.859,-20.996,-189.941
1689943001.564,-6.348,0.000,-8.789,-13.184,-201.172
1689943001.568,2.930,-0.977,-11.719,15.137,-100.586
1689943001.572,-11.230,2.441,-14.160,25.391,8.301
1689943001.576,-30.273,0.000,-19.531,-22.949,-127.441
1689943001.579,-30.273,0.488,-18.066,-54.688,-272.949
1689943001.583,-13.184,-2.441,-8.789,-7.324,-62.500
1689943001.587,1.953,-4.883,-7.324,48.340,404.297
1689943001.591,-7.324,0.000,-11.230,23.438,128.418
1689943001.595,-20.508,-0.977,-17.578,-41.504,-223.145
1689943001.597,-12.207,-2.930,-15.625,-56.152,-33.691
1689943001.601,-6.836,3.906,-9.277,-19.531,-34.180
1689943001.605,6.348,3.418,-13.184,35.156,-144.043
1689943001.609,9.766,-4.883,-17.090,52.246,-67.383
1689943001.613,-13.184,-9.277,-13.672,-3.418,-60.059
1689943001.617,-30.273,-0.977,-15.625,-50.781,-93.262
1689943001.621,-26.855,9.766,-16.113,-39.062,-134.766
1689943001.624,8.789,8.301,-6.348,32.715,-87.891
1689943001.628,24.414,4.395,-7.812,68.359,246.094
1689943001.632,-14.160,10.742,-17.090,18.555,154.785
1689943001.636,-32.715,10.742,-19.043,-57.129,-164.062
1689943001.640,0.000,5.859,-18.555,-50.293,-13.672
1689943001.641,35.156,6.348,-17.578,30.273,62.988
1689943001.645,32.227,6.348,-15.625,69.336,-104.492
1689943001.649,-1.465,-3.418,-18.066,7.812,-153.809
1689943001.653,-15.625,-16.113,-17.090,-52.734,-140.625
1689943001.657,-1.953,-18.066,-13.672,-22.949,-104.492
1689943001.661,3.906,-18.066,-11.719,28.809,-42.969
1689943001.665,1.465,-25.391,-14.648,37.109,-67.383
1689943001.668,-3.418,-41.016,-14.648,-1.465,58.594
1689943001.672,-20.508,-40.039,-16.602,-42.969,267.090
1689943001.676,-22.461,-30.762,-24.414,-44.922,51.270
1689943001.680,-4.883,-30.273,-20.996,14.160,-59.082
1689943001.684,3.906,-25.879,-19.531,48.828,92.773
1689943001.688,0.977,-19.531,-21.484,15.625,80.078
1689943001.692,-2.441,-20.020,-22.949,-35.645,-112.793
1689943001.696,-4.883,-26.367,-25.391,-50.781,-128.906
1689943001.700,0.000,-23.438,-22.949,4.395,42.480
1689943001.704,7.324,-13.184,-20.996,47.363,39.551
1689943001.708,5.371,-13.672,-22.461,1.953,-132.812
1689943001.712,-8.789,-15.625,-20.020,-52.734,-127.441
1689943001.715,-18.066,-16.113,-17.578,-34.668,158.691
1689943001.719,-17.090,-6.836,-20.508,2.441,98.145
1689943001.723,-15.625,-11.230,-22.461,25.879,-136.719
1689943001.727,-6.836,-20.020,-22.461,11.719,-128.906
1689943001.731,-9.766,-11.230,-24.902,-12.207,-113.770
1689943001.731,-23.926,-16.113,-24.414,-22.949,-143.066
1689943001.735,-8.301,-18.555,-20.996,-8.789,-133.789
1689943001.739,16.113,-9.277,-19.531,64.941,-100.098
1689943001.743,-2.441,-15.625,-17.578,74.707,-51.270
1689943001.747,-20.996,-20.508,-7.812,3.418,-11.719
1689943001.751,-26.367,-13.184,-4.883,-20.996,-30.273
1689943001.755,-15.137,-18.066,1.953,21.484,87.402
1689943001.758,11.719,-26.855,10.742,77.637,376.465
1689943001.762,14.648,-14.648,-3.418,61.035,95.703
1689943001.766,11.719,-22.949,-8.789,-0.977,-187.500
1689943001.770,-10.742,-34.180,-4.395,-18.066,-1.465
1689943001.774,-15.625,-20.996,-12.695,23.438,7.812
1689943001.777,5.859,-16.113,-20.508,67.871,-139.160
1689943001.781,1.465,-24.414,-21.973,45.898,-142.090
1689943001.785,-20.020,-31.250,-17.090,6.348,-29.297
1689943001.789,-38.574,-22.461,-14.160,-10.254,-58.105
1689943001.793,-26.367,-11.719,-17.578,4.883,-191.895
1689943001.797,1.465,-11.719,-15.625,62.988,-110.840
1689943001.801,13.184,-16.602,-9.766,85.449,216.797
1689943001.804,5.859,-6.836,-15.137,34.180,121.582
1689943001.808,-21.973,5.371,-12.207,-27.344,-203.125
1689943001.812,-16.602,2.441,-4.395,-4.395,-198.242
1689943001.816,-0.488,-0.488,-7.324,56.641,65.918
1689943001.820,18.066,7.812,-16.602,64.941,-15.137
1689943001.822,-9.277,0.488,-18.066,19.531,-172.852
1689943001.826,-34.668,-6.348,-17.090,-18.066,-117.676
1689943001.830,-19.043,-9.766,-17.090,-7.812,-98.633
1689943001.834,-0.488,-16.602,-16.602,25.391,-113.281
1689943001.838,14.648,-15.137,-16.602,60.059,-113.281
1689943001.842,5.371,-19.531,-14.160,38.574,48.828
1689943001.846,-7.812,-20.020,-13.184,-11.719,165.527
1689943001.849,-17.578,-14.648,-20.996,-22.949,22.949
1689943001.853,-8.301,-13.672,-22.949,7.812,-122.070
1689943001.857,0.000,-20.996,-19.531,33.203,211.914
1689943001.861,-29.785,-23.438,-22.461,20.020,511.719
1689943001.865,-48.828,-10.742,-30.762,-36.133,-18.066
1689943001.882,-39.062,-11.719,-28.320,-50.781,-267.578
1689943001.886,-11.719,-13.184,-20.020,-6.836,37.598
1689943001.890,3.906,-8.301,-25.391,36.621,93.750
1689943001.894,-7.812,-21.973,-31.738,25.391,-149.902
1689943001.898,-19.531,-29.297,-29.785,-18.066,-168.457
1689943001.902,-17.578,-24.902,-26.367,-19.531,-11.230
1689943001.906,-10.742,-16.113,-23.438,-2.930,-34.180
1689943001.909,-0.977,-10.254,-24.414,15.625,-104.980
1689943001.913,-10.254,-21.484,-23.438,22.949,-91.797
1689943001.917,-38.086,-31.250,-21.973,-29.785,118.652
1689943001.921,-49.805,-24.902,-26.367,-52.734,-24.414
1689943001.925,-25.391,-23.438,-22.949,-3.418,-117.676
1689943001.927,-0.488,-16.602,-15.137,39.551,-4.395
1689943001.931,-22.949,-6.836,-13.672,16.602,23.926
1689943001.935,-35.156,-4.395,-12.695,-41.992,-83.984
1689943001.939,-32.227,-4.883,-16.113,-71.777,-183.594
1689943001.943,-26.855,-12.207,-15.625,-41.992,-110.352
1689943001.947,-13.184,-11.719,-11.719,36.133,26.855
1689943001.951,-8.789,-8.789,-7.812,71.289,13.184
1689943001.954,-27.344,-9.766,-10.254,-9.766,-113.281
1689943001.958,-38.574,-8.789,-8.301,-64.453,-27.832
1689943001.962,-26.855,-2.441,-4.395,-21.973,259.277
1689943001.966,0.488,-3.418,-9.766,16.113,59.570
1689943001.970,3.906,-1.465,-11.719,31.738,-121.582
1689943001.973,-15.137,-0.488,-6.836,7.324,36.133
1689943001.977,-28.809,-5.859,-9.277,-67.383,7.324
1689943001.981,-25.391,-6.836,-13.672,-65.430,-95.703
1689943001.985,6.348,-9.277,-18.066,9.277,-136.719
1689943001.989,23.438,-12.695,-19.531,30.273,24.902
1689943001.993,-15.137,-13.184,-20.020,-2.930,80.078
1689943001.997,-46.387,-12.695,-23.926,-20.508,-33.691
1689943002.000,-37.109,-17.090,-28.809,-21.484,-77.637
1689943002.004,-7.324,-25.391,-27.832,0.488,168.945
1689943002.008,0.000,-15.137,-28.809,8.789,129.395
1689943002.012,-23.438,-11.230,-23.926,-11.719,-145.996
1689943002.016,-42.480,-20.508,-18.555,-49.316,-95.215
1689943002.032,-36.621,-30.762,-20.996,-62.500,-49.316
1689943002.036,-21.973,-23.926,-26.855,-3.906,-133.789
1689943002.040,-19.043,-15.625,-32.227,4.883,-147.949
1689943002.044,-25.879,-30.273,-36.133,-47.852,-80.078
1689943002.048,-55.664,-35.156,-45.410,-83.496,-33.691
1689943002.052,-66.895,-30.762,-50.781,-100.098,-47.363
1689943002.056,-38.574,-21.973,-55.176,-70.312,-21.973
1689943002.059,-20.020,-20.996,-61.523,-44.434,101.562
1689943002.063,-47.363,-35.156,-59.570,-74.219,332.520
1689943002.067,-96.680,-33.691,-63.965,-122.559,114.746
1689943002.071,-96.680,-36.133,-68.359,-125.000,-65.918
1689943002.075,-48.828,-41.016,-67.871,-88.867,54.199
1689943002.061,-27.832,-36.621,-67.383,-36.133,3.418
1689943002.065,-49.805,-40.039,-66.406,-37.109,-202.637
1689943002.069,-59.082,-40.527,-61.035,-77.637,-209.961
1689943002.073,-58.105,-39.062,-57.129,-96.191,-85.449
1689943002.077,-57.129,-37.109,-59.082,-72.754,-129.883
1689943002.081,-47.363,-31.738,-57.617,-29.785,-133.789
1689943002.085,-28.320,-34.668,-53.711,-38.086,-5.859
1689943002.088,-36.621,-31.738,-55.664,-85.449,175.293
1689943002.092,-62.500,-24.414,-56.152,-108.887,8.789
1689943002.096,-50.781,-32.227,-60.547,-59.082,-167.480
1689943002.100,-21.973,-41.016,-61.035,12.695,-111.328
1689943002.104,-28.809,-46.387,-58.105,10.742,241.211
1689943002.106,-48.340,-33.203,-60.547,-63.965,213.867
1689943002.110,-52.734,-29.297,-56.152,-118.164,-180.664
1689943002.114,-42.969,-36.621,-52.734,-79.590,-189.453
1689943002.118,-30.273,-34.668,-49.805,-18.555,-92.285
1689943002.122,-29.297,-35.156,-51.270,3.906,-113.770
1689943002.126,-42.480,-40.527,-56.152,-34.180,-98.145
1689943002.130,-52.734,-48.828,-53.711,-83.984,78.125
1689943002.133,-58.594,-45.410,-52.734,-72.266,209.473
1689943002.137,-40.527,-37.598,-56.641,-22.949,-37.109
1689943002.141,-27.344,-41.992,-55.664,-11.230,-168.457
1689943002.145,-33.203,-40.527,-44.922,-44.922,120.605
1689943002.149,-58.105,-34.180,-38.574,-81.055,196.289
1689943002.151,-78.613,-33.203,-46.875,-95.215,-163.086
1689943002.155,-73.242,-41.016,-48.340,-59.570,-183.105
1689943002.159,-62.988,-47.852,-44.434,-40.527,-67.383
1689943002.163,-77.148,-48.828,-42.969,-100.098,-152.344
1689943002.167,-122.559,-44.434,-44.922,-165.527,-238.770
1689943002.171,-141.113,-45.410,-42.480,-150.879,-49.316
1689943002.175,-133.789,-50.781,-37.598,-104.980,306.152
1689943002.178,-133.301,-38.574,-47.852,-93.262,152.344
1689943002.182,-148.438,-41.504,-51.758,-146.973,-151.855
1689943002.186,-176.758,-49.805,-46.387,-204.590,-150.879
1689943002.190,-185.059,-43.457,-46.875,-199.219,-97.168
1689943002.194,-173.828,-40.527,-55.176,-153.320,-101.562
1689943002.198,-161.133,-46.875,-58.105,-109.375,-99.121
1689943002.202,-154.297,-48.340,-53.711,-121.582,-90.820
1689943002.206,-154.785,-42.480,-55.664,-177.246,-38.574
1689943002.210,-127.930,-38.086,-54.688,-178.223,-109.863
1689943002.214,-86.426,-32.715,-51.270,-118.164,-174.805
1689943002.218,-78.125,-34.180,-49.805,-54.688,43.945
1689943002.222,-76.660,-38.574,-48.340,-57.617,242.188
1689943002.225,-79.102,-38.086,-47.852,-116.211,-28.809
1689943002.229,-80.566,-36.133,-48.828,-125.977,-216.309
1689943002.233,-53.223,-31.250,-52.734,-81.055,-24.414
1689943002.237,-29.785,-23.438,-51.270,-35.156,128.418
1689943002.241,-38.574,-22.461,-50.781,-42.480,-39.062
1689943002.272,-67.383,-33.203,-49.316,-68.848,-187.988
1689943002.276,-64.941,-37.598,-48.828,-62.500,-32.715
1689943002.280,-35.156,-28.809,-54.688,-37.109,32.715
1689943002.284,-6.836,-14.160,-51.758,4.883,-94.727
1689943002.288,2.441,-14.648,-44.434,10.742,-91.797
1689943002.292,-8.789,-30.762,-46.387,-33.691,197.754
1689943002.296,-26.367,-26.855,-51.270,-66.406,238.770
1689943002.299,-31.250,-15.625,-52.246,-58.594,-49.805
1689943002.303,-5.371,-17.090,-46.875,-11.719,-57.617
1689943002.307,-2.441,-14.160,-44.922,9.766,63.965
1689943002.311,-27.344,-15.625,-50.293,-41.504,-91.309
1689943002.315,-33.203,-29.297,-48.828,-74.219,-210.449
1689943002.301,-19.043,-35.156,-46.875,-31.250,-138.672
1689943002.305,-4.883,-28.809,-45.898,19.043,-93.262
1689943002.309,-8.789,-28.809,-46.875,5.371,-80.566
1689943002.313,-21.973,-41.504,-46.387,-41.016,-41.016
1689943002.317,-34.668,-44.434,-44.922,-62.988,-28.320
1689943002.321,-43.945,-38.574,-46.875,-58.105,42.480
1689943002.325,-28.320,-39.551,-43.945,-24.902,26.855
1689943002.328,-12.695,-41.992,-41.504,-2.930,-20.020
1689943002.332,-30.762,-48.340,-40.039,-19.531,-23.438
1689943002.336,-50.781,-38.086,-45.410,-48.340,-16.113
1689943002.340,-56.152,-26.367,-51.758,-62.988,-22.949
1689943002.344,-37.109,-28.320,-43.457,-28.809,-78.125
1689943002.346,-21.484,-40.039,-36.133,20.508,79.102
1689943002.350,-24.902,-33.691,-34.668,2.441,373.535
1689943002.354,-39.062,-16.113,-39.062,-67.871,95.703
1689943002.358,-34.668,-24.902,-48.340,-62.988,-153.320
1689943002.362,-14.648,-21.973,-43.945,9.766,-61.035
1689943002.366,-0.488,-15.137,-46.387,30.762,16.113
1689943002.370,-7.324,-20.508,-49.805,-8.789,-33.203
1689943002.373,-31.738,-32.227,-43.945,-69.824,-124.512
1689943002.377,-17.578,-45.898,-38.086,-78.613,105.469
1689943002.381,-15.625,-21.973,-38.086,-17.578,161.133
1689943002.385,-15.137,-13.672,-41.992,35.645,-122.070
1689943002.389,-26.855,-35.156,-40.039,20.996,-160.156
1689943002.391,-45.410,-30.762,-39.551,-43.945,-115.723
1689943002.395,-49.805,-23.926,-42.969,-75.684,-169.922
1689943002.399,-41.504,-30.762,-42.969,-47.363,-162.109
1689943002.403,-14.160,-32.715,-41.016,3.418,-58.594
1689943002.407,-11.230,-27.832,-34.180,18.066,-17.090
1689943002.411,-20.508,-28.809,-32.715,-7.812,2.930
1689943002.415,-26.367,-31.738,-37.109,-48.340,-43.945
1689943002.418,-18.555,-39.062,-38.086,-18.555,27.832
1689943002.422,0.977,-33.691,-37.598,49.316,233.398
1689943002.426,-10.254,-27.832,-39.551,25.879,0.977
1689943002.430,-42.480,-32.227,-40.039,-45.898,-121.582
1689943002.434,-48.340,-33.691,-32.227,-71.777,101.562
1689943002.436,-33.203,-23.926,-32.715,-47.363,164.062
1689943002.440,0.000,-15.625,-39.062,1.465,-64.453
1689943002.444,-5.859,-28.809,-34.668,17.578,-133.789
1689943002.448,-39.551,-34.668,-32.715,-31.738,-115.723
1689943002.452,-45.410,-27.832,-30.762,-68.848,-171.875
1689943002.456,-40.039,-18.555,-26.855,-41.504,-146.484
1689943002.460,-27.832,-19.043,-25.879,24.414,28.809
1689943002.463,-18.066,-21.484,-23.926,54.199,276.367
1689943002.467,-35.645,-11.230,-27.832,-11.719,129.883
1689943002.471,-42.969,-10.742,-33.203,-51.270,-181.152
1689943002.475,-34.668,-14.160,-28.320,-38.086,-168.457
1689943002.479,-26.855,-14.160,-27.832,-20.020,-29.297
1689943002.483,-25.391,-20.996,-32.715,18.066,75.195
1689943002.487,-36.133,-23.926,-37.109,-22.949,-39.551
1689943002.491,-42.969,-23.438,-36.621,-78.125,-115.723
1689943002.495,-50.781,-21.973,-37.598,-67.383,-21.484
1689943002.499,-29.785,-27.344,-41.016,-13.672,-78.613
1689943002.503,-12.695,-38.574,-40.039,29.297,-104.004
1689943002.507,-34.180,-42.969,-34.668,6.348,103.516
1689943002.510,-53.223,-39.551,-33.203,-61.035,261.719
1689943002.514,-56.641,-32.227,-38.574,-70.801,-92.773
1689943002.518,-44.434,-41.016,-39.551,-9.766,-241.211
1689943002.522,-20.996,-42.480,-38.574,16.602,49.316
1689943002.526,-24.902,-25.879,-40.527,-15.625,49.805
1689943002.541,-41.504,-21.484,-44.434,-60.547,-191.406
1689943002.545,-28.809,-20.508,-41.992,-60.059,-168.945
1689943002.549,-10.254,-20.508,-40.527,-11.230,-14.160
1689943002.553,-6.348,-22.461,-42.480,32.227,-12.207
1689943002.557,-15.137,-13.184,-33.691,-2.441,-119.629
1689943002.561,-35.645,-18.066,-29.785,-64.941,-59.570
1689943002.565,-42.969,-32.227,-30.273,-62.012,307.129
1689943002.568,-30.273,-19.531,-29.297,-11.719,321.777
1689943002.572,-13.184,-15.137,-31.250,15.137,-110.840
1689943002.576,-24.414,-26.367,-33.203,2.441,-205.566
1689943002.580,-52.734,-22.949,-37.598,-26.367,-132.324
1689943002.584,-52.734,-18.066,-39.551,-52.246,-169.434
1689943002.572,-22.461,-24.414,-39.062,-44.434,-183.594
1689943002.576,0.488,-28.809,-40.527,10.742,-39.062
1689943002.580,-8.301,-22.461,-39.551,29.785,-11.230
1689943002.584,-31.738,-17.578,-40.039,-30.762,-129.395
1689943002.588,-35.156,-20.996,-41.504,-93.750,-170.410
1689943002.592,-18.066,-24.902,-35.645,-54.199,-26.855
1689943002.596,-12.695,-17.090,-27.344,13.672,151.367
1689943002.599,-25.879,-14.160,-28.809,33.691,116.699
1689943002.603,-41.992,-15.137,-30.762,20.508,-82.031
1689943002.607,-42.969,-25.879,-28.809,-29.785,-20.996
1689943002.611,-25.879,-25.391,-29.785,-55.664,428.223
1689943002.615,-8.301,-7.812,-35.156,-21.973,128.418
1689943002.632,-6.348,-11.719,-34.180,8.301,-227.051
1689943002.636,-26.855,-22.461,-36.133,-39.062,-57.617
1689943002.640,-50.293,-19.531,-38.574,-77.637,-171.875
1689943002.644,-40.527,-17.090,-37.109,-42.480,-327.148
1689943002.648,-13.184,-20.996,-35.645,9.277,-121.094
1689943002.652,-9.766,-23.438,-32.227,47.852,147.461
1689943002.656,-26.367,-13.672,-40.527,-12.695,108.887
1689943002.659,-49.805,-8.301,-48.828,-106.445,-27.832
1689943002.663,-58.105,-18.066,-47.363,-96.191,-73.242
1689943002.667,-29.297,-29.297,-41.504,-20.508,202.148
1689943002.671,-22.461,-14.648,-40.527,16.602,197.754
1689943002.675,-25.879,-5.371,-45.410,-36.133,-139.648
1689943002.676,-26.367,-6.836,-41.504,-77.637,-193.359
1689943002.680,-37.598,-3.906,-35.645,-52.734,-148.438
1689943002.684,-15.137,-2.930,-35.156,-22.949,-169.434
1689943002.688,5.859,-8.301,-34.668,19.531,-189.453
1689943002.692,-7.324,-12.207,-31.738,-4.883,-139.160
1689943002.696,-37.109,-2.441,-34.180,-57.617,-62.988
1689943002.700,-40.039,-4.883,-39.551,-49.316,-2.930
1689943002.703,-13.672,-9.766,-39.062,-20.996,-47.852
1689943002.707,-5.371,-9.277,-36.621,14.648,31.738
1689943002.711,-12.695,-8.789,-34.668,12.695,246.582
1689943002.715,-17.578,-4.395,-36.133,-25.391,74.219
1689943002.719,-28.320,-9.277,-37.598,-36.621,-69.824
1689943002.721,-20.508,-11.719,-36.133,-18.555,82.031
1689943002.725,0.000,-3.906,-36.133,16.602,201.660
1689943002.729,-4.883,-6.348,-35.156,21.484,-70.801
1689943002.733,-32.715,-13.184,-33.203,-27.344,-190.430
1689943002.737,-57.129,-16.602,-34.668,-75.195,-104.492
1689943002.741,-45.898,-17.578,-37.109,-40.039,-20.996
1689943002.745,-26.367,-10.254,-37.109,50.293,-24.414
1689943002.748,-26.367,-12.207,-30.762,55.176,-19.531
1689943002.752,-32.715,-21.484,-27.344,-29.297,199.219
1689943002.756,-30.762,-11.719,-32.227,-77.148,78.125
1689943002.760,-8.789,-11.230,-32.715,-43.457,-179.199
1689943002.764,5.859,-22.461,-35.156,13.672,-167.480
1689943002.766,-13.184,-26.855,-38.574,19.043,-67.383
1689943002.770,-42.480,-22.461,-37.598,-36.133,-105.957
1689943002.774,-46.875,-20.508,-43.945,-78.613,-234.375
1689943002.778,-13.184,-27.832,-42.969,-54.199,-118.164
1689943002.782,-6.836,-26.367,-37.109,2.930,-13.672
1689943002.786,-37.109,-35.645,-34.668,20.996,-82.520
1689943002.790,-48.340,-42.969,-32.715,-15.137,-146.973
1689943002.793,-51.270,-39.551,-27.832,-46.875,-4.395
1689943002.797,-40.527,-36.621,-23.438,-42.969,255.371
1689943002.801,-13.184,-30.273,-26.367,4.883,8.301
1689943002.805,-2.930,-32.715,-27.344,23.438,-91.309
1689943002.809,-15.625,-33.691,-29.785,-39.551,53.711
1689943002.812,-27.344,-22.461,-33.691,-96.191,-70.801
1689943002.816,-23.926,-20.996,-33.691,-63.965,-187.500
1689943002.820,-15.137,-27.344,-33.691,31.250,-132.812
1689943002.824,-13.672,-35.156,-32.715,48.340,187.012
1689943002.828,-21.484,-27.832,-30.273,-13.184,248.047
1689943002.832,-41.016,-26.367,-35.156,-60.547,-12.207
1689943002.836,-29.297,-29.785,-28.320,-38.574,-69.824
1689943002.839,-7.812,-30.762,-16.113,37.598,131.836
1689943002.843,-14.648,-23.926,-23.926,33.203,96.680
1689943002.847,-28.809,-24.414,-31.738,-24.902,-166.504
1689943002.851,-43.457,-39.062,-25.391,-44.922,-146.484
1689943002.855,-52.734,-37.109,-25.879,-49.805,-64.941
1689943002.857,-21.973,-25.391,-29.785,-18.066,-80.566
1689943002.861,6.836,-18.066,-31.250,29.785,-88.867
1689943002.865,-12.207,-14.648,-31.250,5.859,-62.012
1689943002.869,-40.527,-14.160,-30.762,-56.152,-76.660
1689943002.873,-41.504,-22.461,-31.738,-78.125,-134.277
1689943002.877,-30.273,-25.879,-26.855,-33.691,-134.277
1689943002.881,-14.160,-27.832,-27.344,20.996,77.637
1689943002.884,-20.996,-27.344,-27.344,11.230,432.617
1689943002.888,-44.434,-15.625,-32.715,-35.156,50.293
1689943002.892,-40.527,-15.137,-27.344,-41.504,-270.996
1689943002.896,-19.531,-17.578,-23.438,-0.488,-7.812
1689943002.900,-12.207,-15.137,-30.762,25.391,40.039
1689943002.902,-22.949,-15.625,-35.156,-1.953,-130.371
1689943002.906,-38.574,-24.902,-41.504,-48.340,-214.844
1689943002.910,-40.039,-32.715,-37.598,-56.152,-23.438
1689943002.914,-36.133,-26.855,-33.203,-26.367,103.027
1689943002.918,-20.508,-20.508,-37.598,-8.301,-91.309
1689943002.922,-12.695,-26.367,-38.574,-13.184,-40.039
1689943002.926,-23.438,-27.344,-30.762,-27.832,273.926
1689943002.929,-37.109,-14.648,-32.715,-50.781,204.590
1689943002.933,-33.203,-21.973,-37.598,-57.617,-85.938
1689943002.937,-17.578,-33.691,-38.574,-18.555,-150.879
1689943002.941,-15.625,-29.785,-36.621,8.301,-21.973
1689943002.945,-29.785,-21.973,-36.621,-29.785,-78.125
1689943002.948,-46.387,-20.996,-30.273,-66.406,-174.805
1689943002.952,-36.133,-24.414,-20.996,-30.762,-189.941
1689943002.956,-19.043,-17.578,-19.531,14.160,-112.793
1689943002.960,-12.207,-8.789,-20.996,11.719,-81.543
1689943002.964,-18.066,-11.719,-24.902,-23.438,-152.344
1689943002.968,-38.574,-17.090,-28.320,-71.777,-19.043
1689943002.972,-35.645,-23.438,-31.738,-66.406,66.895
1689943002.975,-11.719,-20.508,-30.273,7.812,-74.707
1689943002.979,0.000,-18.066,-30.762,51.758,-187.988
1689943002.983,-17.578,-30.762,-31.250,-2.930,46.875
1689943002.987,-31.250,-31.250,-31.738,-55.664,378.906
1689943002.991,-15.137,-23.438,-33.691,-40.527,52.246
1689943003.006,-4.883,-31.738,-36.133,-16.113,-190.918
1689943003.010,-5.371,-46.875,-38.574,0.488,84.961
1689943003.014,-17.578,-41.992,-41.992,-24.902,69.336
1689943003.018,-41.016,-35.645,-40.527,-54.199,-188.477
1689943003.022,-39.062,-34.668,-38.574,-42.480,-146.484
1689943003.026,-10.742,-31.250,-26.855,-4.883,234.375
1689943003.030,4.395,-24.902,-21.973,23.438,196.777
1689943003.033,-14.160,-23.438,-30.273,-3.418,-147.949
1689943003.037,-34.180,-26.367,-31.738,-62.988,-164.551
1689943003.041,-36.133,-23.438,-26.855,-72.754,-36.133
1689943003.045,-23.926,-16.113,-28.320,-23.438,-80.566
1689943003.049,-3.418,-9.277,-26.855,18.066,-220.215
1689943003.053,-14.648,-13.672,-22.461,4.395,-115.723
1689943003.057,-36.133,-17.578,-21.484,-20.508,343.262
1689943003.061,-46.387,-5.371,-24.902,-23.438,125.488
1689943003.065,-37.109,-17.090,-31.738,-10.254,-207.031
1689943003.069,-4.883,-32.715,-32.715,31.250,-62.988
1689943003.073,-12.695,-36.133,-32.227,16.113,73.242
1689943003.077,-27.832,-39.062,-30.273,-28.320,47.852
1689943003.080,-39.551,-38.086,-25.879,-47.852,-110.352
1689943003.084,-37.598,-44.434,-20.020,-23.438,-41.992
1689943003.088,-22.949,-47.363,-18.555,21.973,271.484
1689943003.092,-34.180,-44.434,-21.973,19.531,96.191
1689943003.096,-52.246,-49.805,-14.648,-20.020,-167.969
1689943003.097,-52.246,-56.152,-7.324,-36.621,-68.359
1689943003.101,-40.527,-46.875,-15.625,-33.691,-15.625
1689943003.105,-35.645,-37.109,-17.578,2.441,-143.066
1689943003.109,-36.621,-39.551,-11.719,40.527,-79.590
1689943003.113,-40.527,-37.109,-15.625,11.230,63.965
1689943003.117,-46.875,-35.645,-19.043,-37.598,-45.898
1689943003.121,-33.203,-35.645,-19.043,-53.711,-144.043
1689943003.124,-9.277,-38.086,-23.438,-3.418,-63.965
1689943003.128,-6.348,-40.527,-27.344,53.223,191.406
1689943003.132,-20.508,-24.902,-32.227,18.066,230.957
1689943003.136,-39.062,-29.297,-36.133,-38.574,-90.332
1689943003.140,-43.945,-34.668,-33.691,-27.832,-168.945
1689943003.141,-22.949,-25.391,-30.762,25.879,-108.887
1689943003.145,-19.043,-26.367,-34.180,55.664,-86.914
1689943003.149,-36.621,-31.250,-35.645,-13.184,-98.145
1689943003.153,-39.551,-29.785,-32.227,-72.266,-69.824
1689943003.157,-36.621,-17.578,-36.133,-50.293,-19.531
1689943003.161,-31.250,-19.531,-34.668,20.996,22.461
1689943003.165,-27.344,-18.066,-28.320,66.895,-9.766
1689943003.168,-26.855,-15.137,-30.762,40.039,34.668
1689943003.172,-37.109,-19.531,-29.785,-38.086,277.832
1689943003.176,-46.875,-8.789,-33.691,-58.105,41.992
1689943003.180,-27.832,-11.719,-30.762,-20.996,-214.355
1689943003.184,-7.812,-23.438,-25.879,17.090,-27.344
1689943003.186,-16.113,-17.578,-26.855,13.672,-29.785
1689943003.190,-41.504,-7.812,-26.367,-28.320,-316.895
1689943003.194,-31.250,-12.695,-25.391,-54.199,-324.219
1689943003.198,-2.930,-14.648,-28.320,-21.973,-117.188
1689943003.202,10.742,-6.836,-29.785,17.578,-127.441
1689943003.206,0.977,-6.348,-24.414,9.766,-122.559
1689943003.210,-22.949,-10.742,-28.809,-36.133,-76.172
1689943003.213,-36.621,-15.625,-29.297,-41.504,75.684
1689943003.217,-19.531,-8.301,-28.809,-10.254,122.559
1689943003.221,0.000,-10.254,-33.691,14.648,-142.578
1689943003.225,-4.395,-25.391,-27.832,20.020,-187.988
1689943003.229,-19.043,-25.879,-32.227,-33.691,-43.945
1689943003.231,-42.969,-16.113,-40.527,-63.477,-100.586
1689943003.235,-34.180,-15.137,-37.598,-16.113,-200.195
1689943003.239,-12.695,-25.879,-37.598,26.367,-145.996
1689943003.243,-27.344,-28.809,-33.691,20.508,-79.590
1689943003.247,-43.945,-23.438,-27.832,-39.062,-111.816
1689943003.251,-46.875,-26.855,-27.832,-81.055,-129.883
1689943003.255,-36.621,-30.762,-28.320,-38.574,75.684
1689943003.258,-19.043,-25.879,-34.180,17.090,333.008
1689943003.262,-19.043,-26.367,-41.016,17.578,75.684
1689943003.266,-30.273,-34.668,-36.621,-8.301,-163.574
1689943003.270,-36.133,-31.738,-32.715,-48.340,-0.488
1689943003.274,-18.555,-21.973,-31.738,-34.180,79.102
1689943003.276,11.230,-12.695,-33.691,4.395,-83.496
1689943003.280,10.254,-19.043,-32.227,5.371,-148.438
1689943003.284,-25.391,-33.691,-28.809,-23.926,28.320
1689943003.288,-46.875,-26.855,-30.273,-60.059,37.109
1689943003.292,-40.527,-23.438,-32.227,-50.293,-170.898
1689943003.296,-22.949,-33.203,-29.297,10.742,-69.824
1689943003.300,-17.090,-38.574,-26.855,25.879,276.367
1689943003.303,-37.109,-27.832,-32.715,-19.531,145.508
1689943003.307,-48.828,-28.809,-37.598,-54.199,-182.129
1689943003.311,-43.457,-33.203,-31.250,-41.016,-207.031
1689943003.315,-16.602,-31.250,-30.762,-1.953,-136.230
1689943003.319,5.859,-27.344,-33.691,20.508,-113.281
1689943003.323,-17.090,-26.855,-31.250,-11.719,-168.945
1689943003.327,-35.645,-28.320,-27.344,-51.758,-65.430
1689943003.331,-41.504,-21.973,-29.297,-48.340,18.555
1689943003.335,-24.414,-19.531,-34.668,-8.789,-88.867
1689943003.339,-2.930,-22.461,-35.645,22.949,-121.582
1689943003.343,-20.996,-23.926,-36.133,-2.930,43.457
1689943003.347,-40.527,-18.066,-39.551,-25.391,162.109
1689943003.350,-45.410,-11.719,-44.434,-35.156,-54.688
1689943003.354,-27.832,-10.742,-43.457,-29.785,-184.082
1689943003.358,-9.277,-16.602,-31.250,0.000,-35.645
1689943003.362,-29.297,-18.066,-33.203,0.488,177.246
1689943003.366,-45.898,-16.602,-47.363,-58.105,26.855
1689943003.382,-41.504,-24.414,-48.828,-72.266,-77.637
1689943003.386,-24.414,-31.250,-40.527,-20.020,105.957
1689943003.390,-11.230,-23.926,-40.039,23.926,110.840
1689943003.394,-19.531,-22.461,-38.086,17.090,-45.410
1689943003.398,-34.180,-30.762,-31.738,-33.691,-26.367
1689943003.402,-43.945,-39.062,-33.203,-68.359,257.812
1689943003.406,-34.668,-29.785,-40.527,-30.273,282.227
1689943003.409,-12.207,-19.531,-43.457,0.977,-57.129
1689943003.413,-14.160,-21.484,-37.598,-8.301,-115.723
1689943003.417,-31.250,-16.602,-34.180,-36.133,19.531
1689943003.421,-35.645,-13.184,-36.133,-47.852,-140.625
1689943003.425,-29.785,-22.461,-36.621,-14.648,-229.980
1689943003.427,-11.230,-25.391,-31.250,14.648,-116.211
1689943003.431,-20.020,-20.996,-28.320,-6.348,-33.203
1689943003.435,-43.945,-15.625,-30.273,-54.688,-46.387
1689943003.439,-50.781,-19.531,-33.203,-67.383,-74.219
1689943003.443,-39.551,-20.020,-27.344,-44.922,-44.922
1689943003.447,-14.648,-10.742,-24.414,2.930,39.551
1689943003.451,-15.137,-13.672,-28.809,18.066,44.434
1689943003.454,-42.480,-18.066,-28.320,-36.133,-43.945
1689943003.458,-48.828,-23.926,-28.809,-78.125,-7.324
1689943003.462,-24.414,-30.762,-30.273,-48.340,319.336
1689943003.466,-7.812,-20.020,-32.715,-8.301,266.602
1689943003.470,-8.789,-20.508,-35.156,22.949,-30.762
1689943003.471,-30.273,-30.273,-31.738,-3.418,1.465
1689943003.475,-63.477,-31.250,-36.621,-56.641,-75.684
1689943003.479,-46.387,-33.203,-41.504,-42.969,-228.516
1689943003.483,-20.996,-31.250,-37.109,14.648,-129.883
1689943003.487,-19.531,-32.715,-33.691,55.664,7.812
1689943003.491,-22.949,-35.156,-31.738,21.484,-1.465
1689943003.495,-31.738,-29.297,-31.738,-52.734,-92.285
1689943003.498,-33.203,-21.973,-26.855,-54.688,-156.250
1689943003.502,-1.953,-18.555,-23.438,-1.465,184.570
1689943003.506,2.441,-1.953,-33.203,12.207,266.602
1689943003.510,-25.879,-0.488,-41.016,-8.789,-140.137
1689943003.514,-37.598,-7.324,-40.527,-33.691,-193.848
1689943003.517,-23.926,-3.418,-37.109,-41.992,-103.516
1689943003.521,-8.789,-3.906,-36.621,-16.113,-133.789
1689943003.525,-21.484,-5.371,-34.668,0.977,-116.699
1689943003.529,-32.715,-7.812,-37.598,-10.254,-77.148
1689943003.533,-29.297,-19.531,-40.527,-36.133,-91.797
1689943003.537,-40.527,-28.809,-34.668,-45.410,11.230
1689943003.541,-41.016,-27.344,-31.738,-3.418,55.664
1689943003.544,-29.297,-31.250,-30.273,17.090,111.816
1689943003.548,-33.691,-29.297,-35.156,-19.043,325.684
1689943003.552,-54.199,-21.484,-42.969,-61.035,62.012
1689943003.556,-54.688,-20.020,-41.992,-95.215,-191.895
1689943003.560,-33.203,-16.113,-40.527,-56.152,50.293
1689943003.561,-16.113,-6.348,-41.016,4.395,200.195
1689943003.565,-10.742,-4.883,-40.527,-0.488,-99.609
1689943003.569,-32.715,-17.578,-37.598,-45.410,-194.336
1689943003.573,-41.016,-23.926,-37.598,-77.637,-126.953
1689943003.577,-26.367,-20.996,-37.598,-41.016,-101.074
1689943003.581,-5.371,-27.344,-34.668,19.531,-8.789
1689943003.585,-7.324,-33.203,-36.133,27.832,50.781
1689943003.588,-11.230,-26.367,-31.250,-17.578,208.008
1689943003.592,-21.484,-17.090,-27.832,-33.203,93.750
1689943003.596,-15.137,-20.996,-31.250,-11.230,-144.043
1689943003.600,0.000,-18.066,-32.715,-0.977,-104.004
1689943003.604,-16.113,-9.277,-37.598,-12.207,-96.680
1689943003.608,-34.180,-6.348,-46.387,-50.781,-145.508
1689943003.612,-36.621,-9.277,-48.828,-97.168,-160.645
1689943003.616,-23.926,-13.672,-52.246,-84.961,-76.172
1689943003.620,-8.789,-5.371,-59.570,-17.578,12.695
1689943003.624,-12.695,-11.230,-63.965,-20.508,-32.227
1689943003.628,-30.762,-18.066,-65.918,-65.430,-4.883
1689943003.632,-38.574,-12.207,-61.523,-82.520,170.410
1689943003.635,-35.645,-13.672,-59.570,-67.383,310.059
1689943003.639,-8.301,-6.348,-59.082,-16.602,-20.508
1689943003.643,-3.906,-4.883,-49.805,-6.348,-174.805
1689943003.647,-32.227,-14.160,-48.340,-45.898,-6.348
1689943003.651,-45.410,-0.977,-51.758,-97.656,-40.039
1689943003.652,-37.109,3.906,-52.246,-95.215,-221.680
1689943003.656,-20.020,-8.301,-51.758,-21.484,-199.219
1689943003.660,-5.859,-16.113,-49.805,10.742,-69.824
1689943003.664,-14.160,-13.672,-46.387,-43.457,-70.801
1689943003.668,-29.297,-10.742,-46.387,-71.289,-65.430
1689943003.672,-32.227,-19.043,-48.340,-39.551,-54.199
1689943003.676,-23.926,-29.297,-47.363,18.555,251.953
1689943003.679,-13.184,-15.137,-45.410,20.020,332.031
1689943003.683,-11.230,-0.488,-43.945,-27.344,-106.934
