timestamps,TP9,AF7,AF8,TP10,Right AUX
1688305398.025,-55.176,-41.992,-38.086,-46.387,-324.219
1688305398.029,-23.926,-44.434,-29.297,-14.160,-134.277
1688305398.033,-2.441,-39.551,-20.996,10.254,92.773
1688305398.037,-19.043,-36.133,-38.574,-25.391,45.410
1688305398.041,-43.945,-22.461,-41.016,-52.246,-215.332
1688305398.045,-37.109,-22.949,-15.625,-39.551,-273.926
1688305398.049,-12.207,-16.113,-14.160,-11.230,-118.652
1688305398.052,-3.906,-22.949,-29.785,-5.859,221.680
1688305398.056,-15.625,-47.852,-31.250,-34.668,467.285
1688305398.060,-39.551,-45.410,-28.809,-62.988,-20.508
1688305398.064,-48.828,-39.062,-33.203,-58.105,-442.383
1688305398.068,-18.066,-25.879,-29.785,-16.113,-177.734
1688305398.071,-3.418,-20.020,-31.250,0.000,154.297
1688305398.075,-14.648,-29.297,-31.250,-18.066,26.855
1688305398.079,-32.227,-51.758,-24.414,-38.086,-297.363
1688305398.083,-45.410,-45.898,-23.438,-34.668,-233.398
1688305398.087,-39.062,-23.926,-33.691,-17.090,-143.066
1688305398.091,-27.344,-16.113,-31.738,-2.441,71.289
1688305398.095,-14.648,-27.344,-29.785,-4.395,207.031
1688305398.098,-40.039,-44.434,-38.086,-41.504,174.805
1688305398.102,-48.828,-35.645,-26.367,-54.199,19.043
1688305398.106,-15.137,-37.598,-19.043,-28.809,-271.973
1688305398.110,-15.625,-36.621,-32.227,-14.160,-40.039
1688305398.114,-18.555,-33.203,-29.297,-17.578,120.605
1688305398.118,-34.180,-43.945,-27.832,-50.293,-138.672
1688305398.122,-52.734,-29.297,-26.855,-56.152,-311.523
1688305398.126,-36.621,-22.461,-23.438,-28.809,-198.242
1688305398.130,-19.043,-35.645,-36.133,-15.625,14.160
1688305398.134,-14.160,-28.809,-46.875,-24.902,98.145
1688305398.138,-18.555,-14.160,-35.156,-51.270,-54.688
1688305398.142,-40.527,-21.484,-17.578,-68.848,-94.727
1688305398.145,-32.715,-29.297,-8.789,-44.922,156.250
1688305398.149,-23.926,-40.527,-18.555,-15.625,132.324
1688305398.153,-32.227,-47.363,-28.320,-29.297,185.059
1688305398.157,-50.781,-48.828,-32.227,-62.988,187.012
1688305398.161,-57.129,-43.945,-25.391,-62.012,-160.645
1688305398.160,-39.062,-30.273,-20.020,-47.363,-251.465
1688305398.164,-27.832,-29.785,-24.414,-20.020,-37.598
1688305398.168,-16.602,-19.531,-36.133,-7.812,265.137
1688305398.172,-23.926,-15.625,-34.668,-34.668,88.867
1688305398.176,-53.223,-38.086,-17.578,-51.758,-286.621
1688305398.180,-40.527,-33.691,-3.418,-34.668,-225.098
1688305398.184,-11.719,-20.508,-12.695,-3.418,325.684
1688305398.187,-12.695,-26.367,-8.301,13.672,696.777
1688305398.191,-18.066,-22.949,0.000,-12.695,181.641
1688305398.195,-41.992,-16.113,-24.902,-51.270,-327.637
1688305398.199,-41.504,-20.508,-26.367,-46.387,-323.242
1688305398.203,-17.090,-13.672,-13.184,-17.090,-142.578
1688305398.206,-11.230,-5.371,-7.812,1.465,66.406
1688305398.210,-15.137,-10.254,-10.254,-17.578,51.270
1688305398.214,-45.898,-17.090,-17.578,-52.246,-135.742
1688305398.218,-57.129,-18.066,-17.090,-47.852,-310.547
1688305398.222,-36.133,-25.391,-23.438,-26.367,-216.797
1688305398.226,-23.438,-26.367,-23.438,-18.555,243.652
1688305398.230,-25.879,-18.555,-4.883,-33.691,334.961
1688305398.233,-65.430,-20.020,0.000,-76.660,-179.199
1688305398.237,-89.844,-25.879,5.371,-99.609,-383.301
1688305398.241,-75.684,-17.578,9.277,-80.078,-104.004
1688305398.245,-77.148,-12.695,-7.812,-59.082,161.133
1688305398.249,-103.027,-43.457,-15.137,-99.121,71.289
1688305398.266,-137.207,-45.410,-5.371,-152.832,-104.492
1688305398.270,-142.090,-21.484,-16.602,-156.250,-108.887
1688305398.274,-117.188,-18.555,-19.531,-129.395,2.930
1688305398.278,-107.422,-22.949,-12.695,-115.723,30.273
1688305398.282,-104.492,-18.066,-32.227,-112.793,23.926
1688305398.286,-121.582,-13.184,-31.738,-126.465,241.211
1688305398.290,-125.488,0.000,-0.977,-120.605,47.852
1688305398.293,-97.656,0.488,-11.719,-93.750,-303.711
1688305398.297,-77.637,-5.859,-27.832,-54.199,-71.289
1688305398.301,-63.965,-13.184,-27.344,-33.691,172.852
1688305398.305,-62.988,-31.738,-37.109,-68.848,-127.930
1688305398.309,-64.453,-39.551,-29.785,-80.078,-406.250
1688305398.310,-41.504,-22.949,-19.043,-32.715,-265.625
1688305398.314,-24.902,-6.348,-29.297,-1.465,11.719
1688305398.318,-11.230,-20.508,-34.180,-12.695,70.801
1688305398.322,-28.809,-24.902,-39.062,-45.410,-142.578
1688305398.326,-50.293,-16.602,-50.781,-59.570,-340.820
1688305398.330,-34.668,-18.555,-46.387,-30.762,-225.586
1688305398.334,-14.160,-18.066,-36.133,15.137,76.172
1688305398.337,0.488,-28.809,-36.133,23.438,200.684
1688305398.341,9.277,-34.180,-27.832,-9.766,107.422
1688305398.345,-11.719,-32.227,-27.344,-27.832,162.109
1688305398.349,-16.113,-32.227,-46.875,-17.578,-106.445
1688305398.353,-2.441,-36.621,-54.688,7.324,-175.293
1688305398.355,19.531,-43.457,-39.062,24.414,297.363
1688305398.359,32.715,-28.320,-36.133,4.395,153.809
1688305398.363,0.488,-18.066,-47.852,-30.273,-343.262
1688305398.367,-12.207,-18.555,-37.109,-33.691,-392.090
1688305398.371,10.742,-15.625,-34.668,1.465,-102.539
1688305398.375,18.555,-28.809,-40.039,18.555,177.246
1688305398.379,0.000,-31.250,-33.691,-5.371,143.066
1688305398.382,-24.902,-24.902,-40.039,-38.086,-144.531
1688305398.386,-23.926,-24.902,-35.156,-18.066,-0.488
1688305398.390,-7.812,-35.645,-21.973,19.531,215.820
1688305398.394,6.836,-35.645,-26.367,38.574,60.059
1688305398.398,0.977,-25.879,-41.504,24.414,-22.461
1688305398.401,-15.137,-22.461,-40.039,-18.066,-119.141
1688305398.405,-14.648,-15.625,-25.391,-25.391,-278.320
1688305398.409,4.395,-14.648,-31.250,-4.883,-210.938
1688305398.413,14.160,-20.996,-34.180,29.785,36.133
1688305398.417,-6.348,-43.945,-34.180,12.207,96.191
1688305398.421,-26.855,-32.227,-43.945,-29.297,-93.750
1688305398.425,-16.113,-1.465,-25.879,-17.090,-260.742
1688305398.428,-5.859,-11.719,-13.184,5.859,-48.340
1688305398.432,3.418,-46.387,-35.645,14.160,394.531
1688305398.436,20.996,-49.805,-37.598,3.906,190.430
1688305398.440,-3.418,-32.715,-36.133,-26.855,-116.699
1688305398.444,-43.945,-37.598,-50.781,-52.734,-163.574
1688305398.445,-33.203,-45.898,-44.434,-31.738,-49.316
1688305398.449,-1.465,-34.668,-18.555,19.043,43.457
1688305398.453,11.719,-10.254,-18.066,27.344,44.922
1688305398.457,-7.812,-6.836,-31.738,-11.230,67.871
1688305398.461,-34.180,-25.879,-36.133,-40.039,-126.465
1688305398.465,-18.066,-27.344,-38.086,-34.668,-221.191
1688305398.469,-10.742,-42.480,-37.109,-8.789,90.820
1688305398.472,-20.996,-40.527,-28.320,-11.719,447.754
1688305398.476,-33.203,-25.879,-30.273,-52.734,169.922
1688305398.480,-28.320,-31.738,-24.902,-52.734,-361.816
1688305398.484,-19.043,-13.672,-20.996,-21.973,-378.418
1688305398.488,-20.996,-11.719,-24.902,-3.418,-100.586
1688305398.491,-12.207,-17.090,-30.273,-0.488,132.812
1688305398.495,-27.832,-14.160,-44.434,-24.414,25.879
1688305398.499,-51.758,-15.625,-35.156,-45.410,-259.277
1688305398.503,-36.621,-17.578,-27.832,-37.109,-199.219
1688305398.507,-24.902,-26.367,-31.250,-20.508,-40.039
1688305398.511,-16.602,-23.438,-35.156,-15.625,126.953
1688305398.515,-11.230,-24.902,-25.391,-22.949,200.195
1688305398.518,-38.086,-30.762,-16.602,-33.691,104.492
1688305398.522,-32.715,-31.250,-18.066,-25.879,-274.902
1688305398.526,-40.039,-47.852,-25.879,-19.531,-258.789
1688305398.530,-53.223,-45.410,-30.273,-11.719,34.668
1688305398.534,-45.410,-49.805,-46.875,-34.180,0.000
1688305398.535,-56.152,-43.945,-44.922,-55.176,-245.605
1688305398.539,-36.133,-11.719,-29.297,-41.016,-380.859
1688305398.543,-15.625,-12.695,-23.438,-20.508,40.527
1688305398.547,-26.855,-20.020,-21.484,-7.812,386.230
1688305398.551,-18.555,-33.203,-27.832,-30.273,116.211
1688305398.555,-24.902,-39.062,-19.531,-57.129,-148.438
1688305398.559,-45.410,-36.621,-20.996,-50.293,39.062
1688305398.562,-29.785,-43.457,-39.062,-23.438,193.848
1688305398.566,-6.836,-30.762,-32.715,-11.719,48.828
1688305398.570,-8.789,-22.949,-26.855,-15.137,21.973
1688305398.574,-36.621,-20.020,-32.715,-42.969,-144.043
1688305398.578,-46.875,-36.133,-23.926,-52.734,-307.129
1688305398.580,-25.879,-47.852,-13.184,-29.785,-174.805
1688305398.584,-19.531,-28.320,-9.766,-10.254,94.727
1688305398.588,-13.184,-23.926,-18.555,-19.531,124.023
1688305398.592,-38.086,-25.879,-41.016,-52.734,-174.805
1688305398.596,-71.289,-28.809,-41.504,-78.125,-418.945
1688305398.600,-57.129,-34.668,-27.344,-62.012,-200.195
1688305398.604,-26.367,-34.668,-23.438,-19.531,226.562
1688305398.607,-13.672,-37.109,-30.273,-15.625,219.727
1688305398.611,-34.180,-36.133,-28.320,-43.945,-95.703
1688305398.615,-36.133,-34.180,-18.066,-45.410,-147.949
1688305398.619,-19.531,-35.645,-25.391,-22.949,66.895
1688305398.623,-26.367,-43.457,-44.434,-9.766,96.680
1688305398.640,-17.578,-44.922,-40.039,-10.742,206.543
1688305398.644,-15.625,-42.480,-31.250,-37.109,149.902
1688305398.648,-55.176,-39.551,-34.180,-75.195,-151.855
1688305398.652,-55.176,-29.297,-37.109,-55.176,-320.801
1688305398.656,-20.996,-9.277,-35.156,-8.301,-43.457
1688305398.660,-17.578,-23.926,-28.809,-5.859,323.730
1688305398.664,-23.926,-43.945,-26.367,-22.949,105.469
1688305398.667,-39.551,-30.273,-27.832,-35.645,-287.598
1688305398.671,-41.992,-21.973,-21.484,-28.320,-258.301
1688305398.675,-20.020,-34.180,-15.625,-6.836,194.336
1688305398.679,-11.719,-52.246,-30.762,-7.324,318.848
1688305398.683,-11.719,-24.902,-35.156,-22.461,-73.242
1688305398.685,-42.969,-7.812,-34.668,-46.387,-314.941
1688305398.689,-39.551,-24.902,-25.879,-45.898,-316.895
1688305398.693,-2.441,-20.996,-13.672,-18.066,-136.719
1688305398.697,2.441,-9.766,-14.160,1.953,47.363
1688305398.701,-1.953,-12.695,-17.090,-3.418,5.371
1688305398.705,-30.762,-35.645,-35.645,-41.016,-176.270
1688305398.709,-28.320,-38.086,-27.344,-29.785,-219.727
1688305398.712,-3.418,-30.273,-14.160,15.137,-149.902
1688305398.716,1.953,-17.090,-20.996,23.438,180.664
1688305398.720,-12.207,-17.578,-27.344,-10.254,380.859
1688305398.724,-44.922,-40.039,-48.340,-55.664,-87.891
1688305398.728,-39.551,-30.762,-56.152,-54.688,-369.629
1688305398.730,-0.977,-19.043,-33.691,-18.066,5.859
1688305398.734,-2.441,-27.344,-22.461,0.977,365.723
1688305398.738,-19.531,-28.320,-27.344,-29.785,53.711
1688305398.742,-25.391,-13.672,-25.879,-60.547,-243.164
1688305398.746,-32.715,-20.020,-42.480,-46.875,-269.043
1688305398.750,-37.598,-41.016,-47.852,-20.996,-58.594
1688305398.754,-20.020,-36.133,-24.902,-0.977,196.289
1688305398.757,-9.766,-31.250,-14.648,-4.883,122.070
1688305398.761,-29.297,-33.691,-20.996,-29.785,151.855
1688305398.765,-42.480,-15.625,-37.109,-37.598,-82.520
1688305398.769,-33.691,-15.625,-44.434,-29.785,-285.645
1688305398.773,-25.879,-30.273,-36.133,-9.766,-14.648
1688305398.775,-21.484,-24.414,-29.297,-8.301,89.844
1688305398.779,-25.879,-24.902,-25.879,-34.180,-103.516
1688305398.783,-35.645,-31.250,-23.926,-47.852,-404.297
1688305398.787,-27.832,-37.598,-28.320,-25.391,-303.223
1688305398.791,-13.672,-28.320,-25.879,-2.441,143.555
1688305398.795,-3.906,-25.879,-20.508,-7.324,207.031
1688305398.799,-26.855,-31.250,-24.902,-48.340,-71.777
1688305398.802,-41.992,-15.625,-22.949,-58.594,-196.289
1688305398.806,-29.297,-22.949,-28.809,-33.691,28.809
1688305398.810,-17.090,-32.715,-35.645,-15.625,0.977
1688305398.814,-2.441,-20.508,-25.879,-10.254,13.672
1688305398.818,-20.020,-27.832,-25.879,-40.039,-14.160
1688305398.820,-43.945,-33.203,-33.691,-62.988,-166.504
1688305398.824,-53.223,-28.320,-31.250,-50.781,-266.602
1688305398.828,-39.062,-33.691,-32.227,-23.438,-125.488
1688305398.832,-27.832,-34.180,-37.598,-5.859,397.949
1688305398.836,-23.438,-20.996,-12.207,-23.926,268.066
1688305398.840,-28.809,-23.438,-4.395,-37.109,-232.910
1688305398.844,-33.203,-33.203,-27.344,-15.625,-178.223
1688305398.847,-21.484,-33.203,-29.297,10.742,237.305
1688305398.851,-7.812,-27.344,-24.414,14.160,291.016
1688305398.855,-7.812,-29.785,-27.832,-19.043,-130.859
1688305398.859,-34.668,-30.273,-35.645,-47.363,-282.227
1688305398.863,-52.246,-31.250,-42.969,-49.805,-189.941
1688305398.865,-39.551,-41.504,-39.551,-27.832,-156.738
1688305398.869,-23.438,-36.621,-20.996,1.465,-12.695
1688305398.873,-7.812,-27.344,-16.602,-15.625,11.719
1688305398.877,-31.250,-30.762,-25.391,-49.316,-216.797
1688305398.881,-33.691,-31.738,-20.996,-44.922,-343.262
1688305398.885,-10.254,-22.949,-24.902,-24.902,-175.293
1688305398.889,-9.766,-27.832,-19.043,-8.301,271.973
1688305398.892,-16.113,-33.691,-14.160,-17.090,585.938
1688305398.896,-45.898,-27.832,-22.461,-46.387,4.395
1688305398.900,-56.641,-15.137,-14.648,-50.293,-408.203
1688305398.904,-31.250,-20.996,-24.902,-29.297,-143.555
1688305398.908,-19.531,-36.621,-33.691,-10.742,195.312
1688305398.925,-12.207,-32.227,-11.719,-25.879,166.016
1688305398.929,-22.461,-25.879,-21.973,-47.363,-196.777
1688305398.933,-39.062,-27.832,-35.156,-45.410,-209.961
1688305398.937,-33.203,-25.391,-11.719,-27.344,-45.898
1688305398.941,-5.371,-27.832,-9.277,-0.488,4.395
1688305398.945,-7.812,-33.203,-10.742,1.953,179.199
1688305398.949,-41.016,-50.293,-21.973,-34.180,289.062
1688305398.952,-54.688,-38.086,-28.809,-45.898,-53.223
1688305398.956,-30.273,-12.695,-13.672,-14.648,-291.016
1688305398.960,-11.719,-21.973,-10.254,15.625,9.766
1688305398.964,-24.414,-41.992,-20.996,-5.859,216.797
1688305398.968,-36.621,-44.434,-29.297,-54.199,-124.512
1688305398.955,-45.898,-40.039,-42.480,-68.848,-388.672
1688305398.959,-23.438,-24.414,-42.969,-32.227,-244.629
1688305398.963,-18.066,-20.996,-25.879,-5.371,52.734
1688305398.967,-38.574,-30.762,-33.203,-22.461,123.047
1688305398.971,-54.199,-26.855,-48.340,-60.547,-67.383
1688305398.975,-52.246,-23.926,-29.297,-73.242,-109.863
1688305398.979,-28.809,-38.574,-9.277,-43.945,-55.176
1688305398.982,-19.043,-49.316,-19.531,-19.043,-39.062
1688305398.986,-32.227,-34.180,-23.926,-24.902,51.270
1688305398.990,-42.480,-22.461,-38.574,-50.781,83.496
1688305398.994,-46.875,-23.926,-51.758,-61.523,74.219
1688305398.998,-41.016,-18.555,-48.340,-43.457,-105.957
1688305399.015,-33.203,-26.855,-42.969,-28.320,-74.219
1688305399.019,-27.344,-45.410,-32.715,-19.043,302.246
1688305399.023,-24.902,-44.922,-23.926,-32.715,296.387
1688305399.027,-42.480,-35.156,-16.602,-47.363,-252.441
1688305399.031,-36.621,-21.484,-13.184,-26.367,-360.840
1688305399.035,-20.996,-36.621,-15.137,3.906,96.680
1688305399.039,-12.207,-52.734,-9.277,12.695,268.555
1688305399.042,-7.812,-33.203,-15.625,-12.207,32.227
1688305399.046,-34.180,-28.320,-26.367,-50.293,-167.969
1688305399.050,-39.551,-22.461,-20.508,-52.246,-4.883
1688305399.054,-16.602,-13.184,-19.043,-17.090,11.719
1688305399.058,-5.859,-21.973,-30.273,-5.371,-10.254
1688305399.060,-16.602,-34.180,-29.785,-27.832,4.395
1688305399.064,-43.945,-31.250,-25.879,-44.922,-193.359
1688305399.068,-33.203,-9.766,-17.090,-37.109,-347.656
1688305399.072,-18.555,-11.719,-24.414,-23.438,-254.395
1688305399.076,-22.461,-25.879,-41.992,-15.625,59.570
1688305399.080,-10.254,-23.438,-27.344,-25.391,237.305
1688305399.084,-36.133,-20.020,-20.508,-52.246,-57.129
1688305399.087,-51.758,-25.879,-30.762,-62.012,-301.758
1688305399.091,-17.578,-19.043,-26.855,-27.344,-87.891
1688305399.095,-1.465,-15.625,-19.043,6.836,370.605
1688305399.099,3.906,-15.625,-13.184,-0.488,148.438
1688305399.103,-22.461,-21.484,-8.789,-30.762,-232.422
1688305399.105,-46.875,-26.367,-21.484,-39.551,-108.887
1688305399.109,-32.715,-20.996,-24.902,-24.414,-67.383
1688305399.113,-22.461,-22.949,-27.344,-2.441,-116.211
1688305399.117,-16.602,-20.508,-41.016,-8.789,43.945
1688305399.121,-29.297,-8.301,-28.320,-37.109,102.051
1688305399.125,-58.594,-10.742,-22.461,-56.152,-158.203
1688305399.129,-46.875,-41.992,-47.363,-47.363,-250.000
1688305399.132,-15.137,-45.410,-37.109,-11.719,-3.418
1688305399.136,2.441,-41.016,-13.672,-5.859,392.090
1688305399.140,-13.672,-39.551,-20.996,-40.039,187.012
1688305399.144,-41.992,-24.414,-30.273,-50.781,-352.051
1688305399.148,-40.527,-22.949,-29.297,-27.832,-354.004
1688305399.150,-23.438,-36.133,-20.508,0.488,-73.242
1688305399.154,-16.113,-40.527,-4.395,17.578,79.102
1688305399.158,-20.020,-23.926,-4.883,-10.254,-78.125
1688305399.162,-41.504,-4.883,-16.602,-41.504,-291.504
1688305399.166,-45.898,-10.742,-17.578,-33.203,-282.715
1688305399.170,-32.227,-26.855,-26.855,-16.113,9.766
1688305399.174,-20.020,-35.645,-33.203,-13.672,221.680
1688305399.177,-17.578,-29.785,-17.578,-31.738,217.285
1688305399.181,-47.852,-35.645,-14.648,-60.547,227.539
1688305399.185,-61.523,-44.434,-22.461,-50.293,-144.043
1688305399.189,-34.180,-24.414,-19.531,-19.043,-209.473
1688305399.193,-10.742,-10.742,-8.789,-6.348,172.852
1688305399.195,-13.672,-23.438,-17.578,-30.762,105.957
1688305399.199,-37.598,-23.926,-24.902,-59.082,-270.020
1688305399.203,-49.805,-31.250,-19.531,-54.688,-352.539
1688305399.207,-31.738,-41.016,-24.902,-20.508,10.742
1688305399.211,-4.395,-25.391,-31.738,6.348,231.445
1688305399.215,-5.371,-20.020,-27.832,-24.902,120.117
1688305399.219,-18.066,-30.762,-9.277,-51.758,-146.973
1688305399.222,-33.691,-36.621,-23.926,-50.781,-118.164
1688305399.226,-35.156,-25.391,-44.434,-32.715,61.523
1688305399.230,-23.438,-15.625,-31.738,-19.043,98.145
1688305399.234,-27.344,-24.902,-24.902,-32.715,79.102
1688305399.238,-40.527,-24.902,-23.438,-60.059,-43.945
1688305399.240,-43.457,-31.250,-23.926,-56.152,-318.848
1688305399.244,-30.273,-42.480,-28.320,-32.715,-281.738
1688305399.248,-15.137,-29.785,-21.973,-16.113,43.945
1688305399.252,7.324,-33.203,-29.297,-7.324,81.543
1688305399.256,-17.578,-34.668,-36.621,-30.273,-182.129
1688305399.260,-56.641,-27.832,-35.156,-60.059,-304.199
1688305399.264,-44.922,-28.320,-32.227,-43.945,-22.461
1688305399.267,-23.926,-28.809,-31.250,-10.254,453.125
1688305399.271,-20.508,-27.344,-31.738,-20.020,218.750
1688305399.275,-32.227,-29.785,-27.344,-36.621,-179.688
1688305399.279,-49.805,-43.457,-25.391,-40.039,-282.715
1688305399.283,-30.273,-41.992,-22.949,-23.926,-243.652
1688305399.285,-2.930,-36.133,-11.230,0.000,5.371
1688305399.289,0.000,-29.785,-13.672,-0.977,133.789
1688305399.293,-11.230,-27.344,-21.973,-32.715,101.562
1688305399.297,-36.621,-31.250,-36.621,-56.152,-50.293
1688305399.301,-29.785,-21.484,-41.504,-41.992,-278.809
1688305399.305,-7.324,-26.367,-34.668,-6.836,1.953
1688305399.309,-9.766,-51.758,-62.988,-8.301,452.637
1688305399.312,-24.902,-40.527,-72.266,-43.457,202.637
1688305399.316,-43.457,-13.672,-40.527,-60.059,-365.723
1688305399.320,-49.316,-30.762,-24.414,-41.016,-389.648
1688305399.324,-37.598,-42.969,-28.320,-12.695,-78.125
1688305399.328,-20.020,-32.715,-28.320,-2.930,91.797
1688305399.331,-25.391,-28.809,-20.996,-34.180,-98.145
1688305399.335,-41.992,-20.020,-18.066,-55.176,-249.512
1688305399.339,-39.062,-27.344,-26.367,-41.016,-168.945
1688305399.343,-28.809,-33.691,-38.086,-17.090,-56.641
1688305399.347,-23.438,-33.691,-42.969,-12.695,32.715
1688305399.351,-24.902,-28.809,-34.180,-37.109,140.625
1688305399.355,-40.039,-15.137,-18.066,-47.363,285.156
1688305399.358,-41.504,-11.719,-6.348,-42.480,-125.977
1688305399.362,-19.043,-13.184,-8.301,-24.414,-214.844
1688305399.366,-11.230,-23.926,-11.719,-12.207,120.605
1688305399.370,-16.113,-24.414,-13.672,-28.320,57.129
1688305399.374,-21.484,-5.859,-0.977,-33.691,-219.727
1688305399.390,-26.855,-13.672,-4.883,-26.367,-234.375
1688305399.394,-23.438,-25.391,-37.598,-25.879,35.645
1688305399.398,-15.137,-20.508,-33.203,-19.043,221.191
1688305399.402,-3.418,-21.973,-19.531,-23.926,18.555
1688305399.406,-22.461,-13.672,-36.133,-41.504,-161.133
1688305399.410,-33.203,-13.184,-29.785,-37.109,0.977
1688305399.414,-5.859,-29.297,-14.160,-11.230,32.715
1688305399.417,-3.418,-28.809,-15.625,-1.953,-14.648
1688305399.421,0.000,-8.301,-5.371,-10.742,52.734
1688305399.425,-19.043,-9.277,-1.465,-33.203,130.371
1688305399.429,-50.293,-25.879,-34.668,-52.734,-159.668
1688305399.433,-45.410,-35.156,-50.293,-38.574,-277.344
1688305399.435,-24.902,-35.156,-23.926,-3.906,24.414
1688305399.439,6.836,-21.973,-13.672,-3.906,108.887
1688305399.443,-11.230,-28.809,-25.879,-28.320,-119.141
1688305399.447,-42.969,-30.273,-26.367,-32.227,-383.789
1688305399.451,-24.902,-18.555,-30.273,-16.602,-241.211
1688305399.455,-8.301,-37.109,-38.086,-5.371,195.312
1688305399.459,0.000,-27.344,-12.695,7.812,235.840
1688305399.462,-14.648,0.000,-17.578,-4.883,-111.328
1688305399.466,-45.410,-31.250,-36.621,-23.438,-223.633
1688305399.470,-29.785,-32.715,-23.438,-2.930,167.969
1688305399.474,-16.113,-16.602,-22.949,10.742,124.023
1688305399.478,-10.742,-22.461,-28.809,6.836,-5.859
1688305399.480,-18.066,-8.301,-16.602,-8.301,76.660
1688305399.484,-46.875,-36.133,-20.996,-40.039,-196.777
1688305399.488,-46.875,-68.359,-32.227,-47.363,-404.785
1688305399.492,-20.508,-30.762,-32.227,-9.766,-105.469
1688305399.496,-6.836,0.000,-18.555,6.348,215.820
1688305399.500,-16.113,-3.906,-14.648,-32.227,79.590
1688305399.504,-43.945,-20.508,-35.645,-66.895,-181.152
1688305399.507,-50.293,-24.414,-38.574,-54.688,-223.145
1688305399.511,-23.438,-22.949,-29.297,-15.625,202.637
1688305399.515,-8.789,-32.715,-25.879,0.488,393.066
1688305399.519,-21.973,-32.715,-28.809,-22.461,-2.930
1688305399.523,-52.734,-24.414,-36.621,-46.875,-253.418
1688305399.525,-56.152,-35.156,-33.691,-37.109,-214.355
1688305399.529,-34.180,-49.316,-29.785,-21.973,-128.418
1688305399.533,-6.348,-43.457,-26.855,-1.465,51.758
1688305399.537,-9.277,-30.273,-35.645,-8.789,97.656
1688305399.541,-44.434,-23.926,-47.852,-49.316,-138.184
1688305399.545,-52.734,-36.621,-43.457,-52.734,-253.906
1688305399.549,-39.062,-29.297,-36.621,-20.508,-145.996
1688305399.552,-16.602,-12.207,-19.043,6.348,150.879
1688305399.556,-10.254,-21.484,-16.602,-0.977,403.320
1688305399.560,-41.504,-23.926,-43.945,-35.156,-73.730
1688305399.564,-44.434,-16.113,-32.715,-37.109,-412.109
1688305399.568,-25.879,-27.832,-19.043,-10.254,-158.691
1688305399.571,-20.508,-25.879,-27.344,-2.930,150.391
1688305399.575,-25.391,-33.203,-38.086,-30.762,162.109
1688305399.579,-31.738,-46.387,-29.785,-36.133,-177.734
1688305399.583,-33.203,-49.316,-15.137,-35.156,-183.105
1688305399.587,-24.902,-35.156,-24.414,-32.715,14.648
1688305399.591,3.418,-2.930,-20.020,2.441,133.301
1688305399.595,0.000,-24.414,-26.855,-7.812,233.398
1688305399.598,-29.785,-42.969,-38.574,-45.898,172.852
1688305399.602,-40.527,-26.855,-26.367,-46.387,-124.512
1688305399.606,-31.250,-20.508,-23.926,-27.344,-355.469
1688305399.610,-32.227,-23.438,-33.203,-10.742,-38.574
1688305399.614,-24.902,-22.461,-38.574,-11.230,168.945
1688305399.616,-19.043,-20.020,-33.203,-25.391,-132.324
1688305399.620,-37.598,-23.926,-26.367,-28.809,-371.582
1688305399.624,-36.133,-30.762,-25.391,-20.996,-164.551
1688305399.628,-9.277,-44.922,-27.344,-3.906,71.777
1688305399.632,-3.418,-43.945,-29.785,-2.441,109.375
1688305399.636,-30.273,-23.438,-33.691,-32.227,10.254
1688305399.640,-47.852,-20.996,-26.855,-46.875,-84.473
1688305399.643,-34.668,-20.508,-31.250,-35.645,56.152
1688305399.647,-33.691,-28.320,-40.527,-24.902,58.105
1688305399.651,-27.344,-26.367,-26.367,-19.043,75.195
1688305399.655,-27.344,-28.809,-20.996,-35.156,84.961
1688305399.659,-39.062,-29.297,-14.648,-33.691,-2.930
1688305399.660,-39.551,-26.367,-36.621,-38.574,-179.199
1688305399.664,-28.809,-37.598,-48.340,-40.527,-146.973
1688305399.668,-27.832,-33.203,-29.297,-23.926,198.242
1688305399.672,-37.598,-28.320,-30.273,-44.922,129.395
1688305399.676,-55.664,-26.367,-41.992,-69.824,-274.902
1688305399.680,-54.199,-29.297,-38.086,-52.246,-237.305
1688305399.684,-30.762,-35.645,-38.086,-17.578,193.848
1688305399.687,-22.949,-46.387,-55.176,-8.789,288.574
1688305399.691,-33.203,-44.434,-57.129,-31.738,-54.199
1688305399.695,-47.852,-39.062,-41.992,-48.340,-259.277
1688305399.699,-49.316,-46.875,-41.016,-35.156,-73.242
1688305399.703,-27.344,-37.109,-37.598,-15.625,-38.086
1688305399.705,-14.648,-18.555,-32.715,7.324,-24.902
1688305399.709,-13.672,-16.602,-32.715,-5.859,29.785
1688305399.713,-41.016,-31.250,-33.691,-51.270,-153.809
1688305399.717,-52.246,-46.387,-36.133,-63.477,-354.004
1688305399.721,-24.414,-31.738,-29.785,-23.926,-321.289
1688305399.725,-20.508,-37.598,-49.316,-0.977,139.648
1688305399.729,-34.668,-62.988,-61.523,-32.227,366.699
1688305399.732,-64.453,-60.059,-48.340,-72.266,-65.918
1688305399.736,-70.312,-40.039,-45.898,-66.895,-333.496
1688305399.740,-33.203,-36.133,-37.598,-23.438,-125.977
1688305399.744,-22.949,-42.969,-34.668,-4.883,180.176
1688305399.748,-18.555,-30.762,-32.715,-17.090,105.469
1688305399.765,-30.273,-40.527,-30.762,-46.387,-70.312
1688305399.769,-47.363,-54.199,-35.156,-60.059,-85.449
1688305399.773,-30.273,-35.156,-30.762,-35.156,18.555
1688305399.777,-33.691,-39.551,-33.203,-21.973,-13.184
1688305399.781,-34.668,-43.457,-39.551,-35.645,109.375
1688305399.785,-31.738,-37.109,-41.992,-53.223,186.523
1688305399.789,-50.293,-47.363,-42.969,-59.570,-127.930
1688305399.792,-38.574,-41.504,-23.926,-36.133,-309.570
1688305399.796,-23.438,-42.969,-26.855,-7.812,-75.684
1688305399.800,-25.879,-36.621,-34.668,-10.742,437.012
1688305399.804,-34.180,-17.090,-35.645,-37.598,219.727
1688305399.808,-51.758,-24.414,-33.691,-53.223,-386.230
1688305399.810,-47.852,-38.574,-25.391,-43.945,-349.121
1688305399.814,-41.016,-44.434,-27.832,-22.461,-28.809
1688305399.818,-31.250,-47.852,-27.832,-20.508,42.480
1688305399.822,-20.508,-43.457,-22.461,-51.270,-124.512
1688305399.826,-38.086,-26.367,-31.250,-62.500,-234.863
1688305399.830,-45.410,-12.207,-40.527,-41.992,-108.398
1688305399.834,-32.715,-17.090,-28.809,-13.672,84.961
1688305399.837,-18.066,-22.461,-13.672,-0.488,38.086
1688305399.841,-17.090,-23.926,-7.812,-23.438,-91.797
1688305399.845,-50.781,-45.410,-10.254,-54.199,-36.621
1688305399.849,-54.688,-53.711,-28.809,-58.105,-279.297
1688305399.853,-23.438,-34.180,-32.227,-17.090,-232.910
1688305399.855,-18.555,-35.156,-20.508,-0.488,161.621
1688305399.859,-28.320,-44.922,-24.414,-25.391,184.570
1688305399.863,-48.340,-40.527,-26.855,-51.270,-150.391
1688305399.867,-45.410,-23.438,-16.113,-52.734,-365.723
1688305399.871,-13.672,-5.371,-20.020,-13.672,18.066
1688305399.875,-15.137,-38.574,-42.969,-18.066,324.219
1688305399.879,-19.531,-53.223,-23.926,-40.039,93.262
1688305399.882,-10.742,-30.273,-13.184,-39.062,-191.895
1688305399.886,-23.438,-17.578,-25.879,-49.805,-108.887
1688305399.890,-41.992,-29.785,-27.832,-57.617,-10.742
1688305399.894,-43.457,-31.738,-32.715,-38.574,15.137
1688305399.898,-40.039,-27.344,-28.320,-43.945,19.043
1688305399.903,-68.848,-39.062,-23.926,-95.215,-184.082
1688305399.907,-88.867,-27.832,-28.809,-106.934,-354.492
1688305399.911,-75.195,-17.090,-37.598,-84.473,-210.938
1688305399.915,-70.801,-18.555,-40.039,-76.172,165.039
1688305399.919,-74.707,-16.113,-41.016,-92.285,249.023
1688305399.923,-86.914,-13.184,-33.203,-114.258,-45.898
1688305399.927,-96.191,-7.324,-28.320,-122.070,-261.719
1688305399.930,-90.820,-6.348,-45.898,-117.188,-86.914
1688305399.934,-81.543,-5.859,-44.922,-99.121,352.051
1688305399.938,-83.008,-8.789,-24.414,-114.746,171.875
1688305399.942,-106.934,-20.996,-19.043,-148.438,-217.285
1688305399.946,-119.629,-17.578,-22.949,-154.297,-268.066
1688305399.945,-128.418,-8.301,-33.691,-153.320,-113.770
1688305399.949,-138.672,-9.277,-32.715,-156.250,18.066
1688305399.953,-129.395,-13.184,-23.438,-154.297,76.172
1688305399.957,-116.211,-14.648,-23.438,-159.180,62.988
1688305399.961,-135.254,-7.812,-35.156,-178.223,-202.148
1688305399.965,-132.812,-10.254,-35.645,-162.598,-208.008
1688305399.969,-102.051,-11.719,-26.855,-123.047,75.195
1688305399.972,-84.961,12.207,-33.203,-104.492,494.141
1688305399.976,-88.867,15.137,-45.898,-115.723,551.270
1688305399.980,-103.516,15.137,-38.086,-139.648,-125.977
1688305399.984,-85.938,14.160,-25.391,-109.375,-429.688
1688305399.988,-58.594,-2.930,-29.297,-71.777,-136.230
1688305399.992,-57.617,-19.531,-41.504,-66.406,12.207
1688305399.996,-72.266,-22.949,-41.504,-75.684,-92.285
1688305400.000,-78.125,-13.672,-40.527,-82.520,-276.855
1688305400.004,-65.918,-17.090,-43.945,-71.777,-324.219
1688305400.008,-37.109,-9.766,-24.902,-33.691,-132.812
1688305400.012,-17.578,-19.043,-7.812,-3.906,77.637
1688305400.016,-35.156,-41.016,-39.062,-47.363,144.043
1688305400.019,-55.176,-46.387,-46.875,-74.707,303.711
1688305400.023,-54.688,-54.688,-48.340,-71.289,-96.680
1688305400.027,-36.133,-42.480,-50.781,-52.734,-256.348
1688305400.031,-12.695,-30.273,-36.133,-10.254,166.016
1688305400.035,-10.254,-27.344,-45.898,-17.578,75.195
1688305400.035,-32.715,-30.762,-49.805,-40.039,-197.754
1688305400.039,-29.297,-60.547,-36.621,-22.461,-252.930
1688305400.043,4.395,-60.059,-19.531,20.508,-30.273
1688305400.047,1.953,-43.457,-22.949,28.320,158.203
1688305400.051,0.488,-43.945,-41.504,3.418,17.578
1688305400.055,8.301,-35.645,-36.133,-18.555,-154.785
1688305400.059,-4.883,-46.875,-40.527,-27.344,97.656
1688305400.062,-5.859,-59.082,-41.992,2.930,162.109
1688305400.066,6.836,-49.805,-24.414,35.156,9.766
1688305400.070,15.625,-52.246,-14.648,25.879,61.523
1688305400.074,-0.488,-47.363,-20.020,4.395,176.270
1688305400.078,10.254,-37.109,-23.926,0.488,-38.086
1688305400.080,25.879,-43.457,-36.133,10.254,-270.996
1688305400.084,22.461,-47.363,-40.527,33.691,-43.945
1688305400.088,28.320,-36.621,-31.738,24.902,136.230
1688305400.092,14.648,-25.391,-34.180,-10.254,-87.891
1688305400.096,-7.812,-34.668,-29.785,-21.973,-344.727
1688305400.100,9.277,-43.945,-31.738,4.395,-86.426
1688305400.104,24.902,-38.086,-30.273,36.621,282.715
1688305400.107,31.250,-21.973,-6.348,39.062,146.484
1688305400.111,24.414,-20.996,-5.859,28.320,-106.445
1688305400.115,-1.953,-41.016,-25.391,-4.883,-230.469
1688305400.119,-9.766,-36.621,-33.691,-16.602,-192.871
1688305400.123,-10.254,-27.344,-35.645,3.418,-61.035
1688305400.140,5.371,-22.461,-51.270,13.184,79.590
1688305400.144,16.113,-17.578,-49.316,-1.953,188.965
1688305400.148,-4.395,-23.438,-18.066,-23.926,46.387
1688305400.152,2.441,-25.879,-5.371,-10.254,-322.266
1688305400.156,16.602,-20.508,-18.066,28.809,-86.914
1688305400.160,4.883,-34.668,-26.855,28.809,302.246
1688305400.164,3.418,-36.621,-19.043,-5.371,129.883
1688305400.167,-11.230,-33.203,-24.902,-24.902,-288.574
1688305400.171,-16.602,-43.457,-25.879,-15.625,-365.234
1688305400.175,2.930,-35.645,-19.531,24.902,131.348
1688305400.179,9.766,-15.625,-28.809,45.898,229.980
1688305400.183,4.395,-5.371,-25.391,15.625,-66.895
1688305400.185,-12.207,-10.254,-13.184,-18.066,-230.469
1688305400.189,-9.766,-16.602,-19.531,-20.508,-288.574
1688305400.193,-13.184,-38.574,-41.992,-9.766,-175.781
1688305400.197,-11.719,-48.340,-33.691,2.930,20.996
1688305400.201,-12.695,-27.344,-24.414,-11.230,24.902
1688305400.205,-43.945,-16.113,-27.344,-43.457,-72.266
1688305400.209,-33.691,-34.180,-11.719,-34.668,-153.320
1688305400.212,-16.602,-36.133,-22.461,-6.348,-157.715
1688305400.216,3.906,-16.113,-27.832,24.902,135.742
1688305400.220,19.531,-12.695,-9.766,18.066,405.762
1688305400.224,-38.574,-19.043,-12.207,-36.621,-63.477
1688305400.228,-77.637,-25.391,-22.949,-56.641,-311.523
1688305400.230,-40.039,-29.297,-17.090,-20.020,58.594
1688305400.234,-24.902,-30.273,-10.742,7.324,151.367
1688305400.238,-30.273,-40.039,-11.719,-9.766,-36.133
1688305400.242,-38.086,-51.758,-16.113,-40.039,-194.336
1688305400.246,-47.852,-51.270,-22.461,-39.062,-182.129
1688305400.250,-23.926,-47.363,-21.484,-6.348,-66.895
1688305400.254,-11.719,-47.363,-26.855,13.672,103.027
1688305400.257,-12.207,-54.199,-27.832,6.348,86.426
1688305400.261,-13.184,-54.688,-20.020,-1.953,122.070
1688305400.265,-32.227,-49.805,-23.438,-9.277,59.082
1688305400.269,-27.832,-43.945,-22.461,2.441,-226.074
1688305400.273,-17.578,-40.527,-20.996,22.949,-60.547
1688305400.290,-14.648,-24.414,-25.391,16.113,132.324
1688305400.294,-17.090,-6.348,-28.320,-20.020,-106.445
1688305400.298,-45.898,-22.949,-38.574,-50.293,-345.215
1688305400.302,-38.574,-34.668,-33.691,-28.320,-302.734
1688305400.306,-14.648,-19.531,-13.672,7.324,-28.320
1688305400.310,-12.695,-20.996,-20.996,1.465,234.375
1688305400.314,-27.832,-30.273,-29.785,-22.461,41.016
1688305400.317,-43.945,-28.320,-20.020,-37.109,-170.898
1688305400.321,-26.855,-31.738,-22.461,-20.996,117.188
1688305400.325,-21.973,-32.715,-27.832,-0.977,91.309
1688305400.329,-19.531,-9.766,-29.785,-9.766,-36.133
1688305400.333,-21.484,3.418,-24.414,-34.668,-27.344
1688305400.320,-46.387,-17.090,-19.043,-55.176,-221.680
1688305400.324,-41.016,-18.555,-18.066,-39.062,-313.477
1688305400.328,-25.391,-15.625,-35.645,-8.301,-114.258
1688305400.332,-19.531,-24.902,-50.781,-1.465,251.465
1688305400.336,-14.160,-23.438,-37.598,-20.020,183.594
1688305400.340,-27.344,-14.648,-28.320,-37.109,-183.105
1688305400.344,-24.902,-9.766,-18.555,-32.715,-180.664
1688305400.347,-7.812,-18.555,-10.254,-7.324,70.312
1688305400.351,-8.301,-24.902,-8.789,13.184,133.789
1688305400.355,-22.461,-42.480,-28.320,-15.137,10.254
1688305400.359,-40.527,-38.086,-39.551,-44.434,-200.684
1688305400.363,-50.781,-32.715,-29.297,-45.410,35.645
1688305400.365,-37.109,-36.133,-21.484,-36.621,187.988
1688305400.369,-26.855,-22.949,-23.438,-20.996,35.645
1688305400.373,-42.480,-29.785,-34.180,-32.227,12.695
1688305400.377,-37.598,-40.527,-34.180,-36.133,-192.383
1688305400.381,-20.020,-22.949,-29.297,-26.855,-335.449
1688305400.385,-37.109,-14.648,-23.438,-33.203,-184.570
1688305400.389,-49.805,-27.832,-27.344,-30.762,218.262
1688305400.392,-34.180,-20.020,-16.602,-28.320,474.121
1688305400.396,-44.434,-20.508,-24.414,-61.523,-74.219
1688305400.400,-61.035,-29.785,-45.410,-85.449,-379.395
1688305400.404,-48.828,-19.531,-48.340,-65.430,-219.238
1688305400.408,-40.527,-30.762,-59.082,-52.734,-20.996
1688305400.411,-26.855,-19.531,-53.711,-52.246,114.258
1688305400.415,-49.316,-1.465,-39.551,-73.242,-106.445
1688305400.419,-65.430,-5.859,-41.992,-83.984,-129.395
1688305400.423,-34.180,-0.977,-49.316,-51.270,49.316
1688305400.427,-21.973,-6.836,-48.828,-24.902,-29.297
1688305400.431,-21.973,-26.367,-35.645,-37.109,86.914
1688305400.435,-28.320,-38.086,-25.879,-63.477,317.383
1688305400.438,-35.156,-28.809,-26.367,-63.477,41.016
1688305400.442,-27.344,-37.109,-29.785,-41.504,-286.133
1688305400.446,-25.391,-44.922,-30.762,-21.973,-49.316
1688305400.450,-17.578,-35.645,-29.785,-24.902,154.785
1688305400.454,-12.207,-14.160,-23.438,-25.391,-97.656
1688305400.455,-32.227,0.977,-34.180,-37.109,-354.980
1688305400.459,-29.297,-5.371,-41.992,-32.227,-308.594
1688305400.463,-23.438,-5.859,-30.762,-12.207,-49.316
1688305400.467,-19.531,-7.324,-24.414,-12.207,162.109
1688305400.471,-14.648,-33.691,-27.344,-32.227,-76.660
1688305400.475,-35.645,-45.410,-45.410,-58.594,-223.633
1688305400.479,-36.621,-24.902,-33.203,-42.969,201.660
1688305400.482,-13.184,-17.578,-24.414,-7.812,131.836
1688305400.486,8.301,-26.855,-20.996,6.836,-34.180
1688305400.490,0.488,-21.973,-28.320,-15.625,-29.297
1688305400.494,-22.949,0.000,-30.273,-34.180,-267.090
1688305400.498,-18.066,-3.906,-18.555,-29.297,-327.148
1688305400.515,-10.742,-9.277,-17.090,-20.020,-102.539
1688305400.519,-14.648,-4.395,-23.438,-10.742,208.008
1688305400.523,-15.137,-17.578,-33.203,-26.367,185.547
1688305400.527,-20.020,-11.230,-18.555,-36.133,-218.750
1688305400.531,-15.625,0.977,-13.184,-23.438,-342.285
1688305400.535,-5.371,-9.766,-24.902,-6.348,-27.832
1688305400.539,-9.766,-27.832,-21.484,9.277,224.121
1688305400.542,-18.555,-31.738,-20.508,-13.184,142.090
1688305400.546,-31.250,-21.973,-23.926,-40.039,-163.086
1688305400.550,-22.461,-11.719,-19.531,-22.949,-57.129
1688305400.554,-17.578,-16.113,-39.062,-9.277,118.164
1688305400.558,-10.254,-10.254,-35.156,6.836,26.855
1688305400.560,1.465,-13.672,-4.395,5.371,29.297
1688305400.564,-18.555,-31.250,-10.742,-32.227,-175.293
1688305400.568,-41.504,-23.438,-35.156,-44.922,-340.820
1688305400.572,-35.156,-20.996,-40.527,-19.043,-236.816
1688305400.576,-24.414,-21.973,-22.949,7.812,17.578
1688305400.580,-17.578,-20.996,-16.602,-10.742,230.957
1688305400.584,-31.738,-31.738,-27.832,-46.387,109.863
1688305400.587,-30.273,-49.316,-18.066,-37.598,-259.277
1688305400.591,-14.648,-58.105,-22.949,-29.297,-149.414
1688305400.595,-17.090,-42.969,-45.898,-18.066,462.402
1688305400.599,-19.043,-25.391,-37.598,-19.043,305.176
1688305400.603,-33.691,-19.531,-33.691,-60.059,-169.922
1688305400.605,-33.203,-15.137,-37.109,-55.664,-221.680
1688305400.609,-22.949,-10.742,-16.602,-12.207,-220.215
1688305400.613,-23.438,-19.531,-15.137,11.230,-97.656
1688305400.617,-12.695,-27.344,-24.414,5.859,53.711
1688305400.621,-23.926,-57.617,-31.738,-27.344,-9.766
1688305400.625,-40.527,-64.941,-25.391,-29.297,-160.645
1688305400.629,-31.250,-41.992,-25.879,-22.461,-208.984
1688305400.632,-28.809,-35.156,-41.992,-20.508,-41.992
1688305400.636,-16.602,-20.020,-30.762,-7.812,309.082
1688305400.640,-20.020,-8.789,-17.090,-24.414,77.637
1688305400.644,-36.621,-4.883,-14.648,-39.062,-354.980
1688305400.648,-24.414,-2.930,-11.230,-24.902,-283.203
1688305400.650,-22.461,-20.508,-35.156,-10.254,201.172
1688305400.654,-13.184,-29.297,-33.203,-7.324,235.840
1688305400.658,-4.395,-31.738,-15.625,-30.273,-62.500
1688305400.662,-38.086,-37.109,-40.527,-62.988,-229.004
1688305400.666,-40.039,-31.250,-50.293,-59.082,-200.684
1688305400.670,-15.137,-33.203,-35.156,-20.996,67.871
1688305400.674,-12.695,-40.527,-31.738,-9.277,195.801
1688305400.677,-22.949,-34.668,-39.551,-44.434,107.422
1688305400.681,-28.809,-18.066,-31.738,-54.688,-74.219
1688305400.685,-26.855,-5.371,-10.254,-41.504,-290.039
1688305400.689,-4.395,-16.602,-13.184,-23.438,-213.379
1688305400.693,-1.465,-22.949,-25.391,-7.324,259.277
1688305400.696,-19.043,-23.926,-33.691,-30.273,465.332
1688305400.700,-39.062,-30.762,-31.738,-63.965,-75.684
1688305400.704,-43.945,-28.320,-28.809,-58.105,-369.629
1688305400.708,-24.902,-22.461,-23.926,-18.066,-6.836
1688305400.712,-18.066,-33.691,-29.785,8.301,270.020
1688305400.716,-28.809,-37.109,-50.781,-25.391,102.051
1688305400.720,-39.062,-8.789,-43.945,-53.223,-52.246
1688305400.723,-46.387,-1.465,-27.832,-41.992,-12.695
1688305400.727,-40.527,-19.043,-22.949,-30.762,-28.809
1688305400.731,-20.020,-32.227,-17.578,-7.324,-59.570
1688305400.735,-18.066,-62.500,-25.391,-16.602,15.625
1688305400.739,-25.391,-43.945,-26.367,-37.109,-148.438
1688305400.740,-30.762,-19.043,-26.367,-35.156,-365.723
1688305400.744,-30.273,-33.691,-33.203,-23.926,-356.934
1688305400.748,-24.414,-39.551,-33.691,-13.184,-108.887
1688305400.752,-15.625,-10.742,-32.715,-22.949,109.375
1688305400.756,-24.414,0.488,-26.367,-44.434,-57.129
1688305400.760,-42.969,-34.180,-34.180,-52.734,-341.309
1688305400.764,-33.203,-40.039,-37.598,-30.273,-165.039
1688305400.767,-24.902,-30.762,-31.738,-7.812,428.711
1688305400.771,-17.090,-46.387,-33.203,-12.695,336.914
1688305400.775,-27.344,-56.152,-22.949,-44.434,-164.062
1688305400.779,-47.852,-41.504,-15.625,-62.012,-316.406
1688305400.783,-25.879,-27.832,-22.461,-39.062,-243.164
1688305400.785,-19.043,-22.949,-27.344,-12.207,-3.906
1688305400.789,-11.230,-20.020,-7.812,1.465,88.867
1688305400.793,-5.371,-15.137,4.395,-14.160,72.754
1688305400.797,-35.156,-22.461,-17.090,-49.805,-94.727
1688305400.801,-34.180,-28.809,-35.645,-46.875,-327.637
1688305400.805,-13.672,-31.738,-36.133,-10.254,-41.016
1688305400.809,-9.766,-24.902,-33.203,1.953,509.766
1688305400.812,-20.508,-22.949,-25.391,-28.809,308.105
1688305400.816,-49.316,-37.598,-21.484,-59.570,-342.285
1688305400.820,-56.152,-40.039,-22.461,-52.246,-372.559
1688305400.824,-26.367,-14.160,-14.648,-12.695,81.543
1688305400.828,3.906,10.254,-12.695,5.859,209.473
1688305400.831,0.488,1.465,-23.926,-24.902,-4.395
1688305400.835,-39.551,-27.832,-27.832,-58.105,-282.715
1688305400.839,-39.062,-24.414,-20.996,-44.922,-307.617
1688305400.843,-11.719,-27.344,-23.926,-8.301,-112.305
1688305400.847,-5.371,-41.504,-27.344,7.324,73.730
1688305400.851,-15.137,-26.367,-34.180,-10.742,154.297
1688305400.855,-27.344,4.395,-22.949,-27.832,106.445
1688305400.858,-31.250,-12.207,-10.742,-30.762,-127.930
1688305400.862,-25.879,-44.922,-15.137,-8.789,-152.832
1688305400.866,-20.996,-45.410,-16.602,6.836,183.594
1688305400.870,-22.949,-25.391,-17.578,-22.949,168.945
1688305400.874,-40.039,-10.254,-27.344,-57.129,-196.777
1688305400.890,-57.129,-7.812,-33.691,-59.570,-314.453
1688305400.894,-38.574,-10.742,-24.414,-28.809,-61.523
1688305400.898,-20.996,-22.461,-23.926,1.953,459.473
1688305400.902,-12.695,-20.020,-20.508,-4.883,192.871
1688305400.906,-28.320,-21.973,-12.695,-39.551,-260.254
1688305400.910,-40.527,-31.738,-17.578,-44.922,-17.090
1688305400.914,-26.855,-35.645,-22.949,-26.855,132.812
1688305400.917,-28.809,-42.969,-29.785,-21.484,-37.598
1688305400.921,-18.555,-37.598,-35.645,-24.414,-37.109
1688305400.925,-27.344,-35.645,-38.574,-45.410,-32.715
1688305400.929,-51.270,-35.645,-30.273,-58.594,-318.359
1688305400.933,-30.762,-18.555,-25.391,-26.367,-328.125
1688305400.935,-20.996,-24.414,-26.855,2.930,16.602
1688305400.939,-4.395,-23.926,-23.438,-0.488,177.734
1688305400.943,1.953,-2.441,-13.672,-22.949,-145.020
1688305400.947,-29.785,-22.949,-22.461,-44.922,-443.359
1688305400.951,-41.504,-38.574,-33.203,-45.898,-330.078
1688305400.955,-22.949,-41.016,-18.555,-17.090,18.066
1688305400.959,-12.207,-33.203,-22.949,-4.883,174.316
1688305400.962,-20.996,-27.832,-35.645,-31.250,-100.586
1688305400.966,-44.922,-38.574,-32.715,-50.781,-220.703
1688305400.970,-42.969,-43.945,-30.762,-40.039,93.750
1688305400.974,-17.090,-12.695,-14.648,1.465,62.012
1688305400.978,10.254,-2.930,-9.766,30.762,36.621
1688305400.981,-16.113,-24.414,-32.227,-21.973,88.379
1688305400.985,-60.547,-35.156,-43.945,-59.570,-130.371
1688305400.989,-53.223,-38.574,-35.156,-41.992,-276.367
1688305400.993,-24.414,-38.086,-14.160,-16.113,-131.836
1688305400.997,-12.695,-34.180,-3.418,-1.465,227.051
1688305401.001,-22.949,-20.508,-14.648,-20.020,165.039
1688305401.005,-37.109,-18.066,-29.297,-50.781,-180.176
1688305401.008,-36.621,-10.742,-24.902,-51.270,-291.016
1688305401.012,-21.973,-3.418,-16.113,-15.625,118.652
1688305401.016,-20.508,-28.809,-22.949,-6.836,309.570
1688305401.020,-20.996,-39.551,-33.203,-30.762,0.977
1688305401.024,-24.902,-21.484,-31.738,-38.086,-198.242
1688305401.025,-35.156,-18.555,-33.691,-39.062,-237.793
1688305401.029,-19.043,-21.484,-37.598,-21.973,-128.906
1688305401.033,4.395,-12.207,-27.344,9.277,39.062
1688305401.037,-4.883,-15.625,-15.137,-5.371,36.133
1688305401.041,-36.133,-25.391,-12.207,-44.922,-133.789
1688305401.045,-43.945,-27.832,-14.648,-53.711,-194.824
1688305401.049,-28.320,-29.785,-22.461,-21.973,-136.230
1688305401.052,-24.902,-32.227,-31.250,1.953,121.094
1688305401.056,-25.879,-41.016,-22.461,-14.160,487.305
1688305401.060,-44.922,-37.598,-33.203,-45.410,57.617
1688305401.064,-42.480,-30.273,-50.293,-52.734,-398.438
1688305401.068,-13.672,-14.648,-31.250,-25.391,-177.734
1688305401.070,-14.160,-20.508,-18.555,-12.695,179.688
1688305401.074,-16.602,-38.086,-25.391,-31.250,136.230
1688305401.078,-30.762,-7.812,-22.461,-55.664,-171.875
1688305401.082,-56.152,-6.836,-23.926,-60.547,-164.551
1688305401.086,-54.688,-33.691,-24.414,-45.898,20.996
1688305401.090,-26.855,-42.969,-18.066,-13.184,94.727
1688305401.094,-16.113,-37.598,-15.625,-0.488,179.199
1688305401.097,-37.109,-20.508,-18.555,-30.762,247.559
1688305401.101,-49.805,-25.391,-29.297,-50.781,-111.816
1688305401.105,-29.297,-45.898,-39.062,-23.438,-340.332
1688305401.109,-19.043,-31.250,-26.367,12.695,-38.574
1688305401.113,-15.625,-9.277,-13.184,6.836,408.203
1688305401.115,-15.625,-12.695,-4.883,-24.902,132.812
1688305401.119,-45.410,-23.438,-17.578,-54.199,-341.309
1688305401.123,-49.316,-31.250,-34.668,-58.105,-311.035
1688305401.127,-39.062,-21.484,-28.809,-33.691,-87.402
1688305401.131,-39.551,-27.832,-27.832,-22.461,49.805
1688305401.135,-34.668,-39.551,-24.902,-41.016,-49.805
1688305401.139,-55.664,-33.203,-29.297,-66.406,-77.148
1688305401.142,-47.363,-15.137,-39.551,-45.898,125.977
1688305401.146,-16.113,-3.906,-32.227,-0.488,23.438
1688305401.150,-12.695,-18.555,-25.879,-0.977,104.492
1688305401.154,-10.742,-39.551,-21.484,-25.391,120.117
1688305401.158,-26.367,-37.109,-19.043,-43.457,-198.730
1688305401.160,-26.367,-23.926,-26.855,-35.156,-316.406
1688305401.164,-6.836,-18.066,-17.090,-6.348,-131.836
1688305401.168,-5.859,-21.484,-11.230,5.371,255.371
1688305401.172,-13.672,-24.414,-15.625,-15.137,198.242
1688305401.176,-39.062,-27.344,-21.973,-43.945,-235.352
1688305401.180,-39.062,-25.391,-36.133,-44.434,-238.281
1688305401.184,-13.184,-19.531,-33.691,-14.648,216.309
1688305401.187,-5.859,-20.020,-23.926,-5.371,334.473
1688305401.191,-23.438,-30.762,-25.879,-33.691,-8.789
1688305401.195,-50.293,-36.621,-33.691,-62.012,-211.426
1688305401.199,-34.180,-30.273,-21.973,-45.898,-262.695
1688305401.203,-19.531,-33.203,-18.066,-28.809,-185.547
1688305401.206,-20.508,-34.180,-33.203,-18.066,37.109
1688305401.210,-25.391,-30.762,-30.273,-33.203,123.535
1688305401.214,-36.133,-32.227,-20.508,-48.340,-18.066
1688305401.218,-39.062,-38.574,-32.715,-37.109,-309.570
1688305401.222,-40.039,-31.738,-38.574,-30.762,-289.551
1688305401.226,-31.738,-33.203,-22.949,-17.090,208.984
1688305401.230,-24.902,-36.621,-13.672,-21.484,369.629
1688305401.233,-33.203,-18.555,-27.344,-49.805,-114.746
1688305401.237,-51.758,-14.160,-40.039,-60.059,-409.668
1688305401.241,-46.875,-2.441,-27.832,-39.551,-212.402
1688305401.245,-30.762,-10.742,-22.461,-13.184,105.957
1688305401.249,-21.973,-54.688,-20.508,-18.555,95.215
1688305401.265,-37.598,-39.062,-18.066,-51.758,-118.652
1688305401.269,-62.500,-12.695,-36.133,-74.219,-119.629
1688305401.273,-41.016,-24.414,-46.387,-48.828,56.641
1688305401.277,-16.113,-22.949,-29.785,-10.254,36.621
1688305401.281,-12.695,-21.484,-21.484,-12.207,10.742
1688305401.285,-19.531,-21.973,-34.668,-45.410,160.156
1688305401.289,-36.133,-12.207,-40.039,-68.359,104.492
1688305401.292,-29.785,-6.836,-22.461,-44.922,-313.965
1688305401.296,-2.441,-12.695,-16.113,-5.859,-181.152
1688305401.300,-2.930,-26.855,-23.926,-2.441,215.332
1688305401.304,-29.297,-28.809,-33.203,-49.805,5.371
1688305401.308,-32.227,-39.062,-40.039,-76.660,-347.168
1688305401.310,-27.832,-45.410,-47.363,-64.941,-326.660
1688305401.314,-23.926,-31.738,-40.527,-35.156,-77.148
1688305401.318,-0.977,-30.762,-26.855,-18.555,104.492
1688305401.322,-10.742,-34.180,-31.250,-44.434,-29.297
1688305401.326,-44.922,-22.461,-27.344,-63.477,-208.984
1688305401.330,-51.758,-22.461,-17.090,-45.898,-105.469
1688305401.334,-28.320,-23.438,-13.672,-4.883,48.828
1688305401.337,-7.324,-24.902,-17.578,21.484,160.156
1688305401.341,-17.090,-35.156,-23.926,-6.836,141.602
1688305401.345,-53.223,-31.738,-24.414,-49.805,179.688
1688305401.349,-71.289,-40.039,-33.691,-61.035,-171.387
1688305401.353,-48.340,-50.293,-35.156,-23.438,-232.910
1688305401.355,-20.996,-35.645,-28.320,16.113,239.746
1688305401.359,-26.367,-20.996,-21.973,-9.277,192.383
1688305401.363,-36.621,-6.348,-14.160,-29.297,-270.996
1688305401.367,-25.391,-10.742,-21.484,-15.625,-371.582
1688305401.371,-25.391,-24.902,-40.039,-16.602,-109.375
1688305401.375,-35.645,-34.668,-35.156,-14.160,146.973
1688305401.379,-35.156,-33.203,-30.273,-27.832,225.586
1688305401.382,-62.500,-31.250,-40.527,-64.453,-57.617
1688305401.386,-64.453,-30.762,-37.598,-56.152,3.906
1688305401.390,-26.855,-22.461,-26.367,-21.484,199.707
1688305401.394,-12.695,-29.785,-25.879,-0.488,34.668
1688305401.398,-9.277,-43.457,-19.043,6.348,0.000
1688305401.400,-20.996,-28.809,-20.508,-24.902,-144.531
1688305401.404,-37.109,-14.160,-32.227,-42.480,-353.516
1688305401.408,-38.086,-56.152,-34.668,-30.762,-262.207
1688305401.412,-36.133,-60.059,-31.250,-7.324,20.020
1688305401.416,-23.438,-10.742,-27.832,-3.906,137.695
1688305401.420,-22.461,0.000,-36.133,-35.645,8.789
1688305401.424,-34.668,-13.184,-37.598,-42.969,-176.270
1688305401.427,-28.320,-13.672,-19.043,-31.250,-153.320
1688305401.431,-16.602,-24.414,-16.113,2.441,268.555
1688305401.435,-19.043,-40.527,-27.344,8.301,285.645
1688305401.439,-32.715,-37.598,-28.809,-36.133,-109.375
1688305401.443,-46.387,-43.945,-33.691,-57.129,-227.539
1688305401.445,-44.922,-48.340,-34.180,-45.410,-41.016
1688305401.449,-17.090,-35.156,-18.555,-22.949,-13.672
1688305401.453,4.395,-29.297,-17.090,-12.695,62.988
1688305401.457,-14.648,-37.109,-17.578,-26.367,31.250
1688305401.461,-40.527,-24.902,-25.879,-41.016,-229.492
1688305401.465,-24.902,2.441,-25.879,-25.879,-244.141
1688305401.469,-4.395,-10.742,-10.742,12.207,-12.695
1688305401.472,-13.672,-36.133,-20.020,3.906,319.336
1688305401.476,-43.457,-31.738,-34.180,-41.504,171.387
1688305401.480,-62.012,-26.367,-33.203,-48.828,-333.008
1688305401.484,-43.945,-24.902,-33.203,-33.691,-358.887
1688305401.488,-23.926,-31.250,-36.621,-5.859,-39.551
1688305401.490,-18.555,-36.133,-26.855,14.648,187.500
1688305401.494,-24.902,-33.203,-8.301,3.906,-15.137
1688305401.498,-41.504,-17.578,-6.836,-26.367,-236.328
1688305401.502,-33.203,-6.836,-24.414,-39.551,-161.133
1688305401.506,-27.832,-32.227,-23.926,-19.043,-95.703
1688305401.510,-31.250,-38.574,-30.273,-10.742,130.371
1688305401.514,-20.996,-31.250,-38.086,-22.949,266.113
1688305401.517,-36.133,-44.434,-34.668,-50.781,4.395
1688305401.521,-32.715,-19.043,-32.715,-28.320,-331.543
1688305401.525,-15.137,-8.301,-27.344,13.184,-252.441
1688305401.529,-20.996,-23.926,-20.508,1.465,97.168
1688305401.533,-20.020,-15.137,-15.137,-26.855,199.707
1688305401.536,-20.996,-24.414,-24.414,-44.434,-105.469
1688305401.540,-35.156,-21.484,-41.016,-47.363,-330.566
1688305401.544,-34.668,-21.484,-30.273,-29.785,7.812
1688305401.548,-20.996,-26.367,-19.043,0.488,341.309
1688305401.552,-17.090,-29.297,-25.391,-10.254,64.941
1688305401.556,-24.902,-30.273,-33.203,-38.574,-122.070
1688305401.560,-28.320,-31.738,-22.461,-29.297,60.059
1688305401.563,-20.020,-37.598,-10.254,-9.277,11.230
1688305401.567,2.441,-9.277,-9.766,21.973,-103.516
1688305401.571,4.883,-0.977,-8.789,18.555,37.109
1688305401.575,-18.066,-20.508,-16.602,-21.973,-162.109
1688305401.579,-49.805,-31.250,-33.691,-46.875,-401.367
1688305401.580,-58.105,-35.645,-45.410,-42.969,-263.672
1688305401.584,-30.273,-56.152,-39.551,-11.719,26.855
1688305401.588,-7.324,-46.387,-28.320,-7.812,159.668
1688305401.592,-28.320,-23.438,-37.109,-48.828,-91.797
1688305401.596,-47.852,-13.672,-24.414,-48.340,-406.250
1688305401.600,-12.207,-5.859,-25.391,-9.766,-179.688
1688305401.604,-1.953,-13.672,-20.020,5.371,311.035
1688305401.607,-5.859,-13.672,-16.602,1.465,246.582
1688305401.611,-20.996,-9.766,-37.109,-28.809,-95.703
1688305401.615,-45.410,-18.555,-37.109,-48.828,-214.355
1688305401.619,-38.086,-18.066,-23.926,-35.645,-156.250
1688305401.623,-19.043,-16.113,-16.113,-6.348,-13.184
1688305401.640,-22.461,-35.156,-32.715,-9.277,170.898
1688305401.644,-23.926,-19.043,-34.180,-26.855,223.145
1688305401.648,-43.945,-13.672,-27.832,-41.016,241.211
1688305401.652,-51.758,-11.230,-39.551,-49.805,-166.016
1688305401.656,-23.438,-7.812,-32.227,-19.043,-216.309
1688305401.660,-26.855,-24.414,-45.898,-12.695,284.180
1688305401.664,-43.457,-22.461,-54.199,-44.922,197.754
1688305401.667,-46.387,-20.020,-32.227,-59.082,-220.703
1688305401.671,-42.969,-20.996,-28.320,-50.293,-306.641
1688305401.675,-32.715,-19.531,-30.762,-17.090,101.074
1688305401.679,-18.066,-23.438,-30.273,5.371,331.543
1688305401.683,-21.484,-18.066,-25.879,-23.438,-43.945
1688305401.685,-51.270,-9.277,-22.461,-53.223,-333.496
1688305401.689,-64.453,-14.648,-23.438,-48.340,-380.371
1688305401.693,-41.992,-35.645,-19.531,-28.320,-231.934
1688305401.697,-15.137,-39.551,-13.672,6.348,13.184
1688305401.701,-13.184,-23.438,-15.625,8.301,28.320
1688305401.705,-32.227,-29.297,-19.043,-16.113,-83.008
1688305401.709,-30.762,-34.668,-12.695,-7.812,-187.988
1688305401.712,-21.484,-34.668,-7.812,20.996,-263.184
1688305401.716,-7.324,-43.945,-9.277,39.551,48.340
1688305401.720,-3.418,-47.852,-10.742,25.391,423.340
1688305401.724,-14.160,-34.180,-12.695,-11.230,-43.945
1688305401.728,-12.207,-28.809,-21.973,-18.555,-415.039
1688305401.730,-1.465,-32.227,-22.461,25.879,-27.832
1688305401.734,12.695,-43.945,-17.578,54.688,327.148
1688305401.738,25.879,-43.945,-19.531,39.551,90.332
1688305401.742,2.930,-24.414,5.859,17.578,-166.016
1688305401.746,-22.949,-24.414,2.930,-10.254,-222.168
1688305401.750,-28.809,-29.785,-24.902,-11.719,-106.934
1688305401.754,-29.785,-28.320,-33.203,6.348,71.289
1688305401.757,-30.273,-22.949,-35.156,-14.160,91.309
1688305401.761,-43.945,-29.785,-35.156,-50.293,153.320
1688305401.765,-59.082,-43.457,-24.414,-51.758,-43.945
1688305401.769,-48.828,-45.410,-23.926,-23.926,-307.617
1688305401.773,-32.227,-40.039,-26.367,0.000,-72.754
1688305401.775,-19.531,-39.551,-21.484,-1.953,189.453
1688305401.779,-16.602,-43.457,-18.555,-20.020,-16.113
1688305401.783,-34.180,-32.715,-20.020,-40.527,-323.242
1688305401.787,-39.062,-38.086,-13.672,-20.996,-272.461
1688305401.791,-31.250,-41.504,-9.277,11.230,94.727
1688305401.795,-25.879,-20.020,-18.066,6.348,209.961
1688305401.799,-29.297,-21.484,-32.715,-25.391,-15.137
1688305401.802,-37.598,-36.621,-29.297,-45.410,-115.723
1688305401.806,-36.133,-31.738,-26.367,-33.203,52.734
1688305401.810,-24.414,-17.578,-40.527,-13.184,-35.645
1688305401.814,-9.766,-15.625,-31.250,2.930,0.000
1688305401.818,0.488,-27.832,-12.207,-12.207,35.156
1688305401.820,-19.043,-35.156,-18.555,-41.992,-147.461
1688305401.824,-33.203,-19.043,-28.809,-39.062,-290.527
1688305401.828,-24.414,-16.113,-32.227,-22.949,-125.000
1688305401.832,-5.371,-29.785,-15.625,-8.789,403.320
1688305401.836,-6.836,-20.996,-17.090,-24.414,353.516
1688305401.840,-28.809,-19.531,-28.320,-51.758,-124.023
1688305401.844,-26.367,-23.926,-28.809,-42.969,-239.258
1688305401.847,-11.230,-19.043,-30.762,-11.719,27.832
1688305401.851,-14.160,-21.484,-29.785,3.906,263.184
1688305401.855,-14.160,-13.672,-13.672,-5.859,-12.695
1688305401.859,-13.672,-6.348,-10.254,-28.809,-330.078
1688305401.863,-16.113,-23.438,-22.461,-36.133,-405.762
1688305401.865,-10.254,-27.344,-15.625,-13.672,-328.613
1688305401.869,-13.184,-23.926,-17.578,1.953,-108.398
1688305401.873,-17.090,-17.090,-27.344,-10.742,-22.461
1688305401.877,-31.250,-29.297,-32.227,-37.109,-173.828
1688305401.881,-38.086,-41.992,-39.551,-43.457,-336.426
1688305401.885,-31.250,-20.508,-39.551,-24.902,-247.070
1688305401.889,-18.066,-3.418,-34.180,1.465,194.824
1688305401.892,-12.695,-8.789,-28.320,-2.930,587.402
1688305401.896,-21.973,-21.484,-34.668,-38.574,77.637
1688305401.900,-22.949,-24.902,-31.250,-41.504,-427.734
1688305401.904,-8.789,-14.648,-22.949,-10.254,-219.727
1688305401.908,-5.859,-17.578,-25.391,9.766,52.246
1688305401.910,-8.301,-15.137,-23.926,-4.883,159.180
1688305401.914,-11.230,-6.348,-23.926,-36.133,-93.750
1688305401.918,-24.902,-13.184,-13.184,-26.855,-211.426
1688305401.922,-46.875,-21.973,-17.090,-17.578,-96.680
1688305401.926,-43.945,-19.043,-28.320,-6.348,-20.996
1688305401.930,-30.273,-18.066,-26.855,4.395,73.730
1688305401.934,-34.668,-21.484,-20.508,-20.996,154.785
1688305401.937,-42.480,-24.902,-9.766,-38.086,-41.504
1688305401.941,-22.461,-17.578,-5.371,-30.273,-333.984
1688305401.945,-14.160,-33.691,-13.672,-8.301,-136.230
1688305401.949,-22.949,-34.180,-18.066,-4.883,207.520
1688305401.953,-24.414,-12.207,-19.531,-33.203,9.277
1688305401.955,-45.410,-19.043,-16.602,-29.297,-321.777
1688305401.959,-43.945,-31.250,-14.160,-12.207,-292.969
1688305401.963,-15.137,-22.461,-26.367,11.230,-67.383
1688305401.967,-12.207,-17.090,-28.809,12.207,86.914
1688305401.971,-23.438,-21.973,-20.508,-26.367,-32.715
1688305401.975,-40.039,-35.156,-27.832,-57.129,-179.688
1688305401.979,-43.457,-33.691,-34.180,-52.734,-78.125
1688305401.982,-20.996,-9.277,-32.227,-12.207,34.180
1688305401.986,-5.859,1.953,-29.785,-0.488,54.199
1688305401.990,-29.785,-11.719,-25.879,-35.645,68.848
1688305401.994,-44.922,-31.738,-26.855,-53.711,37.598
1688305401.998,-27.344,-40.039,-10.742,-26.367,-233.887
1688305402.015,-20.996,-33.203,-13.184,-1.953,-214.844
1688305402.019,-33.203,-41.504,-35.645,-7.324,176.270
1688305402.023,-44.434,-41.016,-41.992,-29.297,295.410
1688305402.027,-57.129,-14.160,-34.180,-59.082,-223.633
1688305402.031,-49.316,-14.160,-24.902,-59.570,-425.293
1688305402.035,-30.762,-36.621,-31.738,-40.039,-80.078
1688305402.039,-15.625,-30.273,-45.410,-25.391,125.977
1688305402.042,-3.418,-27.344,-39.551,-28.809,-2.930
1688305402.046,-15.137,-35.156,-24.902,-45.898,-249.512
1688305402.050,-24.414,-31.738,-19.043,-41.016,-83.984
1688305402.054,-15.625,-26.855,-20.996,-11.719,25.391
1688305402.058,-10.254,-31.250,-26.367,16.113,30.762
1688305402.060,-2.930,-28.320,-26.367,9.766,122.559
1688305402.064,-26.367,-25.391,-31.250,-17.578,-8.789
1688305402.068,-56.641,-49.805,-43.945,-43.457,-263.184
1688305402.072,-43.945,-59.082,-19.043,-27.344,-248.535
1688305402.076,-28.320,-34.668,-6.348,-3.418,62.012
1688305402.080,-34.180,-21.973,-24.414,-27.344,258.789
1688305402.084,-46.875,-28.320,-23.926,-52.246,38.086
1688305402.087,-48.828,-23.438,-34.668,-66.406,-263.672
1688305402.091,-35.156,-21.973,-42.969,-46.387,-180.664
1688305402.095,-23.438,-27.832,-25.879,-8.789,318.848
1688305402.099,-19.531,-20.508,-14.648,-18.066,236.816
1688305402.103,-41.504,-24.902,-37.109,-63.965,-112.793
1688305402.105,-69.336,-35.645,-50.293,-77.148,-68.848
1688305402.109,-68.359,-40.039,-38.086,-59.082,-73.730
1688305402.113,-40.039,-27.344,-25.391,-27.344,-137.207
1688305402.117,-11.230,-36.133,-20.996,-10.742,33.203
1688305402.121,-20.508,-50.293,-18.066,-26.855,128.418
1688305402.125,-49.316,-38.574,-16.602,-43.457,-37.598
1688305402.129,-45.410,-18.555,-26.855,-37.598,-150.879
1688305402.132,-32.227,-4.883,-35.156,-10.254,-54.688
1688305402.136,-18.555,-22.461,-40.527,0.000,312.012
1688305402.140,-24.902,-39.551,-41.016,-30.273,157.715
1688305402.144,-41.016,-11.230,-18.555,-44.922,-308.105
1688305402.148,-40.527,-10.742,-6.836,-36.621,-266.602
1688305402.150,-27.832,-35.645,-15.625,-13.672,-61.523
1688305402.154,-5.371,-26.855,-26.855,20.020,84.473
1688305402.158,-17.578,-20.996,-40.039,-10.742,-8.301
1688305402.162,-39.551,-24.902,-28.809,-62.012,-256.348
1688305402.166,-39.062,-27.344,-20.996,-60.547,-299.316
1688305402.170,-31.250,-27.344,-32.227,-32.715,-31.738
1688305402.174,-38.086,-27.832,-41.992,-33.691,170.410
1688305402.177,-45.410,-18.066,-41.504,-60.059,209.473
1688305402.181,-46.387,-8.301,-34.180,-71.289,258.301
1688305402.185,-50.781,-12.207,-40.527,-76.172,-81.055
1688305402.189,-44.922,-12.207,-50.781,-57.617,-249.512
1688305402.193,-38.086,-7.812,-45.410,-50.781,120.605
1688305402.195,-37.109,-8.301,-50.293,-72.754,271.973
1688305402.199,-50.781,-16.602,-59.570,-89.844,-115.723
1688305402.203,-58.594,-29.297,-51.758,-83.496,-366.699
1688305402.207,-32.715,-27.344,-38.574,-49.805,-96.191
1688305402.211,-19.531,-25.391,-36.133,-23.926,139.648
1688305402.215,-27.344,-30.762,-36.621,-40.527,72.266
1688305402.219,-33.691,-19.043,-25.391,-54.199,-148.438
1688305402.222,-45.898,-23.926,-22.461,-56.152,-79.102
1688305402.226,-39.551,-37.109,-29.297,-36.621,48.340
1688305402.230,-30.762,-41.016,-28.809,-11.719,-38.574
1688305402.234,-29.785,-51.758,-28.809,-32.227,123.535
1688305402.238,-38.086,-45.410,-38.086,-61.523,104.980
1688305402.240,-55.664,-18.066,-57.617,-74.219,-216.309
1688305402.244,-43.457,-3.418,-51.270,-51.758,-252.441
1688305402.248,-12.207,-14.160,-26.855,-5.371,36.133
1688305402.252,-1.953,-34.180,-19.531,-4.395,245.117
1688305402.256,-20.020,-28.809,-14.160,-38.574,-56.641
1688305402.260,-52.246,-23.438,-22.949,-59.570,-369.629
1688305402.264,-51.270,-43.945,-43.457,-41.504,-87.891
1688305402.267,-35.156,-42.480,-49.316,-24.902,432.617
1688305402.271,-28.320,-14.160,-29.785,-37.109,252.930
1688305402.275,-30.762,-4.883,-25.391,-54.199,-127.930
1688305402.279,-33.691,-20.508,-43.457,-65.430,-273.926
1688305402.283,-35.645,-22.461,-36.621,-58.105,-215.332
1688305402.285,-22.461,-19.531,-14.160,-20.996,-24.414
1688305402.289,2.441,-13.672,4.395,0.000,22.461
1688305402.293,-8.789,-31.250,10.742,-31.250,87.402
1688305402.297,-59.082,-54.199,-21.484,-72.266,-41.504
1688305402.301,-54.199,-37.598,-49.316,-66.895,-289.551
1688305402.305,-26.367,-29.785,-35.156,-30.762,-4.395
1688305402.309,-29.297,-38.574,-21.484,-15.137,474.121
1688305402.312,-42.480,-50.781,-28.320,-47.852,306.641
1688305402.316,-52.734,-37.598,-36.133,-75.195,-278.320
1688305402.320,-37.598,-11.230,-38.574,-51.270,-348.633
1688305402.324,-25.391,-10.742,-27.832,-24.414,-77.637
1688305402.328,-22.461,-25.391,-26.367,-13.184,83.496
1688305402.331,-31.738,-30.762,-25.879,-37.598,-24.902
1688305402.335,-47.363,-36.133,-30.762,-58.594,-230.469
1688305402.339,-48.828,-54.688,-40.527,-68.359,-181.641
1688305402.343,-36.621,-46.387,-40.527,-52.246,-123.047
1688305402.347,-24.902,-28.809,-34.668,-33.203,4.395
1688305402.351,-26.855,-20.020,-29.785,-40.039,169.922
1688305402.355,-38.574,-15.137,-24.902,-46.387,78.613
1688305402.358,-28.320,-10.742,-13.184,-39.551,-269.531
1688305402.362,-19.531,-20.996,-31.250,-12.207,-291.992
1688305402.366,-27.832,-28.809,-51.758,5.371,67.383
1688305402.370,-23.438,-28.809,-38.086,-15.137,134.766
1688305402.374,-32.715,-40.527,-21.484,-53.223,-161.621
1688305402.390,-50.781,-45.898,-34.668,-67.383,-271.484
1688305402.394,-35.156,-64.453,-34.180,-33.691,-9.277
1688305402.398,-16.113,-42.480,-20.508,-1.953,264.648
1688305402.402,-17.090,-5.371,-19.043,-19.043,178.711
1688305402.406,-41.016,-21.484,-24.902,-46.387,-66.406
1688305402.410,-56.641,-30.762,-41.016,-57.129,55.176
1688305402.414,-45.410,-39.062,-54.688,-44.922,285.645
1688305402.417,-20.996,-38.574,-35.156,-1.465,44.434
1688305402.421,-8.789,-32.227,-21.973,-7.324,6.836
1688305402.425,-18.066,-31.250,-36.133,-49.805,52.734
1688305402.429,-23.926,-27.344,-40.039,-52.734,-262.695
1688305402.433,-17.090,-33.691,-37.598,-33.203,-398.438
1688305402.435,-13.184,-41.504,-24.902,-21.484,-116.699
1688305402.439,-8.301,-30.762,-15.625,-20.020,128.418
1688305402.443,-18.066,-21.484,-14.160,-40.527,-61.523
1688305402.447,-46.387,-22.949,-10.254,-52.246,-309.570
1688305402.451,-40.039,-19.531,-8.789,-36.621,-251.465
1688305402.455,-20.020,-17.090,-25.879,-11.230,93.262
1688305402.459,-1.953,-23.926,-33.691,4.395,258.789
1688305402.462,-17.578,-27.344,-20.996,-20.508,27.344
1688305402.466,-55.176,-28.809,-20.020,-58.594,-242.676
1688305402.470,-38.574,-20.996,-6.348,-42.480,-285.156
1688305402.474,-25.391,-29.297,-8.789,-7.812,-131.348
1688305402.478,-39.062,-46.387,-23.438,-2.441,107.910
1688305402.480,-44.434,-49.805,-15.625,-26.855,256.348
1688305402.484,-59.082,-45.898,-1.465,-44.922,271.973
1688305402.488,-62.012,-41.016,2.441,-24.902,-84.961
1688305402.492,-42.480,-45.898,-0.977,11.719,-183.594
1688305402.496,-29.785,-55.176,-8.789,24.902,121.094
1688305402.500,-35.156,-59.082,-12.695,-4.395,99.121
1688305402.504,-60.547,-74.707,-19.531,-28.320,-156.250
1688305402.507,-65.430,-67.383,-21.484,-20.996,-349.121
1688305402.511,-36.133,-62.012,-21.484,6.348,155.273
1688305402.515,-17.578,-78.125,-31.738,22.461,598.633
1688305402.519,-29.785,-53.711,-34.668,-11.719,127.441
1688305402.523,-30.273,-31.738,-12.207,-23.926,-239.258
1688305402.525,-28.320,-55.176,-17.578,-14.648,-287.598
1688305402.529,-31.738,-53.711,-19.531,0.000,-188.477
1688305402.533,-23.926,-28.809,-10.742,20.508,11.719
1688305402.537,-15.137,-20.996,-16.602,-7.324,19.043
1688305402.541,-35.645,-31.738,-29.785,-59.570,-203.613
1688305402.545,-64.941,-39.551,-33.691,-68.848,-251.953
1688305402.549,-46.387,-46.875,-19.531,-29.785,-134.277
1688305402.552,-30.273,-56.152,-33.691,-2.441,129.395
1688305402.556,-25.391,-46.387,-50.293,-18.555,428.711
1688305402.560,-35.156,-33.691,-39.551,-39.551,0.488
1688305402.564,-38.574,-31.250,-9.277,-34.668,-330.566
1688305402.568,-18.066,-30.762,3.418,-14.160,-111.328
1688305402.585,-11.719,-22.461,-7.324,0.000,169.922
1688305402.589,-8.789,-13.672,-11.719,-6.836,78.613
1688305402.593,-21.484,-30.762,-13.184,-41.992,-210.449
1688305402.597,-44.922,-62.500,-17.090,-71.289,-220.215
1688305402.601,-42.969,-53.711,-29.785,-57.129,-108.887
1688305402.605,-38.574,-38.574,-35.156,-19.531,57.617
1688305402.609,-16.602,-35.645,-26.367,0.488,184.082
1688305402.612,-11.230,-37.109,-27.344,-25.391,122.559
1688305402.616,-37.109,-44.434,-40.039,-44.434,-136.230
1688305402.620,-25.879,-44.922,-40.527,-24.902,-354.492
1688305402.624,-4.883,-30.273,-33.203,-3.418,-127.441
1688305402.628,-0.977,-33.203,-22.461,-0.488,53.711
1688305402.616,-5.859,-25.391,-7.812,-13.672,-147.949
1688305402.620,-40.039,-27.344,-2.441,-42.480,-385.254
1688305402.624,-39.551,-39.062,-6.836,-35.645,-252.930
1688305402.628,-29.297,-43.457,-1.953,-8.789,75.684
1688305402.632,-43.457,-52.246,-2.930,-18.066,188.477
1688305402.636,-47.363,-56.152,-3.418,-37.598,65.430
1688305402.640,-54.199,-50.781,-12.207,-44.922,-123.047
1688305402.643,-44.922,-41.992,-12.207,-20.020,-158.203
1688305402.647,-28.320,-39.551,-10.254,12.695,-82.520
1688305402.651,-13.672,-41.016,-15.625,31.738,17.090
1688305402.655,-2.930,-37.109,-9.277,31.738,107.910
1688305402.659,-39.551,-38.086,-22.461,-13.672,148.438
1688305402.660,-49.805,-32.227,-24.902,-30.273,-166.992
1688305402.664,-30.762,-46.875,-19.043,-9.766,-168.945
1688305402.668,-31.250,-78.125,-22.461,2.930,223.633
1688305402.672,-25.879,-54.199,-19.531,3.418,236.328
1688305402.676,-34.668,-24.414,-23.926,-28.809,-167.969
1688305402.680,-40.527,-38.086,-26.367,-44.922,-275.391
1688305402.684,-22.461,-53.223,-26.367,-10.254,105.957
1688305402.687,-11.719,-27.832,-26.367,7.324,427.246
1688305402.691,-16.602,-15.137,-24.902,-14.648,64.453
1688305402.695,-31.738,-32.227,-21.484,-33.203,-287.109
1688305402.699,-35.645,-28.809,-19.531,-38.086,-306.152
1688305402.703,-33.691,-28.809,-31.738,-32.715,-246.582
1688305402.705,-30.762,-36.621,-34.668,-20.508,-41.504
1688305402.709,-29.297,-28.809,-27.344,-28.320,60.547
1688305402.713,-48.340,-24.902,-27.832,-46.875,-105.469
1688305402.717,-51.758,-24.902,-37.109,-57.617,-304.199
1688305402.721,-36.133,-39.551,-32.715,-39.551,-269.531
1688305402.725,-25.391,-41.016,-23.438,-3.906,232.910
1688305402.729,-10.254,-34.180,-22.949,-4.883,534.668
1688305402.732,-29.297,-43.945,-30.273,-49.316,80.566
1688305402.736,-49.316,-40.039,-38.574,-53.223,-318.359
1688305402.740,-35.645,-23.438,-35.156,-21.484,-201.660
1688305402.744,-26.855,-11.230,-31.250,-12.695,235.352
1688305402.748,-24.902,-21.973,-32.715,-22.949,142.090
1688305402.765,-30.762,-26.367,-31.250,-41.992,-83.984
1688305402.769,-41.992,-20.996,-33.691,-47.363,-168.457
1688305402.773,-44.922,-32.715,-52.246,-44.922,-201.172
1688305402.777,-31.738,-34.180,-46.875,-11.719,-104.492
1688305402.781,-18.555,-24.902,-24.414,5.371,127.930
1688305402.785,-36.133,-44.922,-29.785,-32.227,254.395
1688305402.789,-43.945,-48.828,-19.531,-41.504,-44.922
1688305402.792,-15.625,-25.879,-9.766,-26.855,-306.641
1688305402.796,-2.441,-25.879,-31.250,-12.207,-111.816
1688305402.800,-10.254,-24.902,-40.039,-15.137,453.125
1688305402.804,-9.277,-16.113,-17.578,-30.762,367.188
1688305402.808,-23.926,-38.086,-21.484,-48.340,-255.371
1688305402.825,-42.969,-30.762,-35.645,-49.805,-335.449
1688305402.829,-34.668,-13.672,-41.016,-22.949,-80.078
1688305402.833,-23.926,-35.156,-41.016,-9.277,70.312
1688305402.837,-16.113,-37.598,-26.367,-27.344,-110.352
1688305402.841,-29.297,-20.508,-23.926,-39.062,-321.777
1688305402.845,-44.434,-20.020,-24.414,-26.367,-254.883
1688305402.849,-43.945,-32.715,-17.090,-6.348,-69.824
1688305402.852,-34.180,-39.062,-19.531,2.930,70.312
1688305402.856,-33.691,-34.668,-35.156,-28.809,87.402
1688305402.860,-49.316,-34.668,-41.992,-51.270,135.254
1688305402.864,-52.246,-33.203,-33.203,-41.992,-203.613
1688305402.868,-34.180,-31.250,-19.531,-17.090,-274.902
1688305402.854,-24.902,-39.062,-21.973,7.324,217.285
1688305402.858,-25.391,-35.645,-38.574,-13.184,361.816
1688305402.862,-32.715,-24.414,-48.340,-34.668,-159.180
1688305402.866,-36.133,-29.297,-50.293,-37.109,-401.855
1688305402.870,-20.996,-55.664,-51.758,-27.344,-95.703
1688305402.874,-9.766,-60.059,-32.227,4.395,190.430
1688305402.878,-20.020,-33.691,-28.320,-17.578,110.840
1688305402.881,-40.039,-13.672,-33.691,-62.012,-107.910
1688305402.885,-52.734,-22.949,-29.785,-66.406,-213.379
1688305402.889,-41.992,-24.414,-25.391,-36.621,-194.336
1688305402.893,-24.414,-20.996,-26.367,-11.230,2.930
1688305402.897,-16.113,-43.457,-30.273,-13.672,148.926
1688305402.901,-32.227,-42.969,-33.691,-30.273,177.246
1688305402.905,-35.645,-28.809,-32.715,-43.457,-96.680
1688305402.909,-8.301,-21.484,-29.297,-21.484,-239.258
1688305402.913,-22.461,-33.203,-29.785,5.371,-1.465
1688305402.917,-35.156,-35.156,-39.551,-11.719,180.664
1688305402.921,-39.551,-39.062,-47.363,-50.781,1.953
1688305402.925,-51.270,-47.363,-37.109,-58.594,-259.277
1688305402.928,-39.062,-34.180,-20.508,-24.414,-232.422
1688305402.932,-21.973,-20.508,-18.066,11.230,261.230
1688305402.936,-17.090,-25.879,-16.113,-2.441,242.188
1688305402.940,-22.949,-27.344,-19.531,-38.574,-139.648
1688305402.944,-40.039,-19.531,-23.926,-61.523,-258.301
1688305402.944,-38.086,-10.742,-33.691,-63.477,-246.582
1688305402.948,-24.902,-26.367,-49.805,-32.715,-92.773
1688305402.952,-23.438,-38.574,-42.969,-22.461,88.379
1688305402.956,-27.832,-36.621,-24.414,-50.293,106.445
1688305402.960,-40.527,-36.133,-20.020,-53.711,-30.273
1688305402.964,-37.109,-22.461,-21.973,-33.203,-157.715
1688305402.968,-21.973,-12.695,-22.949,-14.160,-14.160
1688305402.971,2.930,-15.137,-16.113,7.812,424.316
1688305402.975,3.418,-15.137,-9.766,-1.465,449.219
1688305402.979,-31.250,-17.578,-10.254,-34.668,-225.586
1688305402.983,-54.688,-34.668,-25.391,-52.246,-379.883
1688305402.987,-56.641,-39.062,-40.527,-45.410,-96.191
1688305402.989,-49.316,-37.598,-39.062,-25.879,44.922
1688305402.993,-45.898,-30.762,-29.785,-34.668,-20.508
1688305402.997,-47.363,-24.902,-25.879,-50.781,-256.836
1688305403.001,-44.434,-27.344,-10.254,-43.945,-336.914
1688305403.005,-28.320,-34.180,1.953,-10.254,-132.812
1688305403.009,-25.391,-46.875,-11.230,2.930,186.523
1688305403.013,-23.926,-41.016,-22.949,-18.066,233.398
1688305403.016,-42.480,-39.062,-25.879,-34.668,296.387
1688305403.020,-60.059,-31.738,-20.996,-46.387,-50.293
1688305403.024,-45.410,-16.602,-18.066,-30.762,-287.598
1688305403.028,-40.039,-37.598,-19.531,-16.602,17.578
1688305403.032,-37.598,-57.129,-23.926,-35.645,81.543
1688305403.035,-50.293,-44.922,-29.785,-55.176,-130.859
1688305403.039,-47.363,-25.391,-35.156,-50.293,-341.309
1688305403.043,-24.902,-20.508,-30.273,-22.949,-93.262
1688305403.047,-12.207,-23.438,-18.555,0.000,191.406
1688305403.051,-19.531,-23.926,-25.879,-25.391,48.828
1688305403.055,-39.551,-22.949,-40.527,-50.293,-47.852
1688305403.059,-45.410,-32.227,-33.691,-56.152,76.660
1688305403.062,-30.273,-19.531,-8.789,-33.691,58.594
1688305403.066,-20.996,-1.465,-3.418,1.953,-54.688
1688305403.070,-35.156,-26.367,-29.297,-21.973,80.078
1688305403.074,-45.410,-41.016,-41.504,-52.246,135.254
1688305403.078,-38.086,-17.090,-34.180,-48.340,-207.520
1688305403.080,-20.020,-24.902,-32.715,-38.574,-359.863
1688305403.084,-18.066,-53.711,-36.133,-19.531,-64.941
1688305403.088,-21.484,-33.203,-38.574,-15.625,116.699
1688305403.092,-39.062,-17.090,-38.574,-47.363,-98.145
1688305403.096,-54.199,-20.020,-34.180,-60.547,-396.484
1688305403.100,-36.621,-16.113,-12.207,-27.344,-229.004
1688305403.104,-21.484,-28.809,-21.973,4.395,242.676
1688305403.107,-17.578,-33.203,-51.270,-3.906,220.703
1688305403.111,-31.738,-30.762,-44.922,-32.227,-112.305
1688305403.115,-45.410,-31.738,-34.668,-44.434,-272.461
1688305403.119,-41.992,-36.133,-38.086,-32.715,-218.750
1688305403.123,-20.996,-21.973,-24.902,8.789,-63.477
1688305403.126,-9.277,-15.137,-25.391,12.207,129.395
1688305403.130,-25.879,-29.785,-31.250,-26.367,239.258
1688305403.134,-46.875,-33.203,-32.227,-54.688,117.188
1688305403.138,-45.410,-21.484,-28.320,-56.152,-282.715
1688305403.142,-13.184,-9.766,-16.113,-26.367,-205.078
1688305403.146,1.465,-18.066,-32.715,-8.789,266.113
1688305403.150,-31.250,-30.762,-50.781,-48.828,214.844
1688305403.153,-48.828,-24.902,-32.715,-79.590,-258.301
1688305403.157,-34.668,-23.926,-18.555,-56.152,-351.074
1688305403.161,-15.625,-22.949,-14.160,-19.531,60.059
1688305403.165,-1.465,-20.996,-22.461,-3.418,198.730
1688305403.169,-9.766,-34.668,-38.086,-29.785,-55.176
1688305403.186,-41.504,-42.480,-34.180,-57.129,-217.285
1688305403.190,-55.176,-32.227,-28.320,-62.012,-220.703
1688305403.194,-31.738,-6.836,-23.438,-31.250,-144.531
1688305403.198,-17.090,-3.906,-27.344,3.906,4.395
1688305403.202,-21.484,-11.719,-20.996,-9.766,104.004
1688305403.206,-49.805,-23.438,-12.207,-42.969,149.902
1688305403.210,-73.242,-51.270,-28.809,-65.430,-77.148
1688305403.213,-50.781,-59.082,-30.762,-40.527,-126.953
1688305403.217,-19.531,-49.316,-20.020,6.836,104.492
1688305403.221,-17.090,-32.227,-16.602,6.348,128.418
1688305403.225,-33.203,-24.902,-22.949,-30.762,-192.383
1688305403.229,-42.969,-34.180,-28.809,-43.945,-381.836
1688305403.230,-26.855,-33.691,-31.250,-28.809,-51.758
1688305403.234,-16.113,-32.715,-39.551,-15.625,514.648
1688305403.238,-8.789,-28.320,-35.645,-9.277,251.465
1688305403.242,-14.648,-21.973,-34.668,-28.320,-242.676
1688305403.246,-31.250,-25.391,-36.133,-39.062,-305.664
1688305403.250,-20.508,-29.785,-31.738,-28.809,-207.031
1688305403.254,-4.395,-27.344,-29.297,3.418,12.695
1688305403.257,-1.953,-24.902,-33.691,7.812,124.023
1688305403.261,-8.301,-27.832,-41.504,-21.973,160.645
1688305403.265,-22.949,-30.762,-35.645,-40.039,76.172
1688305403.269,-15.625,-26.855,-33.691,-31.250,-241.211
1688305403.273,-2.441,-31.250,-47.363,-17.090,-123.047
1688305403.274,-0.488,-43.457,-52.246,-17.578,104.004
1688305403.278,4.883,-32.227,-32.227,-22.461,-121.582
1688305403.282,0.977,-27.832,-25.391,-30.273,-390.625
1688305403.286,-16.602,-49.805,-44.922,-37.598,-354.980
1688305403.290,-20.508,-44.434,-48.828,-18.066,-100.586
1688305403.294,-4.883,-36.621,-28.320,5.859,177.734
1688305403.298,-14.648,-43.945,-20.996,-24.414,32.715
1688305403.301,-49.316,-33.691,-35.645,-58.105,-203.125
1688305403.305,-48.340,-17.090,-40.039,-40.039,83.496
1688305403.309,-19.531,-10.742,-44.434,-7.812,94.727
1688305403.313,-7.324,-16.602,-51.758,5.859,-29.297
1688305403.317,-3.906,-20.996,-50.781,-3.418,0.488
1688305403.320,-18.555,-19.531,-36.133,-24.414,-92.773
1688305403.324,-22.949,-19.043,-19.043,-20.508,-246.094
1688305403.328,-13.672,-22.949,-21.973,-3.418,-138.672
1688305403.332,-8.301,-30.273,-27.344,-2.441,221.680
1688305403.336,-20.508,-41.992,-45.410,-31.738,199.219
1688305403.340,-40.039,-41.992,-45.410,-58.105,-132.324
1688305403.344,-29.297,-22.461,-20.996,-41.992,-173.340
1688305403.347,-29.785,-43.945,-24.902,-13.672,134.277
1688305403.351,-28.809,-51.758,-34.180,-6.348,326.660
1688305403.355,-24.414,-27.344,-31.738,-24.414,64.453
1688305403.359,-43.945,-21.484,-30.273,-49.316,-121.582
1688305403.363,-39.062,-15.137,-28.809,-46.875,-171.387
1688305403.364,-19.043,-15.625,-24.414,-18.555,-170.410
1688305403.368,-9.277,-14.648,-9.277,9.277,1.465
1688305403.372,-7.324,-12.207,-3.906,1.953,80.566
1688305403.376,-41.504,-28.809,-14.160,-38.574,-52.246
1688305403.380,-53.223,-55.176,-27.832,-44.922,-350.098
1688305403.384,-28.320,-45.410,-30.273,-29.785,-261.719
1688305403.388,-26.367,-34.180,-32.227,-12.695,191.895
1688305403.391,-23.438,-46.875,-43.945,-10.742,503.418
1688305403.395,-17.578,-38.086,-23.438,-33.691,18.555
1688305403.399,-42.969,-31.738,-15.625,-44.922,-443.848
1688305403.403,-32.715,-24.414,-25.879,-28.320,-270.020
1688305403.407,-7.324,-13.184,-36.621,-5.371,-3.906
1688305403.411,-3.906,-25.391,-45.410,-7.812,95.215
1688305403.415,-17.578,-23.438,-27.832,-31.738,-85.938
1688305403.419,-35.645,-22.949,-12.207,-44.434,-113.281
1688305403.423,-29.297,-39.062,-19.531,-20.508,71.777
1688305403.427,-2.441,-16.113,-27.832,3.906,-1.953
1688305403.431,-1.465,-0.977,-27.832,-17.090,175.781
1688305403.435,-20.508,-10.254,-27.344,-48.828,396.973
1688305403.438,-41.504,-13.672,-34.668,-66.406,42.969
1688305403.442,-42.969,-16.602,-42.480,-62.012,-368.652
1688305403.446,-28.809,-7.812,-50.293,-40.527,-168.945
1688305403.450,-15.625,1.465,-47.852,-20.020,145.996
1688305403.454,-20.508,-5.859,-48.828,-45.410,-5.371
1688305403.455,-41.992,-9.277,-67.383,-79.590,-351.562
1688305403.459,-35.156,-7.812,-50.781,-67.383,-390.137
1688305403.463,-19.531,-22.949,-30.762,-43.945,-62.988
1688305403.467,-18.066,-26.367,-38.086,-35.156,176.758
1688305403.471,-18.066,-11.719,-39.551,-47.363,-20.020
1688305403.475,-39.551,-23.926,-45.898,-86.426,-143.555
1688305403.479,-41.504,-37.598,-50.293,-85.938,180.664
1688305403.482,-21.973,-25.391,-51.270,-46.387,151.367
1688305403.486,-23.438,-26.855,-47.852,-27.344,-23.438
1688305403.490,-25.879,-33.203,-52.734,-44.922,1.465
1688305403.494,-39.062,-15.625,-58.105,-79.590,-196.777
1688305403.498,-40.039,-6.348,-39.062,-67.871,-370.117
1688305403.545,-21.484,-16.113,-44.922,-34.180,-208.984
1688305403.549,-20.020,-28.809,-49.805,-19.043,146.484
1688305403.553,-16.602,-26.855,-36.621,-36.133,188.477
1688305403.557,-26.855,-20.020,-35.645,-55.664,-175.293
1688305403.561,-43.945,-22.949,-37.109,-46.875,-301.270
1688305403.565,-29.297,-24.902,-33.203,-27.344,23.926
1688305403.569,-14.648,-26.855,-23.926,-6.348,233.398
1688305403.572,-25.391,-39.062,-29.785,-28.809,134.277
1688305403.576,-43.945,-33.203,-36.621,-66.406,-151.855
1688305403.580,-64.453,-31.250,-45.898,-73.242,-84.473
1688305403.584,-56.152,-40.527,-48.828,-56.152,128.906
1688305403.588,-25.879,-38.086,-35.645,-20.996,62.012
1688305403.551,-16.113,-22.949,-29.297,-25.391,56.641
1688305403.555,-28.809,-14.648,-29.785,-56.641,-106.934
1688305403.559,-42.969,-21.484,-30.762,-59.570,-327.148
1688305403.563,-25.879,-21.484,-30.762,-22.461,-285.156
1688305403.567,-19.043,-36.133,-46.387,0.000,-9.766
1688305403.571,-41.016,-43.457,-47.852,-18.555,253.906
1688305403.575,-57.129,-29.785,-36.621,-53.223,36.133
1688305403.578,-50.293,-23.926,-25.391,-59.570,-280.273
1688305403.582,-38.086,-26.855,-29.785,-42.969,-148.926
1688305403.586,-20.508,-31.738,-32.227,-23.926,57.617
1688305403.590,-18.066,-40.527,-26.367,-34.668,56.641
1688305403.594,-23.926,-27.832,-28.320,-48.340,-114.258
1688305403.605,-30.273,-27.832,-36.621,-56.641,-185.059
1688305403.609,-30.762,-50.781,-47.363,-63.477,-177.246
1688305403.613,-7.812,-37.109,-32.227,-21.973,-88.867
1688305403.617,27.344,-20.020,-25.391,7.324,89.844
1688305403.621,-15.137,-23.926,-42.969,-41.504,227.051
1688305403.625,-77.148,-9.766,-43.945,-79.102,412.109
1688305403.629,-78.613,-10.254,-37.598,-64.941,436.523
1688305403.632,-72.266,-17.578,-36.621,-47.852,141.113
1688305403.636,-70.801,-33.691,-31.250,-38.574,24.902
1688305403.640,-64.453,-47.363,-14.648,-39.062,-84.961
1688305403.644,-88.379,-32.227,-23.438,-75.195,-312.012
1688305403.648,-123.047,-30.762,-58.105,-109.863,-383.301
1688305403.650,-120.117,-39.062,-58.594,-91.797,-97.656
1688305403.654,-86.426,-31.250,-31.250,-67.383,60.059
1688305403.658,-77.148,-22.949,-19.043,-96.680,-95.703
1688305403.662,-106.445,-12.695,-23.926,-133.789,-295.410
1688305403.666,-107.422,-24.902,-31.250,-125.977,-344.238
1688305403.670,-71.777,-27.344,-24.902,-86.914,-59.570
1688305403.674,-56.152,-19.043,-25.879,-63.477,176.270
1688305403.677,-53.711,-29.785,-35.156,-72.754,150.391
1688305403.681,-73.242,-31.738,-38.574,-92.285,128.906
1688305403.685,-68.359,-26.367,-34.668,-87.402,-187.012
1688305403.689,-21.973,-19.043,-24.414,-47.363,-270.508
1688305403.693,-8.789,-30.762,-35.645,-11.230,54.199
1688305403.696,-15.625,-29.785,-31.738,-19.043,173.340
1688305403.700,-24.902,-29.785,-20.508,-48.828,-66.406
1688305403.704,-35.156,-41.992,-33.203,-58.594,-325.684
1688305403.708,-24.414,-33.691,-29.785,-30.762,-104.980
1688305403.712,-20.020,-21.484,-18.555,-4.883,292.480
1688305403.716,-16.602,-21.973,-24.902,-11.230,187.012
1688305403.720,-25.879,-24.414,-23.926,-41.016,-52.734
1688305403.723,-33.203,-12.695,-2.930,-43.457,-83.984
1688305403.727,-9.277,5.371,0.977,-9.766,-67.383
1688305403.731,-9.766,-2.930,-9.277,-5.859,-83.984
1688305403.735,-21.973,-25.879,-18.066,-20.508,26.367
1688305403.739,-33.691,-39.062,-29.785,-44.434,-125.488
1688305403.740,-40.039,-29.785,-26.855,-49.805,-413.086
1688305403.744,-25.391,-22.461,-16.602,-20.508,-340.820
1688305403.748,-7.812,-32.715,-13.672,2.441,-25.879
1688305403.752,-8.789,-46.875,-23.438,-5.371,158.203
1688305403.756,-15.137,-24.414,-24.414,-29.785,-49.805
1688305403.760,-18.555,8.301,-18.555,-27.344,-208.984
1688305403.764,-22.461,-20.020,-27.344,-15.625,-99.609
1688305403.767,-22.461,-26.367,-26.367,-0.488,331.055
1688305403.771,-35.156,-21.973,-31.250,-5.859,308.105
1688305403.775,-38.574,-35.156,-29.297,-39.551,-125.000
1688305403.779,-39.551,-27.344,-28.809,-47.363,-318.848
1688305403.783,-22.949,-20.996,-27.832,-13.184,-296.387
1688305403.785,-1.465,-17.578,-14.648,18.555,-11.230
1688305403.789,-3.906,-32.715,-13.672,11.230,103.027
1688305403.793,-7.324,-47.363,-14.648,-13.672,57.617
1688305403.797,-31.250,-18.555,-26.367,-38.574,-115.234
1688305403.801,-25.879,1.953,-20.508,-31.738,-316.406
1688305403.805,2.441,-14.160,-10.742,-12.695,-70.801
1688305403.809,-8.789,-31.738,-16.113,-3.418,462.402
1688305403.812,-22.461,-33.691,-22.949,-33.691,398.438
1688305403.816,-27.832,-28.809,-31.250,-53.711,-217.285
1688305403.820,-35.645,-31.738,-40.039,-27.832,-367.676
1688305403.824,-26.367,-28.320,-30.762,-7.324,-10.254
1688305403.828,-11.230,-11.230,-16.113,8.789,156.250
1688305403.830,-3.906,-5.371,-9.277,-5.371,-31.738
1688305403.834,-32.715,-33.691,-20.508,-42.480,-241.211
1688305403.838,-51.270,-49.316,-25.879,-39.551,-193.359
1688305403.842,-29.297,-32.715,-9.277,-13.184,-124.023
1688305403.846,-7.324,-16.602,-32.227,2.930,-38.086
1688305403.850,10.254,-2.441,-39.062,3.418,140.137
1688305403.854,-24.414,-18.066,-25.391,-33.691,198.242
1688305403.857,-57.129,-30.273,-39.551,-59.570,-140.137
1688305403.861,-36.133,-19.043,-56.152,-37.598,-246.094
1688305403.865,-26.855,-28.320,-55.664,-7.812,79.102
1688305403.869,-32.227,-45.410,-42.480,-20.996,315.430
1688305403.873,-41.016,-29.785,-25.879,-49.316,-92.773
1688305403.890,-41.016,-27.832,-22.949,-43.457,-346.191
1688305403.894,-25.391,-41.016,-20.508,-19.531,-114.258
1688305403.898,-9.277,-30.273,-12.695,9.766,168.457
1688305403.902,0.977,-19.043,-37.109,2.930,101.074
1688305403.906,-6.348,-14.648,-40.527,-27.344,-122.559
1688305403.910,-43.457,-13.672,-35.156,-58.105,-132.324
1688305403.914,-61.035,-23.438,-44.922,-64.941,-80.078
1688305403.917,-46.387,-35.156,-47.852,-35.645,-22.461
1688305403.921,-22.461,-25.391,-34.668,-23.926,-3.418
1688305403.925,-29.297,-29.297,-29.297,-43.457,74.219
1688305403.929,-63.965,-33.203,-37.598,-62.500,-44.922
1688305403.933,-51.270,-24.902,-36.133,-49.316,-266.113
1688305403.935,-25.879,-28.809,-30.762,-25.879,-43.457
1688305403.939,-21.484,-22.949,-29.297,-20.508,255.371
1688305403.943,-22.949,-15.137,-27.832,-28.809,20.508
1688305403.947,-33.203,-19.043,-23.438,-34.180,-270.996
1688305403.951,-30.762,-25.391,-28.809,-36.621,-264.648
1688305403.955,-20.996,-36.133,-41.016,-29.297,41.504
1688305403.959,-18.555,-44.434,-52.734,-23.926,263.672
1688305403.962,-20.996,-24.902,-48.340,-40.039,-13.672
1688305403.966,-37.109,-13.184,-37.598,-53.711,-246.094
1688305403.970,-34.668,-23.438,-33.203,-39.062,4.883
1688305403.974,-34.668,-39.551,-41.504,-31.738,-6.348
1688305403.978,-30.762,-41.992,-37.598,-28.809,0.000
1688305403.980,-20.020,-20.508,-29.297,-32.227,140.625
1688305403.984,-38.574,-16.602,-33.203,-54.199,49.316
1688305403.988,-31.250,-16.113,-22.461,-50.781,-266.602
1688305403.992,-20.508,-26.855,-18.555,-29.785,-268.066
1688305403.996,-29.297,-37.598,-31.250,-17.578,161.621
1688305404.000,-22.949,-26.367,-29.297,-24.902,253.906
1688305404.004,-36.621,-24.414,-36.621,-59.570,-142.578
1688305404.007,-57.617,-18.555,-48.828,-68.359,-402.832
1688305404.011,-43.945,-14.648,-41.504,-31.738,-20.996
1688305404.015,-20.020,-20.996,-40.527,-2.930,286.621
1688305404.019,-18.066,-23.438,-40.527,-36.621,-9.277
1688305404.023,-44.434,-20.020,-33.203,-66.895,-277.344
1688305404.025,-52.734,-22.949,-33.203,-58.594,-313.965
1688305404.029,-49.316,-21.484,-32.227,-40.527,-208.008
1688305404.033,-29.297,-14.160,-17.578,-14.160,-2.441
1688305404.037,-22.461,-34.668,-20.020,-35.156,110.352
1688305404.041,-44.922,-38.574,-22.461,-68.359,60.059
1688305404.045,-43.945,-42.480,-17.578,-61.035,-81.055
1688305404.049,-22.949,-35.645,-18.555,-32.227,-100.098
1688305404.052,-23.926,-25.391,-25.391,-6.348,89.844
1688305404.056,-22.461,-24.414,-23.926,-9.766,425.781
1688305404.060,-12.695,-6.348,-22.461,-34.180,69.336
1688305404.064,-35.156,-14.648,-38.086,-53.223,-368.164
1688305404.068,-38.574,-30.273,-41.016,-42.969,-219.238
1688305404.070,-29.297,-30.762,-33.691,-17.578,73.242
1688305404.074,-26.855,-42.969,-37.109,-31.250,73.730
1688305404.078,-31.738,-45.898,-20.020,-57.617,-210.449
1688305404.082,-44.434,-32.715,-19.043,-57.617,-216.797
1688305404.086,-35.645,-44.922,-46.875,-41.016,-128.418
1688305404.090,-26.855,-60.059,-41.992,-10.254,-12.207
1688305404.094,-15.625,-35.645,-32.715,1.465,192.871
1688305404.097,-24.902,-15.625,-36.133,-29.297,296.875
1688305404.101,-44.922,-10.254,-25.391,-55.664,144.043
1688305404.105,-43.945,-16.113,-26.855,-52.246,-275.391
1688305404.109,-38.574,-30.273,-34.668,-13.672,-196.289
1688305404.113,-27.832,-30.273,-33.203,-2.441,44.922
1688305404.115,-24.902,-41.504,-41.992,-35.645,-98.633
1688305404.119,-41.992,-53.711,-59.570,-53.223,-312.988
1688305404.123,-30.762,-59.570,-40.527,-26.367,-300.781
1688305404.127,-19.043,-58.105,-20.508,3.418,-50.781
1688305404.131,-16.602,-30.273,-29.785,-6.836,130.371
1688305404.135,-30.273,-26.367,-48.828,-46.387,85.449
1688305404.139,-57.129,-37.109,-46.387,-57.129,-23.438
1688305404.142,-47.852,-39.551,-33.691,-36.621,104.492
1688305404.146,-41.504,-44.434,-44.922,-35.645,73.242
1688305404.150,-41.992,-38.574,-40.039,-35.156,94.238
1688305404.154,-28.809,-22.949,-22.949,-39.062,70.801
1688305404.158,-33.691,-21.484,-27.344,-56.152,-152.344
1688305404.160,-41.016,-18.555,-30.762,-51.758,-233.887
1688305404.164,-29.785,-24.902,-29.297,-28.809,-175.293
1688305404.168,-26.367,-32.715,-31.738,-15.625,123.535
1688305404.172,-28.809,-18.555,-38.574,-32.715,141.602
1688305404.176,-46.387,-15.625,-36.621,-69.824,-193.359
1688305404.180,-43.945,-34.668,-27.344,-64.941,-234.375
1688305404.184,-19.043,-33.203,-31.250,-21.973,84.961
1688305404.187,-20.020,-25.879,-25.391,4.395,323.730
1688305404.191,-18.555,-22.949,-21.973,-17.090,60.547
1688305404.195,-26.367,-14.160,-29.297,-51.270,-206.055
1688305404.199,-29.297,-19.531,-30.273,-57.129,-305.176
1688305404.203,-18.555,-30.762,-28.320,-37.598,-170.898
1688305404.205,-35.645,-26.367,-39.551,-13.184,-30.273
1688305404.209,-42.480,-23.438,-55.664,-29.297,38.086
1688305404.213,-42.969,-22.949,-48.340,-69.336,43.457
1688305404.217,-50.781,-25.391,-28.809,-66.406,-216.309
1688305404.221,-37.109,-20.020,-20.020,-33.203,-266.113
1688305404.225,-17.090,-27.832,-14.160,-12.695,137.207
1688305404.229,-15.137,-41.992,-14.648,-8.789,536.133
1688305404.232,-26.367,-21.484,-11.719,-29.297,67.383
1688305404.236,-29.785,-8.789,-7.324,-38.574,-410.645
1688305404.240,-32.227,-21.484,-20.996,-32.715,-265.137
1688305404.244,-30.762,-19.043,-15.625,-10.742,64.453
1688305404.248,-22.461,-18.066,-26.367,-4.395,147.461
1688305404.251,-25.879,-25.391,-53.711,-38.574,-70.312
1688305404.255,-43.945,-24.414,-47.363,-58.105,-60.059
1688305404.259,-39.062,-16.602,-36.621,-39.062,104.980
1688305404.263,-14.160,-27.832,-32.227,-8.301,-41.992
1688305404.267,-10.254,-38.574,-18.555,3.906,21.484
1688305404.271,-33.203,-36.621,-19.531,-29.297,113.770
1688305404.275,-53.223,-22.461,-27.344,-48.340,-152.344
1688305404.278,-45.410,-0.488,-19.531,-37.109,-310.059
1688305404.282,-29.785,-3.418,-20.020,-16.602,-105.469
1688305404.286,-7.812,-15.137,-11.230,7.812,340.820
1688305404.290,0.000,-12.207,-16.113,-13.672,220.703
1688305404.294,-26.367,-11.230,-27.832,-42.969,-270.996
1688305404.310,-37.109,-18.555,-30.273,-31.250,-328.125
1688305404.314,-28.809,-30.762,-42.480,-21.484,-71.289
1688305404.318,-28.320,-27.832,-33.203,-25.879,92.773
1688305404.322,-31.738,-25.879,-27.344,-27.832,-58.105
1688305404.326,-46.875,-33.203,-28.809,-35.645,-125.977
1688305404.330,-31.250,-16.602,-14.160,-21.973,69.824
1688305404.334,-13.184,-14.648,-20.020,-3.418,80.078
1688305404.337,-3.906,-8.789,-22.461,7.812,71.777
1688305404.341,-18.555,-7.324,-23.926,-17.090,54.688
1688305404.345,-45.410,-21.484,-27.344,-53.223,70.312
1688305404.349,-29.785,-17.090,-18.555,-55.176,-267.090
1688305404.353,-23.926,-26.367,-21.484,-42.969,-311.035
1688305404.355,-28.809,-43.945,-36.133,-26.855,227.051
1688305404.359,-17.578,-31.250,-45.898,-22.461,329.590
1688305404.363,-41.504,-33.691,-54.688,-57.129,-154.785
1688305404.367,-50.781,-30.762,-45.898,-72.266,-368.164
1688305404.371,-22.949,0.000,-17.578,-24.414,-181.152
1688305404.375,-20.508,-23.438,-22.949,-3.906,70.312
1688305404.379,-25.391,-52.246,-35.156,-30.273,149.902
1688305404.382,-32.227,-32.715,-35.645,-62.012,-65.430
1688305404.386,-46.875,-14.648,-35.156,-77.637,-10.254
1688305404.390,-38.574,-18.066,-20.508,-48.340,220.215
1688305404.394,-33.203,-43.945,-37.598,-35.156,44.434
1688305404.398,-32.715,-53.223,-56.641,-39.551,-1.465
1688305404.400,-35.645,-50.781,-36.621,-43.945,-76.172
1688305404.404,-32.227,-31.250,-4.883,-37.109,-361.816
1688305404.408,-16.113,6.836,2.441,-19.531,-366.699
1688305404.412,-28.809,-19.531,-21.973,-21.973,-30.273
1688305404.416,-39.551,-41.992,-36.621,-35.156,134.766
1688305404.420,-39.062,-22.461,-32.715,-49.805,-2.441
1688305404.424,-40.039,-28.320,-25.391,-58.594,-186.035
1688305404.427,-28.809,-31.250,-20.996,-34.668,-194.336
1688305404.431,-14.160,-28.809,-11.719,0.000,270.996
1688305404.435,0.000,-36.621,-10.742,4.395,314.453
1688305404.439,-6.348,-22.461,-20.020,-19.043,-96.191
1688305404.443,-39.551,-22.949,-30.762,-52.246,-222.168
1688305404.445,-52.734,-37.598,-25.391,-51.270,-81.055
1688305404.449,-28.320,-20.020,-24.902,-33.691,-57.129
1688305404.453,-19.531,-22.461,-46.875,-41.016,-18.066
1688305404.457,-18.066,-23.926,-30.273,-59.570,88.379
1688305404.461,-38.574,-25.391,-18.555,-75.684,88.379
1688305404.465,-46.875,-41.992,-30.273,-81.055,-110.840
1688305404.469,-30.762,-30.762,-30.273,-57.617,14.648
1688305404.472,-12.695,-18.066,-18.066,-34.668,376.465
1688305404.476,-9.277,-26.855,-20.020,-43.945,268.555
1688305404.480,-34.180,-23.438,-33.203,-64.453,-287.598
1688305404.484,-29.785,-26.367,-36.133,-67.383,-378.906
1688305404.488,-23.438,-51.758,-44.434,-46.387,-89.844
1688305404.490,-19.043,-55.176,-25.391,-7.812,102.051
1688305404.494,-16.113,-21.973,-16.113,-15.137,-13.672
1688305404.498,-53.711,-17.578,-24.414,-57.617,-192.383
1688305404.502,-64.453,-15.625,-10.742,-55.664,-169.434
1688305404.506,-34.668,-12.695,-12.695,-29.297,-114.746
1688305404.510,-28.320,-34.668,-34.668,-22.949,100.586
1688305404.514,-32.715,-33.203,-46.387,-43.457,166.504
1688305404.517,-43.457,-26.367,-44.434,-67.871,119.141
1688305404.521,-50.293,-27.832,-33.691,-56.641,-201.660
1688305404.525,-39.062,-36.621,-27.344,-36.133,-297.852
1688305404.529,-29.785,-33.691,-35.645,-20.020,30.273
1688305404.533,-10.742,-20.508,-28.809,-20.020,153.809
1688305404.536,-16.113,-13.184,-19.531,-34.668,-88.867
1688305404.540,-33.691,-15.625,-26.855,-43.457,-354.492
1688305404.544,-10.742,-28.809,-22.461,-27.832,-91.309
1688305404.548,-9.766,-31.738,-29.297,-3.906,317.383
1688305404.552,-16.602,-17.090,-26.367,-12.207,110.840
1688305404.556,-12.207,-28.320,-15.137,-34.180,-92.285
1688305404.560,-34.668,-22.949,-21.973,-33.691,-23.438
1688305404.563,-40.039,-33.691,-25.879,-19.043,-17.090
1688305404.567,-31.250,-60.059,-29.297,-12.207,-110.840
1688305404.571,-26.855,-34.180,-40.039,-14.160,19.043
1688305404.575,-22.949,-12.207,-43.457,-27.832,-32.715
1688305404.579,-18.555,2.930,-12.695,-23.926,-316.895
1688305404.580,-15.625,2.441,-0.977,-12.207,-354.492
1688305404.584,-8.301,-10.254,-16.113,-1.953,-31.250
1688305404.588,-16.113,-22.949,-38.086,-8.789,183.105
1688305404.592,-31.738,-39.062,-31.738,-41.992,-62.988
1688305404.596,-45.410,-35.156,-24.902,-59.570,-307.617
1688305404.600,-32.227,-2.441,-27.344,-34.668,-139.648
1688305404.604,-16.602,-20.996,-30.762,-7.324,418.457
1688305404.607,-7.812,-52.246,-25.879,-2.930,426.758
1688305404.611,2.930,-2.930,-6.836,-9.277,-42.969
1688305404.615,-18.555,25.391,-10.742,-20.996,-215.332
1688305404.619,-24.414,-0.488,-31.250,-34.668,-231.934
1688305404.623,-15.625,-28.809,-45.898,-27.832,-98.145
1688305404.640,-21.973,-43.457,-51.270,-15.625,182.129
1688305404.644,-24.414,-36.133,-42.969,-26.367,182.617
1688305404.648,-33.203,-22.949,-27.832,-48.828,-41.504
1688305404.652,-24.414,-13.672,-24.414,-40.527,-294.434
1688305404.656,-15.137,-4.883,-31.250,-11.230,-116.211
1688305404.660,-22.949,-10.254,-24.414,0.488,298.340
1688305404.664,-28.809,-29.785,-24.902,-28.320,180.664
1688305404.667,-43.457,-23.926,-30.273,-53.711,-167.969
1688305404.671,-36.133,-15.625,-20.020,-37.598,-333.984
1688305404.675,-17.578,-27.344,-35.156,-11.719,65.918
1688305404.679,-28.320,-36.621,-68.359,-16.113,379.883
1688305404.683,-26.855,-31.738,-44.434,-45.410,3.418
1688305404.700,-37.109,-37.109,-20.508,-64.941,-322.754
1688305404.704,-37.109,-27.344,-16.113,-51.758,-362.305
1688305404.708,-14.160,-2.930,-14.160,-19.531,-237.305
1688305404.712,-9.277,-14.648,-19.043,-5.371,-17.578
1688305404.716,-29.297,-49.805,-34.668,-34.180,65.430
1688305404.720,-40.527,-38.574,-34.180,-55.176,15.625
1688305404.724,-36.133,-33.203,-11.230,-47.852,-58.594
1688305404.727,-36.133,-41.504,-22.461,-44.922,-173.828
1688305404.731,-24.414,-31.250,-28.320,-14.648,12.695
1688305404.735,-13.672,-43.457,-20.020,-15.137,528.320
1688305404.739,-33.203,-21.973,-40.527,-57.617,130.371
1688305404.743,-33.691,-3.418,-41.016,-62.988,-418.457
1688305404.730,-13.672,-20.508,-20.020,-31.738,-130.371
1688305404.734,-16.113,-35.156,-19.043,-12.207,194.824
1688305404.738,-30.273,-31.738,-32.227,-28.320,57.617
1688305404.742,-42.480,-22.461,-33.691,-54.199,-174.805
1688305404.746,-54.199,-26.855,-18.066,-63.477,-293.945
1688305404.750,-41.504,-30.762,-19.043,-50.781,-211.426
1688305404.754,-30.762,-31.250,-40.039,-31.738,44.922
1688305404.757,-31.250,-36.621,-41.016,-34.668,135.254
1688305404.761,-33.203,-43.945,-25.391,-57.617,22.461
1688305404.765,-49.805,-51.758,-17.578,-64.941,-278.320
1688305404.769,-49.805,-47.363,-33.691,-40.039,-398.926
1688305404.773,-32.715,-24.902,-41.504,-7.812,-127.441
1688305404.775,-24.414,-22.461,-19.531,3.906,486.816
1688305404.779,-34.180,-25.391,-4.395,-16.602,393.066
1688305404.783,-48.340,-12.695,-16.113,-51.758,-288.086
1688305404.787,-30.762,-7.324,-29.785,-40.527,-359.863
1688305404.791,-19.043,-17.090,-24.414,-2.441,-81.055
1688305404.795,-20.020,-15.625,-15.137,2.930,197.754
1688305404.799,-19.531,-20.020,-13.672,-16.602,163.574
1688305404.802,-34.180,-26.367,-25.879,-43.457,-71.289
1688305404.806,-41.016,-30.273,-34.668,-49.805,62.012
1688305404.810,-26.367,-38.086,-31.250,-29.297,-5.371
1688305404.814,-11.230,-22.949,-26.855,-3.906,-18.555
1688305404.818,-17.578,-18.555,-28.809,-19.531,33.203
1688305404.821,-39.551,-19.531,-23.926,-44.434,-158.203
1688305404.825,-43.457,-24.414,-17.090,-42.969,-334.961
1688305404.829,-25.879,-30.762,-13.672,-18.555,-225.586
1688305404.833,-7.324,-12.695,-18.555,15.137,217.773
1688305404.837,-19.043,-19.043,-34.668,-2.930,360.352
1688305404.841,-47.852,-30.273,-46.387,-42.480,-72.754
1688305404.845,-59.082,-29.297,-35.156,-48.828,-289.062
1688305404.848,-52.246,-45.410,-18.555,-19.043,47.852
1688305404.852,-31.738,-40.039,-13.672,4.395,341.797
1688305404.856,-16.113,-30.273,-22.949,-8.301,60.059
1688305404.860,-35.156,-32.227,-41.992,-39.062,-208.008
1688305404.864,-37.598,-4.395,-30.762,-32.227,-307.129
1688305404.865,-10.254,-7.324,-7.324,10.742,-269.531
1688305404.869,-7.812,-31.738,-19.531,27.832,-21.973
1688305404.873,-31.250,-28.320,-33.691,-1.465,68.359
1688305404.877,-38.086,-20.996,-26.367,-35.645,-120.605
1688305404.881,-38.574,-13.184,-28.809,-32.715,-249.023
1688305404.885,-32.715,-14.160,-45.898,-9.277,-163.086
1688305404.889,-13.184,-26.855,-35.156,19.043,137.207
1688305404.892,-16.602,-31.250,-14.648,13.672,614.746
1688305404.896,-44.922,-38.086,-13.184,-21.484,221.680
1688305404.900,-44.922,-23.438,-23.438,-29.785,-373.047
1688305404.904,-17.090,-2.930,-31.250,-14.648,-318.848
1688305404.908,-20.020,-14.160,-24.902,-3.418,-60.547
1688305404.910,-25.879,-32.715,-25.391,-7.812,101.074
1688305404.914,-41.992,-42.969,-39.551,-49.805,-150.391
1688305404.918,-55.176,-31.250,-33.203,-64.941,-248.047
1688305404.922,-40.039,-31.250,-19.043,-39.551,-83.496
1688305404.926,-25.391,-18.555,-18.555,2.930,-27.344
1688305404.930,-1.465,-3.418,-32.227,19.043,197.266
1688305404.934,-11.719,-16.113,-33.691,-14.648,358.887
1688305404.937,-40.039,-20.996,-28.809,-46.387,99.609
1688305404.941,-36.133,-27.344,-24.902,-51.758,-270.508
1688305404.945,-21.484,-17.578,-22.949,-26.855,-125.000
1688305404.949,-15.625,-15.625,-39.551,-7.324,235.352
1688305404.953,-37.598,-43.457,-52.734,-46.387,44.922
1688305404.955,-52.734,-54.199,-34.668,-66.895,-337.891
1688305404.959,-41.016,-51.758,-25.879,-41.992,-306.641
1688305404.963,-26.367,-37.109,-26.367,-9.766,-63.477
1688305404.967,-7.324,-8.301,-22.949,4.395,88.379
1688305404.971,-14.648,-11.230,-38.086,-29.297,-37.109
1688305404.975,-51.270,-27.832,-53.223,-65.430,-113.281
1688305404.979,-49.316,-31.250,-40.527,-56.152,100.586
1688305404.982,-24.414,-28.809,-28.320,-17.578,-28.320
1688305404.986,-19.043,-40.039,-40.039,-6.348,-7.324
1688305404.990,-22.461,-39.062,-32.227,-29.297,82.031
1688305404.994,-49.316,-37.598,-23.438,-51.758,-101.074
1688305404.998,-54.688,-28.809,-20.020,-52.734,-281.250
1688305405.015,-27.344,-13.672,-18.066,-23.926,-196.777
1688305405.019,-9.766,-14.160,-23.926,6.836,162.109
1688305405.023,-4.883,-26.367,-25.391,-12.207,386.230
1688305405.027,-20.996,-29.297,-38.086,-47.363,-151.855
1688305405.031,-29.297,-16.113,-43.457,-44.922,-473.145
1688305405.035,-27.344,-30.762,-36.621,-26.367,-78.613
1688305405.039,-25.391,-41.504,-32.227,-5.371,235.840
1688305405.042,-22.461,-16.602,-26.367,-10.742,87.891
1688305405.046,-21.484,-7.812,-13.672,-40.039,-174.316
1688305405.050,-35.156,-18.066,-8.789,-45.410,-113.770
1688305405.054,-27.832,-12.207,-18.066,-35.645,-34.668
1688305405.058,-4.883,-5.859,-24.902,-7.324,27.832
1688305405.060,-5.859,-20.020,-25.879,-11.230,204.102
1688305405.064,-25.391,-18.066,-27.832,-37.109,103.516
1688305405.068,-42.969,-22.949,-31.738,-36.621,-252.930
1688305405.072,-20.508,-49.316,-37.109,-19.043,-363.770
1688305405.076,-4.395,-18.066,-40.039,-1.953,-74.707
1688305405.080,-25.391,-12.695,-35.156,-18.066,251.953
1688305405.084,-48.828,-28.320,-38.574,-51.270,72.266
1688305405.087,-51.270,-19.531,-38.574,-57.129,-259.277
1688305405.091,-44.434,-20.508,-25.391,-42.969,-167.969
1688305405.095,-41.016,-30.273,-27.832,-12.207,320.312
1688305405.099,-20.996,-34.668,-26.855,-4.883,290.527
1688305405.103,-32.227,-26.367,-29.785,-34.668,-71.777
1688305405.120,-55.664,-20.508,-26.367,-60.059,-115.234
1688305405.124,-46.875,-31.250,-23.438,-43.945,-92.773
1688305405.128,-33.203,-38.086,-20.996,-2.930,-66.406
1688305405.132,-31.738,-50.293,-34.668,2.441,102.051
1688305405.136,-40.039,-49.316,-47.363,-30.762,96.680
1688305405.140,-61.035,-36.133,-40.527,-69.824,-85.938
1688305405.144,-62.988,-38.574,-41.016,-62.500,-264.160
1688305405.147,-34.180,-37.598,-43.457,-27.344,-129.395
1688305405.151,-3.418,-38.086,-37.598,1.953,333.984
1688305405.155,-15.137,-35.156,-30.762,-24.902,292.969
1688305405.159,-51.270,-18.555,-17.090,-64.453,-302.246
1688305405.163,-51.758,-16.113,-4.395,-58.105,-373.047
1688305405.150,-42.480,-35.156,-13.184,-39.062,-93.262
1688305405.154,-39.062,-43.945,-27.832,-25.391,69.336
1688305405.158,-47.852,-43.945,-32.715,-47.363,-7.324
1688305405.162,-68.848,-54.199,-23.438,-71.289,-256.348
1688305405.166,-62.012,-56.641,-26.367,-56.152,-303.223
1688305405.170,-60.059,-57.129,-40.527,-35.645,-68.359
1688305405.174,-44.922,-60.547,-31.250,-10.742,251.953
1688305405.177,-41.016,-63.965,-34.180,-18.066,323.242
1688305405.181,-60.547,-47.852,-26.855,-45.898,-3.418
1688305405.185,-41.016,-18.555,0.977,-24.414,-301.758
1688305405.189,-33.203,-24.902,-7.324,-2.930,-254.395
1688305405.193,-46.875,-43.457,-32.227,-3.418,93.262
1688305405.195,-38.086,-36.133,-46.875,-21.973,622.559
1688305405.199,-41.016,-20.020,-47.852,-45.410,250.488
1688305405.203,-52.734,-36.621,-39.551,-37.598,-402.832
1688305405.207,-37.598,-54.199,-36.133,-13.672,-306.641
1688305405.211,-28.809,-42.969,-37.109,-7.324,-26.855
1688305405.215,-20.508,-44.434,-39.551,-26.367,92.285
1688305405.219,-20.020,-48.828,-37.109,-35.645,-87.891
1688305405.222,-40.527,-41.992,-34.180,-34.180,-24.414
1688305405.226,-41.016,-24.414,-33.203,-33.691,230.957
1688305405.230,-39.062,-32.227,-29.785,-15.625,15.137
1688305405.234,-40.039,-38.086,-30.762,-11.719,-54.688
1688305405.238,-37.598,-29.297,-29.297,-33.203,-183.105
1688305405.240,-45.898,-21.484,-30.273,-43.945,-423.828
1688305405.244,-45.898,-32.715,-34.668,-37.109,-427.246
1688305405.248,-31.250,-51.270,-25.879,-14.160,-143.555
1688305405.252,-3.906,-41.016,-19.531,-0.488,109.375
1688305405.256,-14.160,-27.832,-35.156,-39.062,-51.270
1688305405.260,-49.805,-22.461,-55.664,-66.895,-298.340
1688305405.264,-43.945,-21.973,-50.781,-58.594,-142.578
1688305405.267,-26.367,-18.555,-24.414,-39.062,209.961
1688305405.271,-22.949,-23.926,-22.949,-33.203,189.941
1688305405.275,-22.461,-45.410,-32.715,-50.781,-101.562
1688305405.279,-32.227,-42.969,-24.902,-63.477,-195.312
1688305405.283,-24.414,-29.785,-20.508,-51.758,66.406
1688305405.285,-9.277,-16.113,-21.973,-26.855,64.453
1688305405.289,-5.859,-9.277,-19.043,-13.672,20.508
1688305405.293,-20.508,-19.531,-37.598,-27.344,112.793
1688305405.297,-57.129,-37.109,-50.781,-62.988,-49.805
1688305405.301,-51.758,-34.180,-41.992,-65.430,-330.078
1688305405.305,-28.809,-24.414,-39.062,-30.273,-113.770
1688305405.309,-31.738,-43.457,-34.668,-27.832,410.645
1688305405.312,-10.254,-27.344,-13.184,-36.621,375.488
1688305405.316,-21.973,-13.672,-3.906,-48.340,-237.305
1688305405.320,-50.781,-31.738,-14.160,-52.246,-359.375
1688305405.324,-30.762,-25.391,-31.738,-29.297,-75.684
1688305405.328,-20.020,-21.973,-47.363,-15.137,31.250
1688305405.331,-27.344,-48.828,-41.992,-32.227,-0.977
1688305405.335,-36.133,-56.152,-34.180,-57.129,-98.145
1688305405.339,-45.410,-37.109,-41.504,-63.965,-170.898
1688305405.343,-28.809,-24.414,-28.809,-48.828,-183.105
1688305405.347,-19.531,-9.277,-12.207,-32.227,-62.500
1688305405.351,-35.645,-24.414,-28.320,-46.875,228.516
1688305405.355,-45.410,-37.598,-37.598,-51.270,290.039
1688305405.358,-44.434,-29.297,-32.227,-52.734,-151.855
1688305405.362,-42.480,-46.387,-46.875,-31.250,-263.672
1688305405.366,-38.086,-47.852,-56.152,-5.859,62.500
1688305405.370,-28.809,-30.273,-34.668,-19.043,177.734
1688305405.374,-28.320,-26.367,-12.207,-37.109,-142.578
1688305405.390,-41.992,-43.457,-19.043,-47.852,-308.594
1688305405.394,-48.828,-50.293,-43.945,-53.711,-131.836
1688305405.398,-45.410,-37.109,-46.875,-34.180,142.578
1688305405.402,-25.391,-26.367,-29.785,-19.531,163.086
1688305405.406,-25.879,-17.090,-28.320,-49.805,-83.008
1688305405.410,-47.852,-20.996,-33.691,-66.406,-62.500
1688305405.414,-38.086,-39.062,-33.691,-52.246,54.688
1688305405.417,-20.508,-28.320,-26.367,-22.461,-19.531
1688305405.421,-22.461,-0.488,-25.391,-7.324,53.711
1688305405.425,-41.992,-16.113,-31.250,-48.340,64.453
1688305405.429,-62.500,-33.691,-30.762,-76.660,-246.582
1688305405.433,-50.293,-30.762,-22.949,-58.594,-390.137
1688305405.426,-41.504,-30.762,-13.184,-34.180,-62.012
1688305405.430,-41.992,-28.320,-9.766,-41.016,210.938
1688305405.434,-70.801,-27.832,-10.254,-86.914,4.395
1688305405.438,-119.141,-28.809,-11.719,-128.418,-331.055
1688305405.442,-111.328,-23.926,-5.859,-116.211,-313.477
1688305405.446,-99.609,-20.020,-3.906,-93.750,20.020
1688305405.450,-112.793,-20.508,-24.414,-114.746,275.391
1688305405.453,-132.324,-14.160,-40.039,-155.762,75.195
1688305405.457,-156.738,-13.672,-31.250,-183.594,-198.242
1688305405.461,-145.996,-29.297,-24.414,-166.504,-96.680
1688305405.465,-110.840,-15.625,-28.809,-133.301,-93.262
1688305405.469,-95.703,22.461,-44.922,-120.117,-4.883
1688305405.480,-95.215,34.668,-54.688,-132.324,116.699
1688305405.484,-90.332,38.574,-35.156,-133.301,-107.422
1688305405.488,-59.570,33.691,-35.645,-103.516,-322.754
1688305405.492,-39.551,-4.883,-71.777,-81.543,-189.453
1688305405.496,-38.574,-18.066,-71.777,-56.641,176.758
1688305405.500,-39.551,-6.836,-42.480,-54.688,609.375
1688305405.504,-50.781,-3.418,-32.227,-72.266,419.434
1688305405.507,-38.574,-0.977,-47.852,-52.734,-170.410
1688305405.511,-20.996,-14.160,-59.570,-32.715,42.480
1688305405.515,-7.324,-13.672,-49.805,-17.578,205.566
1688305405.519,13.184,-15.625,-31.738,0.000,3.906
1688305405.523,-4.883,-28.320,-41.016,-11.719,-156.250
1688305405.525,-18.555,-40.039,-48.340,-20.020,-259.277
1688305405.529,8.789,-47.852,-25.391,7.324,-245.605
1688305405.533,36.133,-35.645,-17.578,45.898,-26.855
1688305405.537,33.691,-37.109,-28.809,43.945,100.098
1688305405.541,3.418,-62.500,-38.086,7.324,-115.723
1688305405.545,9.766,-55.176,-30.273,18.555,-279.297
1688305405.549,30.762,-18.555,-24.902,35.645,-230.469
1688305405.552,19.531,-12.695,-40.527,47.852,55.664
1688305405.556,30.273,-14.160,-36.133,46.387,480.469
1688305405.560,23.926,-20.508,-32.227,12.207,55.664
1688305405.564,-8.789,-51.270,-45.898,1.953,-464.355
1688305405.568,4.395,-47.852,-37.109,20.020,-172.852
1688305405.570,33.203,-21.484,-21.973,39.062,261.719
1688305405.574,47.852,-27.344,-15.137,47.852,111.328
1688305405.578,30.762,-46.387,-30.762,21.484,-149.414
1688305405.582,-6.836,-47.363,-39.062,-9.766,-240.234
1688305405.586,-2.441,-43.457,-20.508,6.348,-244.629
1688305405.590,17.578,-20.020,-19.043,33.203,-35.645
1688305405.594,18.066,-23.438,-32.715,25.391,137.695
1688305405.597,-1.953,-41.992,-39.062,-12.207,167.480
1688305405.601,-20.508,-38.086,-32.227,-16.113,2.441
1688305405.605,-7.812,-40.039,-15.137,5.371,-292.969
1688305405.609,-10.254,-56.152,-25.879,18.066,-133.301
1688305405.613,-20.508,-44.922,-44.922,20.020,96.191
1688305405.631,-7.324,-14.160,-24.414,-0.488,-0.488
1688305405.635,-14.160,-29.785,-12.695,-6.836,-234.375
1688305405.639,-23.926,-44.922,-20.508,6.836,-242.676
1688305405.643,0.488,-41.016,-13.672,34.180,80.078
1688305405.647,15.137,-24.414,-20.996,38.574,179.688
1688305405.651,7.812,-20.508,-41.504,2.930,27.344
1688305405.655,-4.883,-28.320,-54.199,-18.555,-108.887
1688305405.658,-22.461,-38.574,-45.898,-15.625,81.055
1688305405.662,-17.578,-45.410,-29.297,8.301,-16.602
1688305405.666,9.277,-28.320,-16.113,41.016,-48.340
1688305405.670,6.348,-24.414,-16.602,18.555,11.719
1688305405.674,-32.715,-37.598,-27.344,-16.602,-186.035
1688305405.660,-40.039,-43.945,-23.438,-4.883,-257.324
1688305405.664,-25.391,-48.340,-20.996,11.230,-177.734
1688305405.668,-17.578,-48.828,-39.062,12.695,154.297
1688305405.672,-13.672,-27.344,-51.758,-3.418,300.293
1688305405.676,-44.922,-0.977,-40.039,-22.949,-149.902
1688305405.680,-49.805,-11.230,-20.020,-15.625,-289.062
1688305405.684,-27.344,-39.062,-8.301,0.977,106.934
1688305405.687,-12.695,-33.203,-3.906,27.344,177.246
1688305405.691,-4.395,-17.090,-17.578,12.695,21.484
1688305405.695,-36.621,-41.504,-40.527,-45.898,-199.219
1688305405.699,-60.059,-66.895,-47.363,-59.082,-57.617
1688305405.703,-39.551,-39.062,-43.945,-21.484,166.504
1688305405.705,-18.555,-20.020,-39.551,6.348,-1.953
1688305405.709,-2.930,-12.695,-51.758,9.277,11.719
1688305405.713,-17.090,-21.973,-41.016,-26.367,-96.191
1688305405.717,-36.621,-28.809,-5.859,-39.062,-329.102
1688305405.721,-27.344,-30.273,-8.301,-15.625,-296.875
1688305405.725,-15.625,-51.270,-29.297,2.441,104.492
1688305405.729,-4.883,-70.801,-29.785,3.906,469.238
1688305405.732,-23.926,-42.969,-38.086,-20.508,111.328
1688305405.736,-51.270,-15.137,-44.434,-41.992,-343.262
1688305405.740,-39.062,-20.508,-38.086,-28.320,-229.004
1688305405.744,-14.160,-17.578,-35.645,-0.977,214.355
1688305405.748,0.488,-16.602,-29.297,-0.488,181.152
1688305405.765,-11.230,-32.715,-39.062,-35.645,-73.242
1688305405.769,-51.270,-44.434,-50.781,-61.523,-220.703
1688305405.773,-62.500,-46.875,-37.109,-54.199,-194.336
1688305405.777,-32.715,-51.270,-19.043,-19.043,-125.488
1688305405.781,-11.230,-43.945,-20.020,-1.465,39.551
1688305405.785,-17.090,-19.043,-20.996,-20.508,145.996
1688305405.789,-41.992,-9.766,-28.320,-48.828,-104.004
1688305405.792,-32.227,-18.066,-20.508,-27.832,-326.172
1688305405.796,-5.859,-11.719,-7.324,16.113,-37.598
1688305405.800,-15.137,-20.020,-33.691,5.371,320.801
1688305405.804,-37.109,-38.574,-48.340,-33.691,77.637
1688305405.808,-58.105,-59.570,-32.715,-42.969,-290.527
1688305405.810,-50.781,-51.270,-27.832,-42.969,-375.488
1688305405.814,-31.738,-20.508,-32.227,-23.926,116.211
1688305405.818,-20.508,-18.066,-23.438,-4.395,369.629
1688305405.822,-3.418,-25.391,-12.695,-19.531,9.277
1688305405.826,-20.996,-14.160,-17.090,-35.645,-263.184
1688305405.830,-37.109,-9.277,-25.391,-34.180,-237.305
1688305405.834,-30.762,-18.066,-32.715,-30.762,-17.090
1688305405.837,-27.832,-28.320,-46.875,-21.484,111.816
1688305405.841,-20.508,-38.574,-49.316,-30.273,139.160
1688305405.845,-35.645,-43.945,-19.531,-38.574,173.340
1688305405.849,-55.664,-38.086,-31.250,-43.457,-174.316
1688305405.853,-35.645,-36.621,-36.133,-33.691,-184.570
1688305405.855,-16.113,-31.250,-20.996,0.488,228.516
1688305405.859,0.000,-24.414,-17.090,5.859,421.387
1688305405.863,-12.695,-33.203,-5.371,-16.602,-94.238
1688305405.867,-39.551,-31.738,-14.160,-21.484,-416.992
1688305405.871,-35.645,-24.414,-41.016,-8.789,-208.496
1688305405.875,-31.738,-33.691,-39.551,5.859,69.336
1688305405.879,-24.414,-46.387,-29.785,-1.953,199.707
1688305405.882,-33.203,-44.434,-37.109,-43.945,-94.727
1688305405.886,-46.387,-40.039,-37.598,-65.430,-152.344
1688305405.890,-26.367,-49.316,-32.227,-38.086,-27.832
1688305405.894,-1.953,-12.207,-14.648,0.977,-73.242
1688305405.898,2.930,10.254,-14.160,5.859,64.941
1688305405.901,-36.133,-26.367,-27.344,-37.109,-25.391
1688305405.905,-63.965,-31.738,-21.973,-53.711,-255.859
1688305405.909,-37.109,-25.879,-8.789,-39.551,-278.320
1688305405.913,-25.879,-41.016,-19.043,-17.578,-2.930
1688305405.917,-18.555,-46.875,-32.715,-12.207,274.414
1688305405.921,-34.180,-40.527,-41.016,-43.457,112.305
1688305405.925,-62.500,-16.113,-35.645,-58.105,-178.711
1688305405.928,-38.574,-1.953,-28.809,-33.203,-177.734
1688305405.932,-21.973,-17.578,-27.344,-3.418,229.980
1688305405.936,-24.414,-24.414,-20.020,-3.418,238.281
1688305405.940,-39.062,-45.410,-32.715,-34.180,-85.449
1688305405.944,-53.711,-41.504,-41.016,-43.457,-171.875
1688305405.945,-32.227,-35.156,-17.578,-27.832,-138.672
1688305405.949,-15.137,-46.875,-13.184,-18.555,-96.680
1688305405.953,-6.836,-29.297,-16.113,-23.438,44.434
1688305405.957,-7.812,-20.508,-20.508,-41.992,103.516
1688305405.961,-44.434,-28.320,-42.969,-67.871,-147.949
1688305405.965,-54.199,-19.043,-36.133,-51.270,-307.617
1688305405.969,-30.762,-18.066,-26.855,-10.742,-116.211
1688305405.972,-29.297,-47.852,-54.688,-13.184,327.148
1688305405.976,-38.086,-47.363,-49.316,-37.598,443.848
1688305405.980,-52.246,-36.133,-33.691,-58.594,-146.484
1688305405.984,-62.500,-30.273,-39.062,-62.500,-355.469
1688305405.988,-44.434,-36.133,-42.480,-43.457,-117.188
1688305405.990,-12.207,-45.898,-33.691,-16.113,77.637
1688305405.994,-2.930,-32.227,-23.926,-14.160,22.461
1688305405.998,-26.855,-25.879,-25.879,-44.922,-183.594
1688305406.002,-40.039,-24.902,-34.668,-58.594,-242.676
1688305406.006,-24.902,-28.809,-35.156,-35.645,-150.879
1688305406.010,-12.207,-27.344,-32.227,-8.301,104.980
1688305406.014,-16.113,-32.715,-39.062,-18.066,201.660
1688305406.017,-37.109,-19.043,-33.691,-42.969,308.594
1688305406.021,-55.664,-4.883,-36.133,-40.527,-14.648
1688305406.025,-37.598,-23.438,-47.363,-25.879,-311.523
1688305406.029,-20.020,-35.156,-28.320,-2.930,-53.711
1688305406.033,-5.859,-30.762,-10.254,-13.672,88.379
1688305406.035,-29.297,-27.832,-12.207,-59.082,-49.316
1688305406.039,-66.895,-41.504,-21.484,-63.965,-329.102
1688305406.043,-47.852,-45.410,-26.367,-32.715,-190.918
1688305406.047,-14.648,-36.621,-26.855,-7.812,147.461
1688305406.051,-4.395,-34.180,-34.668,-2.930,84.473
1688305406.055,-22.949,-14.648,-30.273,-24.414,-69.824
1688305406.059,-33.691,-15.625,-12.207,-26.367,41.992
1688305406.062,-26.367,-34.180,-27.344,-16.113,92.285
1688305406.066,-22.461,-37.598,-43.457,-2.441,-21.484
1688305406.070,-5.371,-31.250,-35.645,0.488,124.023
1688305406.074,-27.832,-28.809,-27.832,-43.457,28.320
1688305406.078,-61.523,-33.691,-36.133,-64.453,-346.680
1688305406.080,-50.293,-30.762,-49.316,-44.922,-483.887
1688305406.084,-33.691,-34.668,-32.715,-19.043,-224.121
1688305406.088,-12.695,-36.133,-22.461,7.812,125.488
1688305406.092,-9.766,-35.645,-38.086,-15.137,-97.656
1688305406.096,-46.387,-49.316,-50.293,-55.664,-478.516
1688305406.100,-40.039,-38.574,-32.227,-39.551,-326.660
1688305406.104,-6.348,-3.906,-8.789,0.977,224.609
1688305406.107,-8.789,-18.555,-28.809,-13.672,237.793
1688305406.111,-38.086,-42.480,-49.316,-62.988,-44.434
1688305406.115,-63.477,-36.621,-37.109,-70.801,-145.020
1688305406.119,-54.688,-35.645,-22.461,-46.387,-152.832
1688305406.123,-30.762,-24.414,-20.020,-19.043,18.555
1688305406.126,-8.301,-21.973,-25.879,0.977,232.910
1688305406.130,-16.113,-64.453,-32.715,-24.902,216.309
1688305406.134,-44.434,-49.805,-36.621,-61.523,124.023
1688305406.138,-50.781,-7.812,-31.738,-54.688,-279.297
1688305406.142,-27.344,-20.020,-33.691,-20.996,-181.641
1688305406.146,-14.160,-24.902,-31.250,-8.789,408.691
1688305406.150,-17.090,-23.926,-21.484,-28.320,275.391
1688305406.153,-32.227,-35.645,-28.320,-51.758,-271.484
1688305406.157,-56.641,-35.156,-40.527,-50.293,-435.059
1688305406.161,-40.527,-21.973,-40.039,-30.273,-69.336
1688305406.165,-14.648,-32.715,-32.715,-14.648,166.016
1688305406.169,-18.555,-53.711,-23.438,-40.039,7.324
1688305406.185,-44.434,-37.598,-25.391,-77.637,-203.125
1688305406.189,-44.922,0.000,-24.414,-66.406,-278.320
1688305406.193,-20.020,-9.277,-30.762,-35.645,-110.352
1688305406.197,-14.160,-31.250,-41.504,-20.508,62.988
1688305406.201,-3.418,-31.738,-41.504,-21.484,153.809
1688305406.205,-32.715,-40.527,-23.926,-40.527,208.984
1688305406.209,-59.570,-49.316,-19.531,-51.758,-90.332
1688305406.212,-38.086,-41.504,-31.250,-23.926,-252.930
1688305406.216,-20.996,-33.691,-16.602,17.578,47.363
1688305406.220,-21.484,-42.969,-10.254,10.742,416.992
1688305406.224,-32.227,-42.969,-26.367,-27.832,14.648
1688305406.228,-51.270,-19.043,-38.086,-39.062,-357.422
1688305406.230,-50.293,-19.531,-28.809,-26.367,-103.516
1688305406.234,-19.043,-29.785,-8.789,8.789,188.477
1688305406.238,0.488,-28.809,-20.996,12.695,113.281
1688305406.242,-21.973,-33.691,-35.645,-33.691,-130.371
1688305406.246,-50.293,-39.062,-33.203,-42.969,-256.348
1688305406.250,-48.340,-50.293,-28.320,-22.949,-235.352
1688305406.254,-28.809,-48.828,-19.531,-0.977,-7.324
1688305406.257,-11.230,-21.973,-33.203,-5.371,65.918
1688305406.261,-11.230,3.418,-35.645,-34.180,134.277
1688305406.265,-49.316,-5.859,-18.555,-58.594,73.242
1688305406.269,-64.453,-28.320,-21.973,-62.988,-294.434
1688305406.273,-41.992,-34.180,-32.715,-31.250,-125.000
1688305406.275,-8.789,-45.410,-30.762,-10.254,199.219
1688305406.279,2.441,-47.363,-21.973,-23.926,14.160
1688305406.283,-36.133,-38.086,-29.785,-45.898,-320.312
1688305406.287,-40.039,-46.387,-24.414,-44.922,-356.934
1688305406.291,-16.113,-41.992,-15.625,-20.020,-96.191
1688305406.295,8.301,-17.578,-23.438,0.488,257.324
1688305406.299,-5.859,-1.953,-44.922,-33.203,149.902
1688305406.302,-51.270,-16.113,-48.340,-66.895,-64.941
1688305406.306,-41.016,-23.438,-23.926,-45.410,-26.367
1688305406.310,-14.160,-13.184,-21.973,-16.113,-112.793
1688305406.314,-11.230,-6.836,-22.461,1.465,11.230
1688305406.318,-10.254,-20.020,-22.461,-18.066,183.594
1688305406.320,-35.645,-30.273,-31.738,-50.781,259.766
1688305406.324,-49.805,-46.875,-32.227,-59.082,-137.695
1688305406.328,-23.926,-62.500,-31.738,-36.133,-229.980
1688305406.332,-14.648,-37.598,-29.297,-9.277,117.188
1688305406.336,-15.137,-22.461,-30.273,-28.809,79.590
1688305406.340,-35.156,-16.602,-35.156,-57.129,-156.250
1688305406.344,-41.992,-12.695,-46.875,-51.270,-291.016
1688305406.347,-12.207,-18.555,-36.133,-16.602,-24.414
1688305406.351,-8.789,-29.785,-20.508,0.488,272.461
1688305406.355,-20.020,-42.480,-38.574,-35.156,114.258
1688305406.359,-32.227,-41.504,-36.621,-61.523,-121.582
1688305406.363,-48.828,-44.434,-26.367,-61.523,-143.555
1688305406.368,-39.062,-51.270,-31.250,-53.711,-171.875
1688305406.372,-24.902,-50.781,-22.461,-28.809,-63.965
1688305406.376,-25.391,-37.109,-16.602,-20.020,66.895
1688305406.380,-20.020,-19.043,-11.719,-40.039,-71.289
1688305406.384,-34.668,-5.859,-26.855,-57.129,-263.184
1688305406.388,-41.016,-14.648,-46.387,-59.570,-241.211
1688305406.392,-9.766,-30.273,-35.156,-20.020,168.457
1688305406.395,17.090,-19.043,-24.902,-2.930,580.078
1688305406.399,-6.348,-5.371,-21.973,-38.086,155.273
1688305406.403,-46.875,-16.602,-20.020,-57.617,-272.949
1688305406.407,-57.617,-36.133,-41.016,-60.059,-224.609
1688305406.411,-40.039,-29.297,-39.551,-37.598,22.949
1688305406.411,-7.324,-7.812,-12.207,-18.555,224.121
1688305406.415,-24.902,-42.480,-28.320,-61.035,25.879
1688305406.419,-64.453,-88.867,-49.805,-88.379,-159.668
1688305406.423,-50.781,-63.477,-37.598,-62.988,-229.492
1688305406.427,-28.809,-32.227,-31.250,-43.945,-143.555
1688305406.431,-28.320,-27.832,-27.832,-42.969,120.605
1688305406.435,-31.738,-34.668,-22.949,-48.340,235.352
1688305406.438,-60.547,-38.086,-40.527,-68.848,275.879
1688305406.442,-72.266,-41.016,-52.246,-67.871,-71.289
