timestamps,TP9,AF7,AF8,TP10,Right AUX
1692215667.918,-61.523,-32.715,-27.344,-56.152,-54.688
1692215667.922,-62.988,-40.039,-26.367,-49.805,-43.945
1692215667.926,-52.734,-42.480,-27.344,-34.180,121.094
1692215667.930,-41.016,-37.109,-25.879,-29.297,12.695
1692215667.934,-37.109,-35.156,-30.273,-42.480,-131.348
1692215667.938,-41.504,-36.133,-33.691,-46.387,41.504
1692215667.942,-49.805,-35.645,-31.738,-42.480,352.051
1692215667.945,-52.246,-33.691,-35.156,-33.691,312.988
1692215667.949,-43.945,-33.203,-36.621,-19.531,-108.398
1692215667.953,-43.945,-37.109,-35.156,-35.645,-162.109
1692215667.957,-47.852,-35.645,-35.156,-52.246,43.457
1692215667.961,-44.434,-34.180,-32.715,-48.340,-94.238
1692215667.977,-29.297,-31.250,-38.086,-37.109,-242.188
1692215667.981,-17.578,-28.809,-34.180,-25.391,-130.859
1692215667.985,-21.484,-29.785,-30.762,-34.668,-67.871
1692215667.989,-31.250,-30.762,-30.762,-54.688,-134.766
1692215667.993,-39.551,-33.691,-29.297,-56.152,-227.539
1692215667.997,-36.133,-35.645,-33.691,-38.574,104.980
1692215668.001,-30.273,-30.762,-37.598,-23.438,455.566
1692215668.004,-34.180,-24.902,-38.086,-34.180,38.086
1692215668.008,-50.293,-26.855,-31.250,-54.199,-198.730
1692215668.012,-51.758,-27.832,-25.391,-52.246,-20.508
1692215668.016,-39.551,-26.367,-28.320,-33.203,6.836
1692215668.020,-36.133,-24.414,-29.785,-20.996,-74.707
1692215668.022,-30.762,-25.391,-28.320,-23.438,-83.008
1692215668.026,-35.645,-29.297,-29.785,-29.785,-79.590
1692215668.030,-45.898,-32.227,-26.367,-36.133,-122.070
1692215668.034,-42.969,-30.762,-22.949,-33.691,-95.703
1692215668.038,-31.738,-28.809,-24.902,-23.926,3.418
1692215668.042,-25.879,-30.762,-29.297,-31.738,238.770
1692215668.046,-30.273,-28.809,-33.691,-54.199,132.812
1692215668.049,-31.250,-20.508,-31.738,-55.176,29.785
1692215668.053,-25.879,-17.090,-28.809,-38.574,55.664
1692215668.057,-21.973,-24.414,-32.715,-23.438,296.875
1692215668.061,-22.461,-29.785,-35.645,-21.484,322.754
1692215668.065,-29.297,-26.855,-36.133,-30.762,-118.652
1692215668.069,-37.109,-26.367,-32.715,-35.645,-203.613
1692215668.073,-35.156,-27.344,-29.785,-24.902,-148.926
1692215668.077,-33.691,-27.832,-34.180,-17.578,-146.973
1692215668.081,-34.668,-25.879,-30.762,-31.738,-115.234
1692215668.085,-41.992,-25.879,-33.203,-53.711,-25.391
1692215668.089,-51.758,-30.762,-36.133,-55.176,-1.465
1692215668.093,-46.875,-31.250,-33.203,-34.668,5.859
1692215668.096,-37.598,-29.785,-29.297,-18.555,21.484
1692215668.100,-33.203,-28.320,-25.879,-12.695,108.398
1692215668.104,-34.180,-30.762,-27.832,-25.879,333.008
1692215668.108,-35.645,-30.762,-30.762,-40.039,-4.395
1692215668.112,-31.250,-29.297,-26.367,-24.902,-245.117
1692215668.112,-24.414,-29.785,-18.555,-8.301,-125.977
1692215668.116,-20.996,-22.461,-19.043,-3.418,-145.020
1692215668.120,-26.855,-22.461,-25.391,-11.230,-174.805
1692215668.124,-29.785,-23.926,-27.832,-28.809,-130.371
1692215668.128,-22.949,-16.602,-21.973,-26.367,-52.734
1692215668.132,-23.438,-16.113,-17.090,-11.230,-5.371
1692215668.136,-24.414,-23.438,-24.902,-14.160,41.992
1692215668.139,-30.762,-24.414,-24.414,-27.832,-6.348
1692215668.143,-44.922,-20.508,-19.531,-31.250,215.820
1692215668.147,-52.246,-18.066,-25.391,-35.156,332.031
1692215668.151,-50.781,-23.926,-25.879,-32.227,-21.484
1692215668.155,-41.016,-26.367,-23.438,-15.137,-90.820
1692215668.159,-36.621,-22.949,-25.879,-17.090,23.438
1692215668.163,-45.898,-28.320,-28.320,-37.109,-147.949
1692215668.167,-52.734,-31.250,-31.738,-43.945,-157.227
1692215668.171,-39.551,-23.926,-26.855,-26.855,-84.473
1692215668.175,-23.438,-19.531,-24.902,-8.789,-68.359
1692215668.179,-15.137,-22.949,-30.762,-7.324,11.230
1692215668.183,-35.156,-27.344,-27.832,-31.250,-126.953
1692215668.186,-59.570,-33.203,-25.879,-44.922,-48.340
1692215668.190,-45.410,-33.203,-29.785,-25.391,194.824
1692215668.194,-33.203,-27.832,-31.250,-18.066,-58.105
1692215668.198,-32.227,-28.809,-30.762,-33.203,-159.668
1692215668.202,-40.039,-27.832,-35.645,-58.105,-38.086
1692215668.202,-43.457,-23.438,-33.691,-54.199,-33.203
1692215668.206,-33.203,-24.414,-26.855,-34.180,-117.676
1692215668.210,-24.902,-22.461,-28.809,-19.531,-50.293
1692215668.214,-32.227,-26.367,-27.832,-23.438,142.090
1692215668.218,-46.387,-31.250,-28.809,-40.527,41.504
1692215668.222,-50.781,-27.832,-28.809,-44.922,-26.855
1692215668.226,-45.410,-21.973,-24.414,-34.180,87.402
1692215668.229,-35.156,-22.461,-22.461,-14.648,395.996
1692215668.233,-32.227,-23.926,-26.367,-17.578,358.398
1692215668.237,-33.203,-22.461,-29.297,-34.180,-72.754
1692215668.241,-33.691,-26.367,-34.180,-42.969,-149.414
1692215668.245,-27.832,-30.762,-38.574,-38.086,-99.121
1692215668.262,-16.602,-27.832,-38.086,-28.809,-154.297
1692215668.266,-10.254,-22.949,-38.086,-20.996,-175.781
1692215668.270,-15.625,-22.461,-33.203,-20.020,-70.801
1692215668.274,-25.879,-22.949,-31.250,-37.109,-39.062
1692215668.278,-38.086,-22.461,-30.273,-41.016,-131.836
1692215668.282,-30.273,-20.508,-25.879,-20.508,-90.332
1692215668.286,-19.531,-24.902,-28.320,-14.648,186.523
1692215668.289,-27.832,-26.367,-26.367,-27.832,333.496
1692215668.293,-30.762,-23.438,-22.461,-41.504,-80.566
1692215668.297,-15.137,-19.531,-20.996,-29.297,-213.379
1692215668.301,-6.836,-20.508,-21.973,-14.160,-30.273
1692215668.305,-1.953,-19.531,-23.438,-10.742,-53.711
1692215668.292,-4.883,-18.066,-20.996,-14.160,-99.121
1692215668.296,-27.344,-25.391,-23.926,-34.668,-54.688
1692215668.300,-41.016,-26.367,-26.367,-32.715,-33.691
1692215668.304,-33.691,-21.484,-20.996,-15.137,-68.359
1692215668.308,-20.020,-24.414,-23.438,-4.883,-69.336
1692215668.312,-32.227,-26.855,-23.926,-10.254,19.043
1692215668.316,-43.457,-24.414,-20.508,-28.320,261.230
1692215668.319,-33.691,-24.414,-18.555,-30.762,152.344
1692215668.323,-22.949,-25.879,-15.137,-16.602,-100.586
1692215668.327,-18.555,-23.926,-20.020,-8.789,-21.484
1692215668.331,-26.855,-23.438,-23.926,-18.066,276.367
1692215668.335,-38.574,-24.414,-22.461,-32.227,129.395
1692215668.353,-36.621,-21.973,-20.508,-41.016,-170.898
1692215668.357,-28.809,-23.438,-20.020,-25.391,-153.320
1692215668.361,-21.973,-23.926,-18.555,-8.789,-86.914
1692215668.365,-21.484,-20.996,-19.531,-16.602,-65.918
1692215668.369,-32.227,-22.949,-19.531,-38.086,-164.551
1692215668.373,-32.715,-20.508,-17.578,-36.133,-51.270
1692215668.377,-14.160,-15.137,-18.555,-13.184,131.836
1692215668.380,-3.906,-20.508,-20.508,-0.488,33.203
1692215668.384,-9.766,-23.438,-19.531,-6.836,-124.023
1692215668.388,-19.043,-23.438,-21.484,-23.438,41.016
1692215668.392,-33.203,-22.949,-24.902,-31.738,158.203
1692215668.396,-35.156,-21.484,-25.391,-26.367,-120.605
1692215668.397,-30.273,-21.973,-24.902,-18.066,-123.047
1692215668.401,-35.645,-21.973,-28.320,-20.996,-40.039
1692215668.405,-47.852,-26.855,-27.832,-40.527,-109.375
1692215668.409,-55.176,-30.762,-29.297,-52.246,-171.387
1692215668.413,-52.734,-26.367,-32.715,-39.062,-90.820
1692215668.417,-44.922,-26.855,-33.691,-27.832,141.113
1692215668.421,-38.574,-29.297,-32.715,-27.344,69.336
1692215668.424,-39.062,-25.391,-31.738,-34.668,-57.129
1692215668.428,-35.645,-21.973,-30.273,-41.504,-59.082
1692215668.432,-31.738,-25.391,-28.320,-30.762,259.277
1692215668.436,-29.297,-27.344,-30.273,-15.625,324.219
1692215668.440,-19.531,-22.949,-24.902,-13.184,-78.125
1692215668.457,-21.973,-20.996,-25.391,-24.414,-119.141
1692215668.461,-33.203,-20.996,-32.227,-40.039,-60.059
1692215668.465,-36.133,-22.461,-31.250,-32.227,-118.652
1692215668.469,-21.484,-21.484,-29.785,-11.230,-134.766
1692215668.473,-19.043,-26.367,-31.738,-6.348,-62.012
1692215668.477,-32.227,-35.645,-35.156,-21.973,83.496
1692215668.481,-34.668,-32.715,-36.621,-31.738,14.648
1692215668.484,-30.273,-26.367,-38.086,-27.344,-147.949
1692215668.488,-16.113,-27.832,-36.133,-12.207,56.641
1692215668.492,-11.230,-29.297,-36.133,-6.836,239.746
1692215668.496,-16.602,-24.902,-38.086,-23.926,-71.777
1692215668.500,-23.438,-25.879,-31.250,-33.691,-189.941
1692215668.487,-34.668,-29.785,-30.273,-31.738,-16.113
1692215668.491,-31.250,-23.438,-31.738,-20.020,-41.992
1692215668.495,-35.645,-26.855,-30.762,-9.766,-141.113
1692215668.499,-54.199,-32.715,-30.762,-24.902,-105.469
1692215668.503,-62.012,-31.250,-33.203,-43.457,-0.977
1692215668.507,-54.199,-32.227,-34.180,-50.781,36.133
1692215668.511,-38.086,-37.109,-31.738,-45.898,28.320
1692215668.514,-35.156,-36.621,-36.621,-32.227,80.566
1692215668.518,-41.992,-34.180,-40.039,-34.180,247.070
1692215668.522,-43.945,-34.668,-38.086,-47.852,-9.766
1692215668.526,-53.223,-31.250,-38.086,-43.945,-222.656
1692215668.530,-54.688,-30.273,-38.086,-28.320,-92.773
1692215668.549,-41.992,-31.250,-37.598,-13.672,255.371
1692215668.553,-39.062,-25.391,-33.203,-14.160,97.656
1692215668.557,-38.086,-21.973,-30.762,-30.762,-161.621
1692215668.561,-38.574,-23.926,-36.133,-40.039,-8.789
1692215668.565,-34.668,-22.949,-35.645,-32.227,-21.973
1692215668.569,-15.137,-18.066,-30.273,-10.742,-71.777
1692215668.573,-7.812,-15.625,-37.598,-15.137,-97.168
1692215668.576,-21.973,-20.996,-41.504,-39.062,-11.719
1692215668.580,-24.902,-24.414,-39.062,-37.109,159.180
1692215668.584,-21.973,-24.414,-44.434,-25.879,-102.539
1692215668.588,-20.996,-22.949,-47.363,-19.531,-176.758
1692215668.592,-28.809,-23.438,-38.574,-18.066,-28.809
1692215668.577,-41.992,-27.344,-37.109,-34.180,-78.125
1692215668.581,-46.387,-23.926,-41.992,-46.875,-175.293
1692215668.585,-48.340,-20.020,-42.969,-35.156,-151.855
1692215668.589,-43.945,-28.320,-38.086,-8.789,-32.227
1692215668.593,-21.484,-41.504,-35.156,12.695,19.043
1692215668.597,-7.324,-25.879,-39.551,5.859,26.855
1692215668.601,-22.949,-6.348,-44.922,-25.391,115.723
1692215668.604,-34.668,-9.766,-48.828,-32.715,183.594
1692215668.608,-25.879,-13.672,-49.805,-9.766,35.645
1692215668.612,-16.602,-18.555,-53.711,-3.906,-50.781
1692215668.616,-11.719,-20.020,-58.105,-12.207,-81.543
1692215668.620,-9.277,-23.438,-56.152,-9.277,191.406
1692215668.624,-17.578,-20.508,-55.176,-4.883,185.059
1692215668.628,-3.906,-11.719,-60.059,3.418,-178.223
1692215668.632,11.230,-11.719,-61.523,13.184,-92.285
1692215668.636,5.859,-12.207,-62.012,10.254,168.945
1692215668.640,13.184,-12.695,-59.082,2.930,-24.414
1692215668.644,14.160,-14.160,-59.082,5.371,-86.426
1692215668.648,21.973,-14.648,-63.477,20.996,146.973
1692215668.651,37.598,-15.625,-63.477,29.297,266.602
1692215668.655,33.691,-17.090,-62.012,14.648,-47.852
1692215668.659,30.762,-10.742,-60.547,2.441,-199.707
1692215668.663,44.922,-5.859,-55.176,9.766,-19.531
1692215668.667,60.059,-3.906,-56.152,24.414,-85.938
1692215668.667,70.312,-2.930,-58.105,29.785,-204.590
1692215668.671,61.035,-2.930,-54.688,21.973,-155.762
1692215668.675,41.992,-7.812,-58.594,13.184,-74.219
1692215668.679,20.020,-14.648,-59.570,6.836,-96.680
1692215668.683,6.348,-11.230,-52.734,14.648,-161.133
1692215668.687,4.395,-7.812,-47.363,30.273,-53.711
1692215668.691,-6.836,-7.812,-46.387,27.344,359.375
1692215668.694,-12.207,-6.836,-45.898,5.371,276.367
1692215668.698,-12.695,-13.672,-45.898,0.977,-171.387
1692215668.702,-16.602,-17.578,-41.016,20.020,-89.355
1692215668.706,-10.742,-18.555,-41.992,35.156,296.387
1692215668.710,-5.859,-19.531,-43.457,20.020,52.246
1692215668.729,-15.625,-17.090,-37.109,1.465,-259.277
1692215668.733,-18.066,-14.648,-32.227,0.000,-149.414
1692215668.737,-14.648,-18.066,-35.156,-0.488,-33.203
1692215668.741,-6.836,-21.484,-37.598,2.441,-147.461
1692215668.745,-7.324,-20.508,-38.574,2.930,-182.617
1692215668.749,-19.531,-21.973,-42.969,-14.160,44.922
1692215668.753,-26.367,-17.090,-43.457,-34.668,86.914
1692215668.756,-13.184,-13.184,-38.574,-31.250,-117.188
1692215668.760,5.371,-11.719,-35.645,-16.113,-191.406
1692215668.764,8.301,-9.277,-37.109,-13.184,42.969
1692215668.768,1.953,-10.254,-40.039,-29.297,110.352
1692215668.772,-8.789,-12.207,-32.715,-39.062,-140.137
1692215668.772,-5.859,-11.719,-31.250,-29.297,-166.016
1692215668.776,14.160,-7.812,-31.738,-3.906,82.031
1692215668.780,21.484,-5.859,-23.438,10.742,40.039
1692215668.784,14.648,-7.812,-18.066,-3.906,-125.000
1692215668.788,-7.812,-16.113,-19.043,-13.184,-35.156
1692215668.792,-37.598,-18.555,-18.066,-5.371,125.000
1692215668.796,-32.715,-20.020,-20.996,4.883,104.004
1692215668.799,-28.809,-20.020,-21.484,14.160,58.105
1692215668.803,-31.738,-15.625,-21.484,9.277,48.340
1692215668.807,-26.855,-19.043,-26.855,-2.441,308.105
1692215668.811,-28.809,-26.367,-30.762,-6.348,316.406
1692215668.815,-24.902,-26.855,-29.297,-2.441,-16.602
1692215668.819,-19.531,-21.973,-25.391,-0.488,-85.449
1692215668.823,-26.855,-23.926,-26.855,-14.160,-119.629
1692215668.827,-30.273,-26.367,-31.250,-34.180,-161.133
1692215668.831,-25.391,-23.926,-26.855,-36.133,-96.680
1692215668.835,-19.531,-25.879,-23.438,-19.531,-4.395
1692215668.839,-16.113,-26.367,-26.367,-16.113,105.469
1692215668.843,-13.184,-25.391,-29.297,-30.762,41.016
1692215668.846,-19.043,-23.926,-30.273,-43.457,-168.945
1692215668.850,-30.762,-25.879,-30.273,-38.086,-5.859
1692215668.854,-36.133,-23.926,-33.691,-24.902,211.426
1692215668.858,-41.016,-19.531,-34.180,-17.578,-74.707
1692215668.862,-34.668,-20.508,-35.156,-19.531,-207.031
1692215668.862,-28.809,-23.438,-41.016,-27.832,-137.695
1692215668.866,-30.273,-28.809,-39.551,-28.320,-146.484
1692215668.870,-27.344,-31.250,-36.621,-15.625,-139.160
1692215668.874,-21.973,-25.391,-33.691,1.953,-46.387
1692215668.878,-20.996,-19.043,-35.156,-11.230,11.719
1692215668.882,-27.344,-19.043,-38.574,-36.133,34.180
1692215668.886,-40.527,-23.438,-31.738,-36.133,-51.758
1692215668.889,-39.551,-23.926,-32.227,-22.461,-55.176
1692215668.893,-26.367,-23.438,-39.062,-2.930,401.855
1692215668.897,-19.531,-15.137,-35.645,2.930,541.992
1692215668.901,-17.578,-12.207,-34.180,-18.555,15.625
1692215668.905,-19.043,-17.578,-36.133,-30.762,-219.727
1692215668.924,-15.137,-11.719,-30.273,-11.230,-145.996
1692215668.928,-7.812,-14.648,-31.738,2.930,-158.203
1692215668.932,-1.953,-16.113,-37.109,-8.789,-173.828
1692215668.936,-8.789,-12.695,-36.621,-23.438,-128.906
1692215668.940,-21.484,-18.066,-36.621,-31.738,-116.211
1692215668.944,-29.297,-20.508,-37.109,-20.996,-12.695
1692215668.948,-29.785,-24.902,-33.203,-7.812,-15.137
1692215668.951,-31.738,-26.367,-28.809,-6.836,41.016
1692215668.955,-37.598,-20.020,-29.785,-11.719,368.652
1692215668.959,-40.039,-18.555,-25.879,-25.391,10.254
1692215668.963,-42.480,-20.996,-23.438,-27.832,-209.473
1692215668.967,-31.738,-19.531,-29.785,-10.254,-24.414
1692215668.952,-18.066,-17.578,-29.297,-3.906,-72.266
1692215668.956,-27.344,-20.508,-29.785,-22.949,-143.555
1692215668.960,-32.227,-21.973,-32.715,-37.109,-145.020
1692215668.964,-30.762,-18.066,-27.832,-28.809,-88.379
1692215668.968,-12.207,-14.160,-24.414,-9.766,-90.820
1692215668.972,-13.184,-22.461,-24.414,-8.789,-89.844
1692215668.976,-29.297,-28.320,-28.809,-17.578,37.109
1692215668.979,-27.832,-21.973,-29.785,-27.832,119.141
1692215668.983,-26.855,-18.066,-28.320,-28.320,-74.707
1692215668.987,-22.461,-20.996,-28.809,-18.555,-143.555
1692215668.991,-19.043,-22.461,-31.738,-11.719,-62.988
1692215668.995,-17.090,-26.367,-32.715,-13.184,265.137
1692215668.999,-28.320,-28.809,-34.668,-26.367,327.637
1692215669.003,-33.203,-28.320,-39.551,-31.738,-124.023
1692215669.007,-23.926,-24.902,-29.785,-16.602,-257.812
1692215669.011,-19.531,-24.414,-26.855,-7.812,-211.914
1692215669.015,-14.160,-29.785,-30.273,-19.531,-229.492
1692215669.019,-24.902,-29.297,-26.855,-39.062,-158.203
1692215669.023,-44.922,-26.855,-33.691,-34.668,0.488
1692215669.026,-41.504,-25.879,-38.086,-17.578,167.969
1692215669.030,-30.273,-23.926,-34.180,-19.531,-65.918
1692215669.034,-29.785,-24.902,-34.668,-34.180,-187.500
1692215669.038,-38.086,-29.785,-37.598,-45.410,-102.539
1692215669.042,-45.898,-26.855,-32.227,-39.551,-144.531
1692215669.043,-39.062,-20.020,-32.715,-28.809,-207.520
1692215669.047,-27.344,-21.973,-34.668,-21.484,-120.117
1692215669.051,-22.461,-20.020,-30.273,-19.043,100.586
1692215669.055,-31.250,-21.484,-28.320,-31.738,-4.883
1692215669.059,-33.691,-26.855,-30.762,-36.133,-136.230
1692215669.063,-24.414,-26.855,-29.785,-25.391,35.156
1692215669.067,-18.555,-26.367,-29.297,-5.371,345.215
1692215669.070,-29.785,-28.320,-33.203,-5.859,225.098
1692215669.074,-38.086,-23.926,-33.691,-27.344,-162.109
1692215669.078,-31.250,-14.648,-27.832,-28.809,-162.109
1692215669.082,-31.250,-14.160,-23.438,-11.230,57.129
1692215669.086,-29.785,-16.602,-26.367,2.441,-29.785
1692215669.103,-25.879,-14.648,-25.879,6.348,-101.074
1692215669.107,-23.438,-14.648,-32.227,-0.977,-43.457
1692215669.111,-14.648,-10.742,-39.551,-7.324,-104.980
1692215669.115,-11.719,-19.043,-24.902,6.836,-73.730
1692215669.119,-23.926,-39.551,-9.277,2.441,-30.762
1692215669.123,-1.953,-36.133,-14.648,0.977,159.668
1692215669.127,12.695,-26.367,-22.949,-0.488,507.324
1692215669.130,-5.371,-30.762,-17.090,-23.438,71.777
1692215669.134,-10.254,-34.668,-11.719,-17.090,-240.723
1692215669.138,-14.648,-30.762,-8.789,4.883,-70.312
1692215669.142,-24.902,-30.273,-11.230,8.789,-105.469
1692215669.146,-28.809,-30.273,-13.672,0.977,-172.852
1692215669.147,-22.949,-26.855,-14.648,-9.277,-128.418
1692215669.151,-14.648,-31.250,-25.879,-11.230,-73.730
1692215669.155,0.488,-33.691,-27.344,4.395,-90.820
1692215669.159,13.672,-29.297,-19.043,15.625,-129.395
1692215669.163,2.441,-29.785,-18.066,1.465,-73.730
1692215669.167,-11.230,-30.762,-24.414,-12.695,75.684
1692215669.171,-24.414,-32.715,-15.137,-15.137,65.430
1692215669.174,-37.598,-31.738,-7.812,-4.395,1.953
1692215669.178,-35.645,-28.809,-5.371,7.324,-46.875
1692215669.182,-35.645,-28.809,1.465,1.953,280.273
1692215669.186,-39.062,-25.391,0.488,-17.578,408.691
1692215669.190,-32.227,-20.020,-1.953,-24.414,-16.602
1692215669.194,-20.020,-21.973,-4.883,-16.113,-143.066
1692215669.198,-4.395,-22.461,-6.348,-6.836,-146.484
1692215669.202,-2.441,-19.531,-1.465,-8.789,-189.941
1692215669.206,-11.719,-22.949,-4.883,-29.297,-173.340
1692215669.210,-23.438,-25.879,-11.230,-39.551,-118.164
1692215669.214,-23.926,-22.949,-7.812,-19.531,-19.531
1692215669.218,-33.691,-23.438,-6.348,-10.742,61.523
1692215669.221,-42.969,-29.297,-15.625,-22.461,-34.180
1692215669.225,-39.062,-30.762,-17.578,-28.809,118.164
1692215669.229,-41.504,-32.715,-9.766,-34.180,296.875
1692215669.233,-34.180,-33.203,-9.766,-27.344,-33.203
1692215669.237,-23.438,-30.762,-12.207,-13.672,-108.398
1692215669.237,-22.949,-30.762,-15.625,-16.602,161.621
1692215669.241,-25.391,-27.832,-21.484,-25.391,101.074
1692215669.245,-21.973,-25.879,-18.066,-28.809,-176.270
1692215669.249,-21.484,-30.762,-17.090,-21.484,-139.160
1692215669.253,-21.973,-31.738,-19.531,-7.812,-10.742
1692215669.257,-20.020,-31.250,-19.531,-4.883,48.828
1692215669.261,-29.785,-32.227,-22.949,-12.207,14.160
1692215669.264,-37.598,-27.832,-24.902,-20.508,22.949
1692215669.268,-26.855,-26.855,-22.461,-9.277,266.602
1692215669.272,-18.066,-25.879,-24.902,-0.488,265.137
1692215669.276,-16.113,-23.926,-23.438,-3.418,-89.844
1692215669.280,-22.949,-20.996,-20.996,-18.066,-80.078
1692215669.284,-27.344,-19.531,-26.855,-36.621,1.465
1692215669.288,-16.113,-13.672,-23.438,-25.391,-140.137
1692215669.292,-21.484,-13.672,-21.973,-6.836,-156.738
1692215669.296,-27.344,-21.973,-28.320,0.000,-58.594
1692215669.300,-23.438,-26.855,-24.902,-5.859,-121.094
1692215669.304,-34.180,-21.484,-22.949,-18.066,-66.895
1692215669.308,-45.898,-22.949,-25.879,-20.996,7.812
1692215669.311,-38.086,-29.785,-26.855,-9.766,100.586
1692215669.315,-24.902,-26.367,-23.926,-2.441,256.836
1692215669.319,-23.438,-22.461,-26.855,-16.113,-64.453
1692215669.323,-29.785,-15.137,-33.203,-36.133,-232.422
1692215669.327,-19.531,-7.812,-33.203,-31.738,4.395
1692215669.328,1.953,-13.184,-28.320,-1.953,-5.371
1692215669.332,13.184,-18.555,-27.832,5.859,-138.184
1692215669.336,8.789,-17.578,-29.297,-11.230,-67.383
1692215669.340,-19.531,-18.555,-26.855,-33.203,86.914
1692215669.344,-36.133,-23.926,-25.879,-29.785,-50.293
1692215669.348,-22.949,-25.391,-26.367,-6.348,-36.621
1692215669.352,-9.766,-20.020,-23.926,2.930,68.848
1692215669.355,-20.508,-22.461,-22.949,1.953,312.988
1692215669.359,-28.809,-25.391,-22.949,-8.789,335.938
1692215669.363,-28.320,-20.996,-28.320,-18.555,-125.977
1692215669.367,-9.766,-19.043,-24.902,-0.977,-234.375
1692215669.371,1.465,-14.160,-18.066,11.230,-111.328
1692215669.374,-21.484,-20.508,-21.973,-1.465,-160.156
1692215669.378,-43.945,-28.320,-22.461,-16.113,-245.605
1692215669.382,-47.852,-28.320,-23.926,-21.484,-200.195
1692215669.386,-44.434,-24.902,-24.414,-8.301,-113.770
1692215669.390,-25.879,-22.461,-17.578,4.395,-44.434
1692215669.394,-18.555,-24.902,-18.555,-8.789,41.016
1692215669.398,-28.809,-24.902,-20.996,-27.832,192.383
1692215669.401,-29.297,-19.531,-19.531,-32.227,365.723
1692215669.405,-22.461,-18.555,-21.973,-20.508,90.820
1692215669.409,-20.996,-23.926,-27.344,-11.230,-169.434
1692215669.413,-20.508,-30.273,-31.738,-21.484,-98.145
1692215669.417,-24.902,-32.227,-31.250,-41.504,-180.176
1692215669.417,-33.691,-29.297,-29.785,-49.805,-243.652
1692215669.421,-32.715,-27.832,-25.879,-35.645,-103.516
1692215669.425,-26.855,-26.367,-18.066,-16.113,4.883
1692215669.429,-25.391,-22.949,-14.648,-12.207,-61.035
1692215669.433,-31.250,-28.320,-23.926,-27.832,-111.816
1692215669.437,-36.621,-27.832,-33.691,-42.480,61.523
1692215669.441,-31.738,-29.297,-32.227,-28.809,382.324
1692215669.444,-19.531,-30.762,-32.715,-6.836,237.305
1692215669.448,-11.230,-24.902,-35.156,-6.348,-31.250
1692215669.452,-15.137,-21.484,-31.738,-22.461,-43.945
1692215669.456,-24.902,-22.461,-23.926,-24.902,170.410
1692215669.460,-35.156,-24.902,-27.344,-20.020,31.250
1692215669.492,-27.832,-25.879,-28.809,-7.324,-209.473
1692215669.496,-20.996,-23.926,-23.926,1.953,-107.910
1692215669.500,-24.902,-21.484,-25.879,-13.184,-111.328
1692215669.504,-33.203,-21.484,-26.855,-26.855,-178.223
1692215669.508,-39.551,-22.461,-21.973,-20.996,-185.059
1692215669.512,-34.668,-24.414,-19.531,3.906,35.645
1692215669.516,-23.926,-20.020,-15.625,11.230,202.637
1692215669.519,-20.996,-19.531,-19.043,-3.906,-16.113
1692215669.523,-28.809,-17.578,-22.949,-17.578,-189.453
1692215669.527,-27.344,-16.602,-23.926,-14.160,19.043
1692215669.531,-27.344,-18.555,-24.414,-0.488,219.727
1692215669.535,-17.578,-16.113,-22.949,-2.930,-43.457
1692215669.522,-21.973,-19.043,-24.902,-18.555,-144.531
1692215669.526,-44.434,-20.996,-27.832,-32.227,-83.008
1692215669.530,-48.828,-21.484,-25.391,-33.691,-108.398
1692215669.534,-40.039,-19.531,-27.344,-23.438,-158.691
1692215669.538,-37.598,-18.066,-27.832,-13.672,-55.176
1692215669.542,-27.344,-28.809,-25.391,-6.348,228.027
1692215669.546,-10.254,-31.738,-26.855,-12.695,153.320
1692215669.549,-22.461,-16.602,-29.785,-26.367,-22.949
1692215669.553,-46.875,-7.324,-34.668,-36.133,-6.836
1692215669.557,-59.082,-12.695,-35.645,-42.969,78.613
1692215669.561,-66.895,-20.508,-33.691,-45.410,-28.809
1692215669.565,-69.824,-22.461,-32.227,-51.270,-123.535
1692215669.569,-69.336,-21.973,-31.250,-61.035,-27.832
1692215669.573,-62.988,-19.531,-38.574,-54.199,335.449
1692215669.577,-53.711,-20.020,-42.480,-41.016,283.203
1692215669.581,-36.621,-18.555,-38.086,-40.527,-120.117
1692215669.585,-35.645,-15.137,-39.062,-48.340,-139.160
1692215669.589,-43.945,-13.184,-37.598,-45.898,-5.371
1692215669.593,-41.992,-18.555,-35.645,-33.691,-24.902
1692215669.596,-31.738,-23.926,-38.086,-21.973,-153.320
1692215669.600,-29.785,-22.461,-36.621,-15.625,8.301
1692215669.604,-43.945,-20.508,-33.691,-31.250,190.430
1692215669.608,-46.875,-21.484,-33.203,-46.875,-111.816
1692215669.612,-27.344,-21.484,-32.715,-30.762,-173.828
1692215669.613,-14.648,-24.902,-37.109,-13.184,-81.055
1692215669.617,-15.625,-27.832,-36.621,-16.113,-95.215
1692215669.621,-11.719,-20.996,-34.180,-27.344,-134.277
1692215669.625,-13.672,-16.602,-33.203,-30.762,-130.371
1692215669.629,-18.066,-20.508,-32.715,-23.926,68.848
1692215669.633,-20.020,-24.414,-34.668,-14.160,91.309
1692215669.637,-23.926,-22.461,-33.691,-16.602,40.527
1692215669.640,-30.273,-24.902,-31.738,-33.203,13.672
1692215669.644,-36.621,-27.344,-33.691,-43.945,291.016
1692215669.648,-32.227,-22.949,-32.715,-37.598,381.348
1692215669.652,-20.508,-21.484,-25.391,-25.391,-9.277
1692215669.656,-10.742,-18.066,-22.461,-16.602,-100.098
1692215669.659,-13.672,-16.113,-28.320,-21.973,-105.957
1692215669.663,-32.227,-21.484,-27.344,-36.621,-166.992
1692215669.667,-35.645,-22.949,-23.438,-38.574,-127.441
1692215669.671,-24.414,-20.996,-23.438,-17.090,-87.891
1692215669.675,-11.719,-22.949,-25.391,-11.230,-15.625
1692215669.679,-16.113,-20.508,-28.320,-28.809,-11.719
1692215669.683,-24.902,-16.113,-25.879,-34.668,-94.727
1692215669.686,-23.926,-20.020,-27.344,-31.738,27.832
1692215669.690,-36.133,-23.438,-31.738,-21.973,153.809
1692215669.694,-29.785,-21.484,-28.809,-12.695,-82.031
1692215669.698,-25.879,-18.066,-25.391,-20.020,-233.398
1692215669.702,-35.156,-16.602,-23.438,-35.645,-22.949
1692215669.702,-37.109,-20.508,-26.855,-41.992,63.965
1692215669.706,-27.832,-22.461,-31.738,-24.414,-125.488
1692215669.710,-17.090,-21.973,-32.227,-7.812,-69.824
1692215669.714,-19.043,-22.949,-31.250,-7.812,-8.301
1692215669.718,-37.109,-19.043,-30.273,-22.461,-114.746
1692215669.722,-44.922,-16.113,-30.273,-31.738,-40.527
1692215669.726,-31.738,-14.648,-27.344,-24.902,4.883
1692215669.729,-23.926,-22.949,-32.715,-17.578,303.711
1692215669.733,-24.414,-25.391,-31.738,-21.973,514.648
1692215669.737,-25.391,-23.438,-24.414,-34.668,-9.766
1692215669.741,-12.207,-28.320,-22.949,-9.766,-223.633
1692215669.745,-0.488,-22.949,-26.367,13.184,-41.016
1692215669.749,-21.973,-14.160,-29.785,-12.207,-77.148
1692215669.753,-57.617,-15.137,-27.344,-47.363,-148.438
1692215669.757,-75.195,-17.090,-27.832,-71.289,-125.977
1692215669.761,-91.309,-18.066,-34.180,-98.633,-143.066
1692215669.765,-97.656,-11.230,-39.551,-108.887,-138.184
1692215669.769,-87.402,-8.789,-38.086,-100.586,-77.637
1692215669.773,-83.008,-15.625,-40.039,-104.980,117.676
1692215669.776,-92.285,-17.090,-42.480,-115.723,238.281
1692215669.780,-108.887,-15.625,-36.621,-121.094,-56.641
1692215669.784,-104.980,-16.113,-34.668,-107.422,-115.723
1692215669.788,-87.891,-13.672,-35.645,-80.078,69.824
1692215669.792,-74.707,-10.742,-37.598,-69.336,-16.602
1692215669.792,-65.430,-9.766,-38.574,-79.590,-167.969
1692215669.796,-69.336,-12.695,-39.062,-84.961,-166.992
1692215669.800,-72.266,-21.973,-35.156,-74.707,-106.445
1692215669.804,-64.941,-29.297,-32.715,-56.641,-99.121
1692215669.808,-49.316,-30.273,-31.738,-46.875,-105.469
1692215669.812,-42.969,-28.809,-27.832,-52.734,19.531
1692215669.816,-62.012,-31.738,-26.855,-58.105,384.277
1692215669.819,-68.359,-33.691,-32.227,-48.340,326.660
1692215669.823,-57.129,-32.227,-31.738,-37.109,-85.449
1692215669.827,-49.316,-30.273,-26.855,-31.250,-91.797
1692215669.831,-45.898,-30.762,-25.391,-34.668,-20.508
1692215669.835,-45.410,-24.902,-22.949,-38.574,-120.605
1692215669.852,-36.621,-26.367,-19.531,-33.203,-83.496
1692215669.856,-31.738,-26.367,-22.949,-21.484,7.324
1692215669.860,-20.996,-25.391,-20.996,-12.695,4.883
1692215669.864,-14.648,-25.391,-21.484,-12.207,-125.488
1692215669.868,-21.973,-21.484,-23.926,-17.090,-208.984
1692215669.872,-17.578,-24.414,-23.926,-12.695,34.668
1692215669.876,-13.672,-24.414,-24.902,-0.977,217.773
1692215669.879,-12.207,-25.391,-25.391,7.812,-54.688
1692215669.883,-3.418,-27.832,-24.902,-3.418,-181.152
1692215669.887,-13.672,-33.691,-26.367,-19.043,-62.988
1692215669.891,-25.879,-33.691,-23.438,-19.043,-73.242
1692215669.895,-22.949,-30.762,-25.391,-10.742,-183.105
1692215669.898,-12.207,-34.668,-28.809,-1.953,-117.188
1692215669.902,-9.277,-28.809,-30.273,-16.113,-17.090
1692215669.906,-17.578,-23.926,-26.855,-33.691,-58.594
1692215669.910,-22.461,-25.879,-27.344,-37.109,-166.504
1692215669.914,-17.578,-26.367,-25.879,-18.066,-108.398
1692215669.918,-15.137,-21.973,-20.020,0.000,273.926
1692215669.922,-23.438,-20.996,-23.926,-6.348,212.402
1692215669.925,-34.180,-27.344,-30.762,-22.461,-26.855
1692215669.929,-44.434,-29.297,-28.320,-36.133,-12.207
1692215669.933,-40.039,-23.926,-26.855,-21.973,243.652
1692215669.937,-29.785,-20.996,-27.832,-9.766,170.410
1692215669.941,-17.090,-23.438,-16.602,-13.184,-130.371
1692215669.944,-19.531,-24.414,-16.113,-19.043,-109.375
1692215669.948,-29.785,-25.879,-21.484,-29.297,-59.082
1692215669.952,-32.715,-25.879,-20.020,-24.902,-59.570
1692215669.956,-24.414,-22.949,-20.508,-8.301,-65.430
1692215669.960,-20.996,-19.043,-24.414,-13.672,-57.617
1692215669.964,-26.855,-21.484,-21.484,-32.715,1.465
1692215669.968,-31.250,-17.578,-17.578,-28.320,34.668
1692215669.971,-20.996,-16.113,-23.926,-14.160,-18.066
1692215669.975,-0.488,-21.484,-23.926,3.906,91.309
1692215669.979,-2.930,-22.461,-20.996,12.695,378.906
1692215669.983,-20.996,-23.438,-21.973,-7.324,107.910
1692215669.987,-25.391,-17.578,-19.531,-10.742,-199.219
1692215669.987,-16.602,-8.789,-19.043,-5.371,-135.254
1692215669.991,-6.836,-10.254,-20.020,-1.465,-96.680
1692215669.995,-3.418,-14.160,-18.066,0.977,-118.164
1692215669.999,-15.625,-17.578,-23.926,-9.277,-118.652
1692215670.003,-26.367,-18.066,-21.973,-20.996,-47.363
1692215670.007,-25.879,-16.113,-16.602,-23.438,-9.277
1692215670.011,-20.020,-18.066,-19.043,-12.207,32.227
1692215670.014,-24.414,-21.484,-23.438,-11.719,88.379
1692215670.018,-29.297,-21.484,-26.367,-16.602,390.137
1692215670.022,-41.992,-28.320,-30.762,-26.855,507.812
1692215670.026,-44.434,-29.785,-30.762,-31.738,48.828
1692215670.030,-24.902,-22.949,-24.902,-10.254,-140.625
1692215670.034,-14.160,-20.508,-27.832,-1.953,-51.270
1692215670.038,-16.602,-19.043,-28.320,-15.625,-83.008
1692215670.042,-22.949,-18.555,-23.926,-34.180,-107.910
1692215670.046,-23.438,-20.996,-22.949,-35.645,-39.062
1692215670.050,-20.020,-17.578,-21.973,-15.137,45.898
1692215670.054,-20.508,-18.555,-19.531,-9.277,116.211
1692215670.058,-22.461,-18.555,-19.043,-17.578,61.035
1692215670.061,-28.809,-20.508,-24.414,-26.855,37.598
1692215670.065,-37.109,-21.973,-24.902,-22.949,182.617
1692215670.069,-29.785,-18.555,-22.949,-8.301,-19.043
1692215670.073,-20.020,-19.531,-25.391,-5.859,-62.012
1692215670.077,-17.578,-17.578,-27.344,-10.742,40.039
1692215670.077,-24.414,-16.602,-26.855,-28.320,-69.336
1692215670.081,-34.668,-17.578,-26.367,-33.203,-208.496
1692215670.085,-35.156,-17.090,-23.926,-17.090,-127.441
1692215670.089,-27.344,-21.973,-21.484,-5.859,-37.598
1692215670.093,-29.785,-22.461,-22.949,-13.672,-49.805
1692215670.097,-39.551,-20.996,-20.508,-27.344,6.836
1692215670.101,-44.434,-26.367,-18.066,-33.691,-20.020
1692215670.104,-45.410,-25.879,-23.438,-23.926,272.949
1692215670.108,-32.227,-20.508,-23.438,-18.555,392.090
1692215670.112,-22.949,-22.949,-21.973,-25.879,-48.828
1692215670.116,-33.203,-22.461,-23.438,-31.738,-183.594
1692215670.120,-45.898,-19.043,-32.227,-36.133,-104.980
1692215670.125,-47.852,-22.461,-32.227,-30.273,-46.875
1692215670.129,-39.551,-24.414,-17.578,-20.508,-41.016
1692215670.133,-27.344,-20.020,-11.719,-14.648,3.906
1692215670.137,-29.297,-18.066,-15.625,-24.414,107.422
1692215670.141,-30.762,-17.090,-13.672,-35.645,-49.316
1692215670.145,-18.066,-17.090,-10.742,-27.344,-150.879
1692215670.149,-11.230,-16.602,-16.602,-11.719,140.137
1692215670.152,-12.695,-19.043,-23.438,-7.324,348.633
1692215670.156,-21.484,-22.949,-23.438,-17.090,-62.988
1692215670.160,-29.785,-20.508,-23.438,-22.461,-234.375
1692215670.164,-26.855,-19.531,-26.855,-18.555,-107.910
1692215670.168,-11.230,-18.066,-21.484,2.930,-69.336
1692215670.167,-8.789,-19.531,-18.555,8.301,-94.727
1692215670.171,-23.926,-20.508,-19.043,-13.672,-108.887
1692215670.175,-44.922,-19.531,-21.484,-27.832,-27.832
1692215670.179,-47.363,-19.043,-22.461,-20.996,2.441
1692215670.183,-41.016,-23.926,-21.973,-9.766,-34.668
1692215670.187,-47.363,-30.762,-24.414,-17.090,48.828
1692215670.191,-48.828,-28.320,-25.391,-29.297,345.703
1692215670.194,-55.176,-27.832,-24.414,-39.062,527.832
1692215670.198,-54.688,-28.809,-20.508,-47.363,16.602
1692215670.202,-39.551,-21.973,-15.137,-34.668,-187.500
1692215670.206,-20.996,-13.672,-21.973,-26.855,-27.832
1692215670.210,-15.137,-16.602,-30.762,-33.691,-132.324
1692215670.228,-32.227,-20.508,-30.273,-41.016,-162.598
1692215670.232,-33.203,-20.020,-30.762,-35.156,-118.164
1692215670.236,-31.738,-18.555,-29.297,-25.391,-97.168
1692215670.240,-26.367,-20.020,-28.809,-20.508,-94.238
1692215670.244,-20.020,-22.461,-37.598,-28.809,-103.027
1692215670.248,-26.855,-26.367,-34.180,-47.852,46.875
1692215670.252,-25.391,-25.391,-26.367,-53.223,55.176
1692215670.255,-22.949,-26.367,-28.809,-42.480,20.508
1692215670.259,-21.973,-29.785,-30.762,-31.738,-0.488
1692215670.263,-30.273,-25.879,-27.832,-33.203,55.176
1692215670.267,-44.434,-26.855,-26.367,-46.387,236.816
1692215670.271,-35.156,-25.391,-23.438,-48.828,-74.219
1692215670.272,-29.785,-20.020,-24.902,-36.133,-188.477
1692215670.276,-26.855,-15.625,-30.762,-18.066,57.129
1692215670.280,-33.691,-13.672,-26.855,-10.742,-29.297
1692215670.284,-43.945,-13.672,-23.926,-25.391,-208.496
1692215670.288,-48.828,-13.672,-28.320,-40.039,-123.535
1692215670.292,-43.457,-19.043,-33.203,-31.738,62.500
1692215670.296,-21.484,-20.020,-35.645,-16.113,28.320
1692215670.299,-15.137,-20.020,-29.297,-15.625,-41.504
1692215670.303,-42.480,-28.320,-22.949,-27.344,-61.035
1692215670.307,-56.641,-28.320,-17.090,-32.227,247.559
1692215670.311,-48.340,-31.250,-12.695,-18.555,356.934
1692215670.315,-44.922,-34.180,-14.160,-8.301,-54.199
1692215670.319,-41.016,-32.227,-15.625,-14.160,-126.465
1692215670.323,-37.109,-28.320,-18.555,-33.691,-118.164
1692215670.327,-33.203,-23.926,-23.438,-38.574,-209.961
1692215670.331,-30.273,-22.461,-25.391,-24.902,-173.828
1692215670.335,-23.926,-22.461,-22.949,-10.254,-54.199
1692215670.339,-22.949,-23.438,-26.367,-12.695,59.082
1692215670.343,-32.227,-24.902,-27.832,-22.949,32.715
1692215670.346,-33.691,-25.879,-22.949,-32.227,-115.234
1692215670.350,-27.832,-25.391,-23.926,-21.484,-21.484
1692215670.354,-14.648,-24.414,-23.926,1.465,269.043
1692215670.358,-5.371,-24.414,-22.949,-0.977,46.875
1692215670.362,-9.766,-24.902,-23.438,-17.578,-135.742
1692215670.362,-18.066,-23.926,-23.438,-34.668,11.719
1692215670.366,-19.043,-19.531,-24.902,-33.203,-28.809
1692215670.370,-25.879,-16.113,-21.973,-20.020,-129.395
1692215670.374,-31.250,-17.578,-25.391,-15.137,-75.684
1692215670.378,-29.785,-21.973,-24.414,-22.461,30.273
1692215670.382,-42.969,-24.414,-23.438,-43.457,38.574
1692215670.386,-49.805,-25.391,-27.832,-40.527,-34.668
1692215670.389,-37.598,-27.832,-24.414,-15.137,-29.297
1692215670.393,-23.926,-23.438,-20.996,0.488,274.414
1692215670.397,-17.578,-22.949,-18.555,-5.859,337.402
1692215670.401,-23.438,-23.926,-22.949,-21.973,-72.266
1692215670.405,-30.273,-21.484,-23.926,-31.250,-217.285
1692215670.425,-26.367,-19.531,-21.484,-20.020,-107.910
1692215670.429,-15.625,-19.043,-26.367,-11.719,-3.906
1692215670.433,-7.812,-20.020,-30.273,-18.066,-138.672
1692215670.437,-18.555,-20.996,-29.297,-31.250,-167.969
1692215670.441,-28.809,-18.555,-28.320,-35.645,-46.387
1692215670.445,-25.391,-19.531,-26.367,-19.043,-59.082
1692215670.449,-21.973,-23.438,-27.832,-4.395,-91.797
1692215670.452,-23.438,-21.973,-29.785,-8.789,78.125
1692215670.456,-30.273,-19.531,-31.250,-25.879,244.141
1692215670.460,-33.691,-15.625,-28.809,-41.504,-110.352
1692215670.464,-30.273,-17.578,-23.438,-31.738,-239.258
1692215670.468,-16.602,-19.531,-19.531,-10.254,-77.637
1692215670.452,-9.277,-13.184,-18.066,-8.301,-99.609
1692215670.456,-29.785,-13.672,-23.438,-24.414,-150.879
1692215670.460,-49.805,-20.996,-28.320,-37.109,-91.309
1692215670.464,-44.922,-21.484,-29.297,-25.879,32.715
1692215670.468,-32.715,-20.020,-27.832,-5.371,43.945
1692215670.472,-26.367,-18.555,-23.926,-11.230,56.641
1692215670.476,-34.180,-19.043,-25.879,-28.809,77.148
1692215670.479,-40.039,-23.438,-28.809,-29.297,130.371
1692215670.483,-23.438,-15.625,-36.133,-19.043,28.320
1692215670.487,9.766,-9.766,-31.738,16.113,-78.613
1692215670.491,8.301,-28.320,-8.301,21.484,-77.637
1692215670.495,-20.996,-37.109,-2.930,-14.648,238.281
1692215670.499,-25.391,-22.461,-15.137,-30.273,379.883
1692215670.503,-6.348,-20.996,-20.996,-11.230,-34.180
1692215670.507,3.906,-23.926,-18.066,9.766,-170.410
1692215670.511,2.441,-22.461,-16.602,12.207,-127.441
1692215670.515,-5.859,-23.438,-19.531,5.859,-164.062
1692215670.519,-19.043,-25.879,-22.949,-3.906,-176.758
1692215670.523,-9.277,-24.414,-20.020,3.418,78.125
1692215670.526,2.930,-21.973,-18.066,19.043,519.043
1692215670.530,-8.301,-25.391,-24.414,14.648,157.715
1692215670.534,-13.184,-21.973,-25.879,-4.883,-171.875
1692215670.538,-23.438,-19.043,-28.320,-22.949,-83.984
1692215670.542,-37.109,-24.902,-31.738,-25.391,-88.379
1692215670.542,-25.391,-20.508,-25.879,-1.465,-145.996
1692215670.546,-16.113,-19.531,-21.973,12.207,-149.414
1692215670.550,-24.414,-23.438,-23.438,-5.859,-86.426
1692215670.554,-25.391,-22.949,-26.855,-26.367,-70.312
1692215670.558,-25.879,-26.367,-24.902,-27.832,-111.816
1692215670.562,-33.691,-24.414,-20.996,-9.277,-46.387
1692215670.566,-31.738,-22.949,-21.484,6.348,341.309
1692215670.569,-25.391,-27.344,-21.973,-9.766,389.160
1692215670.573,-23.926,-23.926,-21.973,-36.621,-17.090
1692215670.577,-21.484,-19.531,-26.367,-39.062,-119.629
1692215670.581,-23.926,-22.461,-28.320,-25.879,110.352
1692215670.585,-13.672,-21.484,-27.832,-11.719,-14.160
1692215670.603,0.977,-17.090,-23.438,-8.789,-184.570
1692215670.607,-7.324,-16.113,-20.020,-20.020,-140.625
1692215670.611,-17.578,-15.625,-17.578,-18.066,-116.699
1692215670.615,-9.277,-19.043,-20.020,-4.883,-97.656
1692215670.619,-1.953,-19.531,-16.113,10.254,-112.793
1692215670.623,-4.883,-21.973,-16.113,3.906,-2.930
1692215670.627,-7.812,-19.531,-22.949,-10.742,75.684
1692215670.630,-9.277,-14.160,-25.391,-21.973,-91.309
1692215670.634,-11.719,-16.113,-25.391,-18.555,-155.273
1692215670.638,-14.160,-18.066,-23.438,-0.977,20.020
1692215670.642,-17.578,-19.043,-25.391,1.465,78.613
1692215670.646,-18.555,-19.043,-26.855,-25.391,-11.719
1692215670.647,-19.531,-19.043,-26.855,-38.086,-68.359
1692215670.651,-22.461,-16.602,-24.902,-18.555,39.062
1692215670.655,-19.043,-14.648,-25.391,-5.859,94.238
1692215670.659,-25.391,-18.555,-27.832,-8.301,-51.758
1692215670.663,-43.457,-22.949,-28.809,-23.926,-85.938
1692215670.667,-55.176,-23.438,-28.809,-42.480,104.980
1692215670.671,-47.852,-22.461,-30.762,-45.410,75.684
1692215670.674,-26.855,-22.461,-37.109,-33.691,-15.137
1692215670.678,-20.996,-20.996,-35.156,-31.738,-2.930
1692215670.682,-18.555,-23.438,-29.297,-36.621,252.930
1692215670.686,-31.738,-22.461,-33.203,-49.316,161.133
1692215670.690,-40.527,-23.926,-29.297,-44.434,-229.004
1692215670.694,-29.785,-29.297,-17.578,-23.926,-176.270
1692215670.698,-23.438,-21.484,-20.996,-22.949,-60.547
1692215670.702,-21.484,-16.113,-28.809,-27.832,-119.141
1692215670.706,-26.855,-17.090,-24.902,-28.320,-205.078
1692215670.710,-22.461,-16.113,-19.043,-15.625,-168.945
1692215670.714,-9.766,-20.020,-19.531,1.953,75.684
1692215670.718,6.348,-21.973,-23.438,14.160,123.047
1692215670.721,6.348,-21.973,-24.414,6.836,-74.219
1692215670.725,-2.930,-27.344,-23.926,-5.859,-25.879
1692215670.729,-17.090,-29.297,-27.344,-8.301,187.988
1692215670.733,-16.602,-20.508,-24.902,0.977,-68.848
1692215670.737,-9.277,-20.020,-21.484,9.766,-152.344
1692215670.737,-11.719,-20.996,-21.973,6.348,-31.738
1692215670.741,-16.602,-20.020,-21.973,-10.254,-102.051
1692215670.745,-22.461,-25.391,-22.949,-19.531,-174.805
1692215670.749,-24.902,-28.320,-25.879,-7.812,-67.383
1692215670.753,-20.020,-27.344,-25.879,1.953,139.648
1692215670.757,-17.578,-27.344,-23.926,-6.348,85.449
1692215670.761,-25.879,-23.926,-25.391,-20.508,-36.133
1692215670.764,-28.809,-19.043,-20.508,-21.973,-24.414
1692215670.768,-27.832,-21.973,-20.996,-16.113,306.641
1692215670.772,-22.949,-20.996,-24.414,-9.277,453.125
1692215670.776,-24.414,-18.066,-22.949,-16.602,-25.879
1692215670.780,-34.668,-24.902,-25.391,-32.227,-216.309
1692215670.784,-47.363,-31.250,-25.879,-41.504,-170.410
1692215670.788,-63.965,-28.320,-21.484,-30.762,-212.402
1692215670.792,-60.059,-27.832,-19.531,-10.254,-180.176
1692215670.796,-58.594,-33.691,-21.484,-11.230,-110.840
1692215670.800,-62.012,-37.109,-24.414,-31.250,-83.984
1692215670.804,-58.105,-35.645,-29.785,-36.621,-39.062
1692215670.808,-53.223,-32.715,-34.668,-14.648,57.617
1692215670.811,-34.180,-27.832,-28.809,4.395,161.133
1692215670.815,-24.414,-24.414,-23.926,1.953,411.621
1692215670.819,-20.996,-23.438,-25.391,-12.207,60.059
1692215670.823,-16.602,-20.508,-24.414,-15.625,-254.395
1692215670.827,-22.949,-23.438,-29.297,-10.742,-106.934
1692215670.827,-14.648,-25.879,-32.227,1.953,-67.871
1692215670.831,-5.371,-24.414,-25.879,1.465,-96.191
1692215670.835,-10.254,-20.996,-23.438,-18.066,-96.191
1692215670.839,-25.391,-17.578,-22.949,-30.273,-41.016
1692215670.843,-31.738,-20.996,-25.879,-23.438,-43.945
1692215670.847,-26.367,-19.043,-28.320,-5.371,11.230
1692215670.851,-18.555,-17.578,-23.926,-3.418,20.508
1692215670.854,-17.090,-18.066,-26.855,-18.066,272.949
1692215670.858,-29.785,-19.531,-28.809,-33.203,426.270
1692215670.862,-28.320,-25.391,-28.809,-31.738,-4.395
1692215670.866,-28.320,-25.879,-32.227,-13.672,-157.227
1692215670.870,-34.180,-20.508,-24.414,-4.883,2.930
1692215670.874,-36.621,-20.508,-15.625,-12.207,-76.660
1692215670.878,-37.598,-16.113,-23.438,-25.879,-193.848
1692215670.882,-20.020,-3.906,-32.227,-8.789,-142.090
1692215670.886,-3.906,-7.812,-21.973,21.973,-54.688
1692215670.890,-31.738,-33.203,-4.883,-6.348,-115.234
1692215670.894,-48.340,-33.203,-12.207,-41.016,-135.742
1692215670.898,-40.039,-20.020,-22.461,-42.480,15.137
1692215670.901,-33.203,-26.367,-20.020,-32.715,221.191
1692215670.905,-17.090,-27.344,-16.602,-20.020,0.977
1692215670.909,-11.230,-21.973,-19.043,-16.113,-96.191
1692215670.913,-9.766,-30.273,-23.926,-22.949,1.953
1692215670.917,-13.672,-34.668,-20.996,-32.715,-54.688
1692215670.917,-27.344,-32.227,-20.996,-44.922,-151.855
1692215670.921,-23.438,-30.273,-24.414,-29.297,-121.582
1692215670.925,-14.160,-30.273,-20.508,-4.883,103.027
1692215670.929,-18.555,-25.391,-17.578,-8.301,55.664
1692215670.933,-39.551,-26.855,-23.926,-30.273,-153.809
1692215670.937,-41.504,-24.902,-25.391,-30.762,-72.754
1692215670.941,-23.438,-25.391,-23.926,-5.859,374.512
1692215670.944,-15.137,-30.273,-23.438,5.371,364.258
1692215670.948,-21.484,-27.344,-20.020,0.488,-96.191
1692215670.952,-26.367,-27.344,-18.066,-15.137,-124.512
1692215670.956,-28.320,-26.367,-19.531,-24.414,15.625
1692215670.960,-22.949,-26.855,-24.902,-13.672,-120.117
1692215670.977,-20.996,-32.227,-25.391,0.000,-181.641
1692215670.981,-15.625,-33.203,-22.461,-2.441,-57.617
1692215670.985,-27.832,-33.203,-24.414,-17.578,20.508
1692215670.989,-48.828,-30.273,-25.391,-24.902,-23.926
1692215670.993,-46.387,-27.832,-23.438,-17.578,-153.809
1692215670.997,-29.297,-25.879,-23.926,-4.883,48.828
1692215671.001,-21.484,-25.391,-26.367,-7.812,353.027
1692215671.004,-26.367,-27.344,-22.949,-22.949,13.184
1692215671.008,-26.855,-25.879,-20.020,-29.785,-215.820
1692215671.012,-23.438,-23.438,-24.902,-21.973,-91.797
1692215671.016,-21.484,-22.949,-21.973,-12.695,-24.414
1692215671.020,-22.461,-24.902,-15.625,-14.160,-104.980
1692215671.022,-28.809,-26.855,-22.461,-25.391,-112.793
1692215671.026,-33.203,-27.832,-21.973,-34.668,-83.496
1692215671.030,-32.227,-26.855,-18.066,-31.738,-101.562
1692215671.034,-25.879,-22.949,-20.508,-18.555,-106.445
1692215671.038,-23.438,-19.531,-23.926,-10.742,-20.508
1692215671.042,-29.785,-19.531,-26.367,-23.926,341.797
1692215671.046,-37.109,-19.531,-23.926,-46.875,307.129
1692215671.049,-27.344,-17.090,-23.926,-47.363,-45.410
1692215671.053,-17.090,-17.578,-27.832,-34.180,-53.711
1692215671.057,-10.254,-23.438,-30.273,-26.367,228.516
1692215671.061,-6.836,-22.461,-33.691,-37.109,153.809
1692215671.065,-13.184,-20.508,-33.691,-49.805,-170.410
1692215671.069,-23.438,-18.066,-29.297,-42.480,-139.160
1692215671.073,-21.484,-18.066,-30.273,-19.043,-78.613
1692215671.077,-24.414,-23.438,-32.715,-11.230,-102.539
1692215671.081,-43.945,-26.855,-34.180,-21.973,-132.812
1692215671.085,-50.781,-27.344,-34.668,-31.250,-132.324
1692215671.089,-52.246,-27.832,-29.297,-35.645,-66.406
1692215671.093,-49.316,-30.762,-19.531,-22.461,44.922
1692215671.096,-40.527,-33.203,-19.531,-10.254,44.434
1692215671.100,-31.250,-30.762,-19.531,-17.090,81.055
1692215671.104,-35.156,-25.391,-21.484,-28.320,320.312
1692215671.108,-37.109,-21.973,-23.438,-34.180,43.457
1692215671.112,-24.902,-23.926,-20.020,-21.484,-189.941
1692215671.112,-19.043,-25.879,-23.926,1.465,-40.039
1692215671.116,-15.137,-25.391,-21.484,-3.418,-83.496
1692215671.120,-15.625,-20.508,-16.602,-19.531,-165.527
1692215671.124,-22.461,-18.066,-18.555,-20.996,-152.832
1692215671.128,-29.785,-18.555,-16.602,-15.137,-1.953
1692215671.132,-25.391,-20.996,-16.113,-3.418,101.562
1692215671.136,-21.484,-24.902,-17.578,-2.930,67.871
1692215671.139,-27.832,-20.508,-17.578,-17.578,92.773
1692215671.143,-30.273,-19.531,-17.578,-25.879,308.105
1692215671.147,-25.391,-20.020,-19.043,-22.949,504.883
1692215671.151,-20.020,-21.973,-23.438,-12.695,101.074
1692215671.155,-28.809,-26.367,-25.879,-9.766,-171.387
1692215671.159,-41.992,-29.785,-28.320,-25.879,-119.629
1692215671.163,-39.551,-32.227,-30.273,-34.180,-209.473
1692215671.167,-35.156,-34.668,-32.227,-19.043,-258.789
1692215671.171,-28.320,-32.715,-31.250,-3.418,-188.477
1692215671.175,-18.066,-32.715,-28.809,-7.812,-132.324
1692215671.179,-30.273,-35.156,-28.809,-24.414,-54.199
1692215671.183,-48.828,-35.645,-30.273,-36.621,-80.566
1692215671.186,-49.805,-35.645,-27.344,-28.809,0.000
1692215671.190,-34.180,-31.250,-24.414,-6.348,238.281
1692215671.194,-21.973,-24.414,-28.809,2.930,41.016
1692215671.198,-20.020,-22.949,-26.855,-9.766,-124.023
1692215671.202,-28.320,-20.996,-24.902,-28.809,-82.031
1692215671.217,-29.297,-15.625,-25.879,-26.855,-96.191
1692215671.221,-23.926,-20.996,-26.855,-12.695,-98.145
1692215671.225,-29.785,-28.809,-29.785,-10.742,-38.086
1692215671.229,-31.250,-25.391,-29.297,-22.949,111.328
1692215671.233,-35.645,-22.461,-29.785,-41.016,22.949
1692215671.237,-42.969,-27.344,-29.297,-41.504,-84.473
1692215671.241,-38.086,-23.926,-23.926,-26.367,18.066
1692215671.244,-20.020,-16.602,-20.020,-17.090,384.277
1692215671.248,-10.742,-16.602,-24.902,-28.320,384.277
1692215671.252,-19.531,-18.066,-28.809,-46.387,-116.699
1692215671.256,-28.809,-18.066,-27.832,-45.898,-202.637
1692215671.260,-38.574,-22.461,-25.879,-33.691,-107.910
1692215671.265,-44.434,-20.996,-22.461,-29.785,-158.203
1692215671.269,-43.945,-15.625,-22.949,-42.480,-183.105
1692215671.273,-41.992,-15.625,-25.391,-58.594,-77.148
1692215671.277,-41.504,-19.043,-21.973,-60.547,-10.742
1692215671.281,-44.922,-19.043,-14.160,-45.898,-99.609
1692215671.285,-34.180,-13.672,-17.090,-26.367,-14.648
1692215671.289,-28.320,-16.113,-22.461,-25.879,85.449
1692215671.292,-31.738,-16.602,-22.461,-42.480,5.859
1692215671.296,-29.297,-17.090,-22.949,-43.457,-151.367
1692215671.300,-20.508,-19.531,-20.996,-20.996,-210.449
1692215671.304,-6.836,-16.602,-18.555,1.465,25.391
1692215671.308,-2.930,-17.090,-20.020,1.953,206.543
1692215671.292,-10.742,-18.066,-23.926,-16.113,-95.703
1692215671.296,-15.137,-17.090,-24.902,-30.762,-174.316
1692215671.300,-13.672,-19.531,-23.926,-23.926,-43.945
1692215671.304,-16.602,-24.414,-25.879,-15.137,-27.344
1692215671.308,-18.555,-26.367,-25.391,-20.996,-66.406
1692215671.312,-20.508,-31.738,-21.484,-31.250,34.668
1692215671.316,-28.320,-32.715,-22.949,-38.086,188.965
1692215671.319,-33.203,-21.484,-28.809,-35.156,73.242
1692215671.323,-22.461,-17.578,-31.250,-28.809,-2.930
1692215671.327,-19.043,-15.137,-29.785,-26.367,-50.293
1692215671.331,-38.574,-12.207,-25.391,-34.180,249.512
1692215671.335,-44.922,-9.766,-26.367,-40.039,421.875
1692215671.352,-33.691,-7.812,-29.297,-30.762,-25.391
1692215671.356,-21.973,-13.184,-27.344,-18.066,-144.531
1692215671.360,-23.438,-15.137,-26.367,-19.531,-10.742
1692215671.364,-30.762,-18.066,-24.902,-29.297,-144.043
1692215671.368,-60.547,-29.297,-24.414,-42.969,-279.785
1692215671.372,-77.148,-32.715,-28.320,-37.598,-110.840
1692215671.376,-60.547,-28.320,-26.367,-17.578,106.445
1692215671.379,-47.363,-27.832,-30.273,-23.926,-31.738
1692215671.383,-51.270,-27.344,-33.691,-38.574,-137.207
1692215671.387,-56.152,-28.320,-29.297,-43.457,-33.691
1692215671.391,-57.129,-22.949,-29.297,-38.086,43.457
1692215671.395,-40.527,-14.648,-29.785,-17.578,-166.016
1692215671.397,-27.344,-17.090,-30.762,-11.719,-177.246
1692215671.401,-29.297,-22.461,-31.738,-20.020,-47.852
1692215671.405,-27.832,-16.602,-26.367,-26.367,-80.566
1692215671.409,-21.484,-12.207,-20.996,-16.602,-151.855
1692215671.413,-8.789,-18.555,-23.438,0.000,-63.965
1692215671.417,-0.488,-20.508,-27.344,-0.977,200.684
1692215671.421,-7.324,-20.996,-31.250,-16.602,191.895
1692215671.424,-13.184,-17.578,-27.344,-27.344,-29.297
1692215671.428,-16.602,-20.996,-23.438,-27.344,-134.277
1692215671.432,-12.695,-25.391,-21.973,0.000,260.254
1692215671.436,-0.977,-22.461,-20.508,22.949,424.805
1692215671.440,-4.883,-27.832,-21.484,11.230,-51.270
1692215671.444,-18.066,-22.461,-18.066,0.488,-199.219
1692215671.448,-16.113,-14.160,-16.113,5.371,-143.555
1692215671.452,-17.090,-20.996,-22.461,3.906,-121.094
1692215671.456,-12.695,-22.949,-26.367,5.371,-82.520
1692215671.460,-3.906,-19.531,-23.926,7.812,-40.039
1692215671.464,-20.020,-21.973,-28.809,-20.020,62.012
1692215671.468,-29.297,-26.367,-32.715,-34.668,78.613
1692215671.471,-32.227,-30.762,-30.762,-28.809,-95.703
1692215671.475,-38.086,-32.227,-29.297,-16.113,-18.555
1692215671.479,-40.039,-29.785,-24.902,-12.207,247.070
1692215671.483,-51.758,-28.809,-24.902,-29.785,-17.578
1692215671.487,-54.199,-26.367,-27.832,-38.574,-198.730
1692215671.487,-47.852,-22.461,-23.438,-26.855,27.832
1692215671.491,-44.434,-22.949,-19.531,-20.020,9.277
1692215671.495,-41.992,-25.879,-25.391,-30.273,-151.855
1692215671.499,-29.785,-21.973,-24.902,-35.645,-103.027
1692215671.503,-33.691,-22.461,-21.973,-42.480,-13.184
1692215671.507,-41.504,-27.832,-28.809,-41.992,17.090
1692215671.511,-28.809,-27.344,-29.785,-23.926,79.102
1692215671.514,-19.043,-27.344,-23.926,-23.438,72.754
1692215671.518,-25.879,-28.320,-22.461,-28.809,285.156
1692215671.522,-39.062,-26.855,-27.832,-33.691,350.098
1692215671.526,-38.086,-23.438,-33.203,-34.180,-46.875
1692215671.530,-37.109,-23.438,-31.738,-24.902,-212.402
1692215671.535,-28.809,-20.996,-30.762,-20.996,-173.340
1692215671.539,-23.926,-22.949,-32.227,-27.832,-192.871
1692215671.543,-32.715,-27.832,-30.762,-41.016,-152.344
1692215671.547,-21.484,-18.555,-32.715,-31.250,-84.473
1692215671.551,7.812,-16.602,-34.180,5.859,-32.227
1692215671.555,3.906,-35.645,-19.043,6.348,23.438
1692215671.559,-12.695,-32.227,-17.578,-21.484,-73.242
1692215671.562,-37.109,-25.879,-21.973,-45.898,-45.898
1692215671.566,-50.293,-28.809,-12.207,-44.434,253.418
1692215671.570,-43.945,-23.438,-7.324,-36.133,37.109
1692215671.574,-40.527,-24.414,-7.324,-22.461,-123.535
1692215671.578,-40.527,-28.320,-4.395,-27.832,-9.766
1692215671.577,-51.270,-31.738,-2.441,-50.781,-74.219
1692215671.581,-66.406,-36.133,-4.883,-54.199,-161.133
1692215671.585,-61.035,-35.156,-5.859,-51.270,-122.070
1692215671.589,-54.688,-33.691,-10.254,-43.945,-16.113
1692215671.593,-64.941,-32.227,-16.602,-45.898,-66.406
1692215671.597,-72.754,-29.297,-17.578,-59.570,-81.055
1692215671.601,-79.590,-26.855,-18.066,-60.547,20.996
1692215671.604,-68.359,-28.320,-16.602,-43.945,505.859
1692215671.608,-53.711,-32.715,-14.160,-31.738,665.527
1692215671.612,-43.945,-28.320,-14.648,-28.809,105.469
1692215671.616,-37.598,-23.438,-18.555,-35.645,-108.398
1692215671.620,-34.180,-29.785,-19.043,-44.434,-130.859
1692215671.638,-31.250,-32.227,-19.531,-34.668,-215.332
1692215671.642,-21.484,-26.367,-21.484,-17.090,-139.648
1692215671.646,-21.973,-21.484,-25.391,-17.090,-47.852
1692215671.650,-37.598,-21.973,-25.391,-30.762,-67.383
1692215671.654,-45.410,-22.461,-21.484,-34.180,-106.934
1692215671.658,-46.875,-21.973,-26.367,-27.344,-51.270
1692215671.662,-35.645,-19.531,-30.762,-12.695,109.863
1692215671.665,-21.484,-19.531,-30.762,-3.418,396.973
1692215671.669,-25.879,-19.043,-30.273,-21.973,89.355
1692215671.673,-34.180,-16.113,-30.273,-32.227,-241.211
1692215671.677,-21.484,-20.020,-32.715,-15.625,-83.496
1692215671.681,-12.207,-22.949,-31.738,-5.371,-83.496
1692215671.682,-19.043,-27.344,-28.320,-11.230,-186.523
1692215671.686,-31.738,-32.715,-29.297,-22.461,-173.828
1692215671.690,-31.250,-26.855,-29.785,-26.367,-71.777
1692215671.694,-27.344,-24.414,-26.855,-19.043,-92.285
1692215671.698,-27.832,-30.273,-26.855,-7.812,-139.160
1692215671.702,-26.855,-28.809,-27.832,-6.836,-17.090
1692215671.706,-27.832,-23.438,-33.203,-25.391,229.492
1692215671.709,-23.926,-20.508,-36.133,-39.551,152.832
1692215671.713,-20.508,-21.484,-30.273,-37.598,-103.027
1692215671.717,-15.137,-20.996,-25.879,-23.438,-143.066
1692215671.721,-24.414,-20.996,-24.902,-5.859,364.746
1692215671.725,-36.621,-20.508,-23.438,-15.625,470.215
1692215671.728,-41.504,-22.461,-22.949,-42.480,-84.473
1692215671.732,-42.480,-24.414,-26.367,-41.992,-234.863
1692215671.736,-37.109,-22.949,-30.273,-24.414,-176.270
1692215671.740,-30.273,-20.020,-28.809,-11.719,-192.383
1692215671.744,-30.762,-20.020,-25.391,-23.926,-215.332
1692215671.748,-37.598,-20.996,-28.320,-41.992,-73.730
1692215671.752,-41.504,-22.461,-32.227,-38.574,62.500
1692215671.755,-29.297,-24.902,-30.273,-31.250,-38.574
1692215671.759,-25.391,-24.902,-25.391,-29.297,-121.094
1692215671.763,-28.320,-22.949,-22.949,-28.320,70.312
1692215671.767,-24.902,-24.414,-24.414,-38.574,219.727
1692215671.771,-26.367,-24.414,-19.531,-41.992,-132.812
1692215671.772,-22.461,-24.414,-20.020,-24.414,-152.832
1692215671.776,-19.043,-27.832,-19.531,-14.648,87.891
1692215671.780,-23.438,-30.273,-19.043,-22.461,-14.160
1692215671.784,-36.133,-23.926,-18.066,-34.180,-153.809
1692215671.788,-50.781,-22.949,-18.066,-29.785,-67.871
1692215671.792,-51.270,-29.785,-24.414,-19.043,61.523
1692215671.796,-39.551,-27.344,-25.879,-16.113,58.594
1692215671.799,-33.203,-22.949,-28.320,-16.113,-27.344
1692215671.803,-35.156,-24.902,-29.785,-26.367,-86.426
1692215671.807,-39.062,-28.809,-22.949,-29.785,185.059
1692215671.811,-33.691,-24.414,-24.902,-19.531,280.762
1692215671.815,-2.441,-10.742,-37.109,2.441,-60.547
1692215671.819,-3.906,-24.902,-31.250,-1.465,-134.766
1692215671.823,-41.016,-41.992,-16.602,-37.598,-91.309
1692215671.827,-56.152,-42.480,-20.508,-44.434,-89.355
1692215671.831,-53.223,-39.551,-28.809,-28.809,23.926
1692215671.835,-41.992,-37.598,-19.531,-16.113,44.434
1692215671.839,-31.738,-35.645,-13.672,-9.766,86.914
1692215671.843,-30.762,-34.180,-22.461,-22.949,-23.438
1692215671.846,-37.109,-35.645,-23.926,-38.086,-212.402
1692215671.850,-34.180,-31.250,-19.531,-32.715,-51.270
1692215671.854,-18.066,-27.832,-21.973,-10.742,214.844
1692215671.858,-14.648,-27.832,-20.996,-8.789,-37.109
1692215671.862,-23.926,-26.367,-24.902,-25.879,-158.691
1692215671.877,-36.621,-25.879,-32.715,-32.227,-48.340
1692215671.881,-41.504,-22.949,-24.902,-20.996,-82.520
1692215671.885,-34.668,-22.461,-17.578,-1.953,-100.098
1692215671.889,-22.461,-22.461,-20.996,5.371,-99.609
1692215671.893,-25.879,-24.414,-23.438,-6.348,-34.180
1692215671.897,-32.715,-26.367,-26.855,-18.066,48.340
1692215671.901,-20.508,-25.391,-30.762,-20.020,61.035
1692215671.904,-4.883,-27.344,-34.180,-15.137,89.844
1692215671.908,-9.766,-31.738,-33.203,-6.348,380.371
1692215671.912,-15.625,-26.367,-29.297,-17.578,500.488
1692215671.916,-20.508,-24.414,-23.926,-34.180,29.785
1692215671.920,-24.414,-24.414,-27.344,-24.414,-238.770
1692215671.909,-22.461,-20.020,-32.715,-15.625,-173.828
1692215671.913,-28.320,-21.973,-30.273,-15.137,-155.762
1692215671.917,-21.484,-22.949,-28.809,-21.484,-172.363
1692215671.921,-25.879,-26.367,-29.785,-34.180,-147.461
1692215671.925,-39.062,-33.203,-28.809,-32.715,-87.402
1692215671.929,-25.879,-25.391,-26.367,-20.508,-19.531
1692215671.933,-15.625,-25.879,-26.855,-19.531,-44.434
1692215671.936,-14.648,-30.762,-30.273,-24.414,36.621
1692215671.940,-21.973,-29.785,-29.785,-31.250,52.734
1692215671.944,-34.180,-32.715,-27.832,-34.668,-149.902
1692215671.948,-33.203,-30.273,-26.855,-29.785,-214.355
1692215671.952,-28.809,-26.855,-24.902,-8.789,-1.953
1692215671.952,-30.762,-29.785,-23.926,-15.137,324.707
1692215671.956,-38.086,-26.367,-25.391,-36.133,8.789
1692215671.960,-43.457,-23.926,-29.785,-31.250,-235.352
1692215671.964,-35.156,-24.414,-25.879,-17.090,-98.633
1692215671.968,-17.090,-21.484,-23.438,-1.953,-45.410
1692215671.972,-8.789,-18.555,-24.414,-6.836,14.160
1692215671.976,-9.277,-17.090,-23.438,-23.926,64.941
1692215671.979,-10.254,-18.066,-21.484,-20.020,363.281
1692215671.983,-15.137,-21.484,-23.926,-9.277,398.438
1692215671.987,-11.230,-17.578,-22.461,3.906,-33.691
1692215671.991,-14.160,-17.090,-23.926,0.000,-32.227
1692215671.995,-30.762,-22.461,-29.785,-19.531,17.090
1692215671.999,-46.387,-25.879,-29.785,-30.273,-194.336
1692215672.003,-44.922,-25.879,-25.879,-15.625,-229.492
1692215672.007,-29.297,-23.438,-23.438,2.930,-162.109
1692215672.011,-28.320,-22.461,-20.996,3.906,-118.652
1692215672.015,-28.809,-19.043,-15.625,-3.906,-126.953
1692215672.019,-40.039,-20.508,-18.066,-28.809,-85.938
1692215672.023,-39.062,-25.879,-22.461,-29.785,101.074
1692215672.026,-2.930,-38.574,-19.043,17.578,258.789
1692215672.030,19.043,-29.785,-20.996,35.156,-24.902
1692215672.034,-9.277,-5.371,-28.809,-13.184,-198.242
1692215672.038,-51.270,-5.371,-26.367,-61.523,-128.418
1692215672.042,-55.176,-11.230,-29.297,-65.918,-179.199
1692215672.043,-43.457,-14.160,-32.715,-50.293,-136.719
1692215672.047,-48.828,-11.719,-30.762,-46.875,-11.230
1692215672.051,-51.270,-3.418,-32.227,-53.711,108.887
1692215672.055,-53.223,0.488,-34.180,-69.824,8.301
1692215672.059,-65.430,-3.418,-30.762,-70.312,-153.809
1692215672.063,-62.012,-9.277,-29.297,-59.570,-29.297
1692215672.067,-52.246,-17.578,-34.180,-49.805,285.645
1692215672.070,-50.293,-19.531,-34.180,-50.293,312.012
1692215672.074,-60.059,-10.742,-30.762,-62.988,-55.664
1692215672.078,-64.941,-12.207,-34.668,-57.129,-170.410
1692215672.082,-50.293,-24.414,-35.156,-43.945,83.496
1692215672.086,-37.598,-24.902,-28.809,-39.062,-31.250
1692215672.102,-35.156,-19.043,-28.809,-41.504,-148.438
1692215672.106,-41.016,-23.438,-29.785,-53.223,-96.191
1692215672.110,-45.898,-23.926,-28.809,-49.805,-108.887
1692215672.114,-40.527,-23.438,-30.762,-25.879,-28.809
1692215672.118,-35.645,-23.438,-32.715,-17.090,-89.355
1692215672.122,-38.574,-21.973,-32.715,-29.785,73.730
1692215672.126,-43.457,-22.949,-26.367,-39.551,451.172
1692215672.129,-39.062,-22.461,-19.531,-46.387,71.289
1692215672.133,-26.855,-21.973,-21.484,-46.387,-171.875
1692215672.137,-19.043,-25.879,-27.832,-31.250,25.391
1692215672.141,-14.160,-20.996,-24.902,-25.879,37.109
1692215672.145,-16.113,-17.090,-16.602,-32.227,-133.789
1692215672.147,-20.996,-20.996,-15.137,-28.809,-162.598
1692215672.151,-21.484,-23.438,-21.973,-14.160,-43.457
1692215672.155,-19.043,-22.949,-21.484,-0.977,-64.453
1692215672.159,-16.602,-21.484,-19.043,-2.930,-135.742
1692215672.163,-20.020,-23.438,-16.113,-12.695,-81.543
1692215672.167,-29.785,-21.484,-17.090,-10.742,151.855
1692215672.171,-31.738,-19.043,-19.043,-5.371,110.840
1692215672.174,-20.996,-22.949,-20.508,-2.441,70.312
1692215672.178,-3.418,-20.020,-19.043,-7.324,109.863
1692215672.182,-6.836,-16.602,-18.066,-20.996,317.383
1692215672.186,-24.414,-19.531,-20.020,-29.297,305.176
1692215672.190,-16.602,-20.020,-20.996,-26.367,-106.445
1692215672.194,-12.695,-17.578,-23.926,-14.160,-168.945
1692215672.198,-21.973,-15.137,-22.461,-7.812,-135.254
1692215672.202,-28.809,-15.625,-15.137,-18.066,-184.570
1692215672.206,-44.434,-19.043,-17.578,-35.156,-232.910
1692215672.210,-42.969,-24.902,-22.949,-24.902,-148.926
1692215672.214,-29.297,-27.832,-21.484,-7.812,81.055
1692215672.218,-29.297,-27.832,-21.484,-14.160,123.047
1692215672.221,-30.273,-23.438,-22.949,-25.879,-77.148
1692215672.225,-28.320,-19.043,-25.391,-31.250,-22.461
1692215672.229,-30.762,-18.066,-25.391,-28.320,238.281
1692215672.233,-22.461,-14.160,-26.855,-27.344,-14.648
1692215672.237,-10.254,-16.602,-30.273,-25.879,-213.867
1692215672.237,-17.090,-20.996,-28.320,-36.133,-89.355
1692215672.241,-31.250,-18.555,-28.809,-38.574,-95.215
1692215672.245,-34.668,-15.625,-26.855,-21.484,-175.781
1692215672.249,-27.832,-19.531,-22.949,-9.277,-156.250
1692215672.253,-20.996,-27.344,-21.973,-2.441,9.766
1692215672.257,-27.832,-30.762,-24.414,-22.461,80.566
1692215672.261,-37.598,-22.461,-20.020,-40.039,51.270
1692215672.264,-35.645,-20.996,-19.531,-36.621,18.066
1692215672.268,-25.391,-26.367,-21.973,-21.973,249.023
1692215672.272,-14.160,-23.926,-19.043,-5.859,390.137
1692215672.276,-15.625,-22.461,-20.020,-21.973,23.926
1692215672.280,-24.902,-28.320,-24.902,-44.922,-78.125
1692215672.284,-25.879,-27.832,-27.832,-37.109,40.527
1692215672.288,-13.184,-24.414,-26.855,-16.602,-71.777
1692215672.292,-11.230,-20.996,-22.461,-11.230,-170.898
1692215672.296,-22.461,-23.438,-19.531,-13.184,-138.672
1692215672.300,-35.645,-22.949,-20.508,-18.066,-107.910
1692215672.304,-38.574,-23.438,-21.484,-19.531,-28.320
1692215672.308,-29.785,-24.902,-21.973,-8.301,-20.020
1692215672.311,-23.438,-24.902,-17.090,2.441,39.062
1692215672.315,-19.531,-25.879,-14.160,-1.953,241.211
1692215672.319,-23.926,-30.273,-20.020,-23.926,-54.199
1692215672.323,-31.250,-30.273,-21.484,-38.086,-199.707
1692215672.327,-25.879,-27.832,-24.902,-21.973,-81.543
1692215672.328,-21.484,-25.879,-23.438,-3.906,-83.496
1692215672.332,-28.809,-24.902,-21.484,-7.324,-14.648
1692215672.336,-39.062,-27.832,-27.344,-24.414,-52.734
1692215672.340,-38.086,-24.414,-27.344,-27.344,-1.953
1692215672.344,-30.762,-23.438,-25.879,-22.949,9.766
1692215672.348,-21.973,-23.926,-27.344,-21.484,-13.672
1692215672.352,-15.625,-20.996,-25.391,-25.391,71.777
1692215672.355,-31.738,-23.438,-26.367,-36.133,389.160
1692215672.359,-49.316,-23.438,-27.344,-43.457,321.777
1692215672.363,-55.664,-26.367,-25.879,-38.574,-106.445
1692215672.367,-42.480,-24.902,-22.461,-16.602,-89.844
1692215672.371,-29.297,-24.414,-21.973,-6.348,125.488
1692215672.374,-35.156,-25.391,-23.438,-25.391,-82.520
1692215672.378,-38.574,-22.949,-20.996,-33.203,-231.934
1692215672.382,-27.832,-23.926,-25.879,-22.949,-131.348
1692215672.386,-20.996,-22.461,-23.438,-12.207,-36.621
1692215672.390,-25.391,-24.414,-24.414,-12.207,18.066
1692215672.394,-27.832,-25.391,-30.762,-21.973,9.766
1692215672.398,-39.062,-21.973,-30.762,-30.762,30.273
1692215672.401,-41.016,-16.602,-35.156,-21.973,332.031
1692215672.405,-20.508,-17.090,-37.109,-8.301,181.152
1692215672.409,-12.695,-30.273,-30.762,-4.883,-87.891
1692215672.413,-29.297,-39.062,-22.461,-14.648,-28.809
1692215672.417,-44.434,-38.086,-15.137,-33.691,-58.594
1692215672.417,-42.480,-32.715,-21.484,-25.879,-145.508
1692215672.421,-39.551,-28.320,-18.555,-15.625,-113.770
1692215672.425,-40.039,-30.273,-17.578,-13.184,20.508
1692215672.429,-30.273,-27.832,-23.438,-13.184,-23.438
1692215672.433,-31.250,-29.297,-27.832,-31.250,-127.930
1692215672.437,-48.828,-34.180,-25.391,-39.551,-69.824
1692215672.441,-49.805,-34.668,-18.555,-27.832,371.582
1692215672.444,-35.156,-30.762,-20.020,-16.602,360.840
1692215672.448,-20.996,-28.320,-22.461,-22.949,-61.523
1692215672.452,-30.762,-27.344,-21.484,-44.922,7.812
1692215672.456,-34.180,-23.438,-18.066,-41.992,40.039
1692215672.460,-29.785,-17.578,-12.207,-16.113,-102.539
1692215672.478,-30.762,-17.578,-15.137,-10.254,-166.504
1692215672.482,-20.996,-18.066,-18.066,-16.113,-88.867
1692215672.486,-32.227,-20.996,-17.578,-24.902,174.316
1692215672.490,-37.598,-25.879,-19.531,-23.438,5.371
1692215672.494,-26.855,-20.020,-18.066,-10.742,-166.016
1692215672.498,-18.555,-19.043,-19.531,-8.301,100.586
1692215672.502,-13.184,-23.438,-23.438,-10.742,242.676
1692215672.505,-16.113,-24.414,-24.902,-24.414,-82.031
1692215672.509,-28.809,-20.996,-29.297,-41.504,-187.500
1692215672.513,-34.180,-17.578,-32.715,-33.203,75.684
1692215672.517,-27.832,-19.043,-33.203,-10.742,195.801
1692215672.521,-30.273,-23.926,-32.715,-19.531,-39.551
1692215672.522,-33.203,-24.902,-31.738,-40.039,-180.176
1692215672.526,-40.527,-19.531,-33.691,-36.621,-172.363
1692215672.530,-49.316,-18.555,-35.156,-22.949,-154.297
1692215672.534,-31.250,-17.578,-30.273,-10.742,-153.809
1692215672.538,-20.508,-21.973,-24.414,-11.230,-71.777
1692215672.542,-24.902,-23.438,-21.484,-32.227,69.336
1692215672.546,-32.715,-23.926,-27.344,-45.898,-0.977
1692215672.549,-37.598,-28.809,-33.691,-37.109,-78.125
1692215672.553,-28.320,-29.297,-28.320,-20.996,-23.926
1692215672.557,-22.461,-26.367,-28.320,-18.066,252.930
1692215672.561,-25.879,-25.879,-28.320,-33.691,242.188
1692215672.565,-30.273,-26.367,-27.344,-42.969,-85.938
1692215672.583,-27.344,-22.949,-24.414,-38.574,-104.980
1692215672.587,-14.648,-21.973,-25.879,-27.344,-39.551
1692215672.591,-9.766,-21.973,-28.809,-27.344,-133.789
1692215672.595,-13.672,-21.973,-24.902,-38.574,-261.230
1692215672.599,-20.020,-21.973,-20.996,-35.645,-161.133
1692215672.603,-37.109,-22.461,-17.090,-23.926,18.066
1692215672.607,-29.297,-23.438,-16.602,-3.906,-50.781
1692215672.610,-15.625,-23.926,-16.113,4.883,-134.766
1692215672.614,-16.113,-23.926,-16.602,-7.812,-23.926
1692215672.618,-20.508,-24.902,-22.949,-18.066,205.566
1692215672.622,-32.715,-24.414,-23.438,-20.508,-50.293
1692215672.626,-33.203,-26.855,-20.020,-9.277,-204.590
1692215672.613,-24.902,-27.344,-18.066,1.953,-80.566
1692215672.617,-21.973,-25.391,-20.996,-16.602,-50.293
1692215672.621,-18.555,-22.949,-21.973,-28.809,-78.613
1692215672.625,-16.602,-20.996,-19.531,-21.973,-113.770
1692215672.629,-17.090,-18.066,-18.555,-7.812,79.590
1692215672.633,-15.137,-12.695,-20.508,0.000,80.566
1692215672.637,-20.020,-12.207,-20.996,-10.254,-30.273
1692215672.640,-32.715,-15.625,-21.973,-34.668,70.312
1692215672.644,-35.156,-14.160,-24.414,-41.992,127.441
1692215672.648,-32.715,-18.066,-26.367,-32.227,-43.457
1692215672.652,-21.484,-20.020,-25.391,-15.137,-84.961
1692215672.656,-17.090,-15.137,-20.508,-18.555,-44.922
1692215672.659,-29.785,-17.090,-21.484,-41.992,257.324
1692215672.663,-33.691,-20.020,-18.066,-38.086,262.207
1692215672.667,-20.996,-20.996,-19.043,-24.414,-146.973
1692215672.671,-14.648,-19.043,-19.531,-12.695,-70.312
1692215672.675,-20.020,-20.020,-18.555,-10.254,63.965
1692215672.679,-24.902,-28.320,-21.484,-20.996,-11.230
1692215672.683,-33.203,-29.785,-23.926,-33.691,-63.965
1692215672.686,-36.621,-29.297,-22.461,-29.785,8.301
1692215672.690,-30.273,-24.902,-20.508,-15.137,326.660
1692215672.694,-29.297,-24.902,-18.555,-14.160,110.352
1692215672.698,-33.691,-28.320,-18.066,-23.438,-210.938
1692215672.702,-44.434,-30.762,-22.949,-26.367,-138.672
1692215672.717,-41.504,-28.809,-20.996,-14.648,-118.164
1692215672.721,-29.297,-22.461,-17.578,-1.953,-120.117
1692215672.725,-29.785,-20.508,-19.043,-7.324,-98.633
1692215672.729,-31.250,-21.484,-21.484,-20.996,-83.984
1692215672.733,-36.621,-22.949,-19.531,-32.715,-95.215
1692215672.737,-35.645,-28.809,-22.949,-31.738,-23.926
1692215672.741,-15.625,-26.367,-24.902,-14.648,-3.418
1692215672.744,-15.137,-24.414,-23.926,-10.254,340.820
1692215672.748,-38.574,-27.344,-25.391,-33.691,526.855
1692215672.752,-41.016,-23.926,-25.391,-55.664,20.020
1692215672.756,-41.504,-23.438,-25.879,-54.199,-179.688
1692215672.760,-37.109,-23.438,-23.926,-33.691,-65.430
1692215672.749,-19.043,-18.066,-24.414,-17.090,-124.023
1692215672.753,-22.949,-14.648,-28.320,-23.438,-199.219
1692215672.757,-41.504,-14.648,-25.391,-37.109,-205.566
1692215672.761,-43.945,-15.625,-25.879,-37.109,-166.504
1692215672.765,-42.969,-18.555,-28.320,-20.996,-172.852
1692215672.769,-36.133,-15.137,-22.461,-7.812,-48.828
1692215672.773,-26.855,-11.719,-21.973,-9.766,107.422
1692215672.776,-29.297,-10.742,-23.926,-31.250,29.785
1692215672.780,-20.508,-7.812,-30.273,-20.996,-55.176
1692215672.784,20.996,-2.930,-36.133,18.555,-0.488
1692215672.788,18.066,-16.602,-19.043,11.230,116.211
1692215672.792,-41.016,-32.715,-10.742,-41.992,324.707
1692215672.792,-76.172,-28.320,-23.926,-79.102,13.184
1692215672.796,-89.844,-30.273,-25.391,-91.309,-230.957
1692215672.800,-104.004,-32.227,-20.996,-99.121,-85.449
1692215672.804,-98.633,-29.297,-19.043,-93.750,-64.453
1692215672.808,-104.492,-25.391,-14.648,-105.469,-116.699
1692215672.812,-127.930,-24.414,-12.207,-134.277,-50.293
1692215672.816,-144.531,-24.902,-19.043,-146.484,143.066
1692215672.819,-154.297,-24.902,-18.555,-147.949,206.543
1692215672.823,-153.809,-25.879,-11.719,-147.949,-52.246
1692215672.827,-153.320,-20.508,-4.883,-151.855,-145.508
1692215672.831,-161.621,-20.996,0.488,-163.574,122.070
1692215672.835,-168.457,-24.902,0.000,-176.758,86.426
1692215672.852,-155.273,-25.879,1.953,-164.551,-140.137
1692215672.856,-136.719,-24.414,1.953,-144.043,-130.371
1692215672.860,-126.953,-26.855,2.930,-145.996,-25.879
1692215672.864,-119.141,-27.832,3.906,-147.461,-134.277
1692215672.868,-123.535,-25.879,-1.953,-145.508,-244.141
1692215672.872,-125.000,-27.344,-1.953,-119.629,-60.059
1692215672.876,-113.770,-31.738,-0.977,-88.867,228.027
1692215672.879,-104.004,-31.738,-1.465,-83.496,-0.488
1692215672.883,-96.680,-24.902,-0.488,-92.773,-138.672
1692215672.887,-90.332,-27.832,-8.789,-94.238,32.227
1692215672.891,-83.984,-33.691,-16.113,-72.266,23.438
1692215672.895,-60.547,-30.762,-16.113,-50.293,-100.586
1692215672.898,-48.340,-29.785,-15.137,-44.922,-99.121
1692215672.902,-62.500,-30.273,-12.695,-50.781,8.301
1692215672.906,-72.266,-28.809,-15.137,-59.082,-9.766
1692215672.910,-63.477,-27.832,-11.719,-53.223,-115.723
1692215672.914,-45.410,-29.297,-10.742,-31.250,-113.770
1692215672.918,-32.715,-29.785,-16.602,-15.137,282.715
1692215672.922,-37.598,-33.691,-15.625,-16.602,333.008
1692215672.925,-45.410,-38.086,-16.602,-19.531,-63.477
1692215672.929,-40.527,-31.738,-17.090,-16.113,-111.328
1692215672.933,-19.043,-27.832,-14.160,10.254,164.551
1692215672.937,3.418,-27.344,-13.184,28.320,124.023
1692215672.941,-9.766,-29.297,-15.625,6.348,-119.629
1692215672.944,-42.480,-36.133,-21.484,-41.504,-83.984
1692215672.948,-49.316,-34.180,-26.367,-61.035,-59.570
1692215672.952,-34.180,-31.250,-28.320,-35.156,-119.141
1692215672.956,-27.344,-32.227,-28.809,-32.227,-141.602
1692215672.960,-32.227,-28.320,-27.344,-56.152,-49.805
1692215672.964,-41.992,-24.414,-26.367,-66.895,43.945
1692215672.968,-24.414,-25.391,-23.926,-65.430,-30.762
1692215672.971,-6.836,-27.832,-19.043,-52.734,-110.840
1692215672.975,-7.812,-27.344,-18.066,-29.297,8.301
1692215672.979,-31.250,-25.879,-15.137,-11.230,309.082
1692215672.983,-58.105,-22.461,-12.695,-15.137,-17.090
1692215672.987,-47.363,-28.809,-16.602,-26.367,-249.023
1692215672.987,-25.391,-32.715,-19.043,-14.160,-123.535
1692215672.991,-17.578,-31.250,-17.090,5.371,-79.590
1692215672.995,-11.230,-26.855,-18.555,6.348,-59.570
1692215672.999,-14.160,-20.020,-19.531,-3.418,-66.406
1692215673.003,-20.996,-20.020,-18.066,-3.418,15.625
1692215673.007,-18.066,-24.414,-23.926,9.277,47.852
1692215673.011,-10.254,-25.879,-19.531,24.414,34.668
1692215673.014,-0.488,-21.973,-13.672,29.785,82.031
1692215673.018,-3.906,-21.973,-20.020,16.602,303.711
1692215673.022,-15.625,-22.949,-22.461,-1.953,411.621
1692215673.026,-16.113,-21.973,-20.996,3.418,26.855
1692215673.030,4.395,-18.555,-21.973,17.090,-153.809
1692215673.034,12.695,-13.672,-20.996,9.277,-114.746
1692215673.038,1.953,-11.230,-18.555,-10.254,-160.645
1692215673.042,-5.371,-10.254,-21.973,-20.508,-179.688
1692215673.046,-4.883,-10.742,-20.508,-24.414,-116.211
1692215673.050,1.465,-15.625,-18.066,-19.043,-4.883
1692215673.054,8.301,-18.555,-20.996,-10.254,65.430
1692215673.058,2.930,-16.602,-21.484,-17.578,-21.484
1692215673.061,-17.090,-22.461,-18.555,-25.879,-38.086
1692215673.065,-20.508,-27.344,-22.461,-21.484,212.402
1692215673.069,-6.836,-20.996,-25.391,-11.230,98.633
1692215673.073,-1.953,-18.555,-30.762,-12.207,-134.277
1692215673.077,-12.695,-23.438,-32.227,-24.902,-47.363
1692215673.077,-44.922,-25.391,-26.855,-39.062,-20.508
1692215673.081,-47.852,-21.484,-24.414,-31.738,-190.918
1692215673.085,-31.738,-21.973,-26.855,-9.766,-138.184
1692215673.089,-25.391,-31.250,-28.320,0.977,5.859
1692215673.093,-23.926,-30.762,-26.855,-9.766,-42.480
1692215673.097,-26.367,-26.367,-29.297,-28.320,-2.441
1692215673.101,-25.879,-29.297,-28.809,-24.414,37.598
1692215673.104,-22.949,-27.832,-33.203,3.906,289.551
1692215673.108,-21.973,-22.461,-27.832,12.207,458.984
1692215673.112,-22.461,-21.973,-14.160,-1.953,-46.875
1692215673.116,-21.973,-25.879,-16.113,-14.160,-242.676
1692215673.120,-21.973,-26.367,-18.555,-11.719,-92.773
1692215673.124,-18.066,-20.020,-20.020,-2.441,-19.043
1692215673.128,-10.254,-20.508,-20.508,0.977,-145.508
1692215673.132,-13.184,-24.902,-18.066,-5.859,-126.465
1692215673.136,-22.949,-22.461,-18.555,-13.184,8.301
1692215673.140,-19.531,-19.531,-19.043,-15.137,-114.258
1692215673.144,-11.719,-17.578,-20.996,-9.277,-166.016
1692215673.148,-10.742,-20.508,-22.461,-5.371,-4.883
1692215673.151,-21.973,-19.043,-21.484,-8.301,221.191
1692215673.155,-31.738,-14.160,-19.531,-23.926,-42.480
1692215673.159,-32.227,-18.066,-21.484,-33.203,-219.238
1692215673.163,-22.949,-17.578,-22.461,-17.578,-75.195
1692215673.167,-14.160,-18.066,-24.902,-6.348,-82.031
1692215673.168,-12.207,-22.461,-20.996,-10.254,-171.875
1692215673.172,-8.301,-16.602,-14.160,-18.555,-159.180
1692215673.176,-9.766,-11.719,-14.648,-22.461,33.691
1692215673.180,-18.066,-19.043,-9.766,-6.836,-9.766
1692215673.184,-14.160,-18.555,-8.789,7.324,-75.684
1692215673.188,-10.254,-14.648,-10.742,-0.977,0.488
1692215673.192,-22.949,-15.625,-12.207,1.465,385.254
1692215673.195,-21.973,-23.926,-16.602,4.395,455.566
1692215673.199,-12.207,-23.926,-12.207,-1.465,-105.469
1692215673.203,-18.555,-8.301,-10.254,-3.418,-149.902
1692215673.207,-30.762,-0.488,-15.137,-12.695,59.082
1692215673.211,-40.039,-3.418,-18.066,-35.645,-66.406
1692215673.228,-42.969,-9.766,-16.113,-48.828,-185.059
1692215673.232,-43.457,-15.137,-13.672,-45.410,-186.523
1692215673.236,-33.203,-17.578,-16.602,-28.809,-71.777
1692215673.240,-21.484,-19.531,-20.508,-17.578,-55.664
1692215673.244,-26.855,-20.020,-17.578,-30.762,-90.820
1692215673.248,-40.527,-20.508,-15.625,-41.992,105.469
1692215673.252,-43.945,-20.508,-16.602,-34.668,287.109
1692215673.255,-37.598,-21.973,-15.625,-30.762,59.570
1692215673.259,-27.344,-16.113,-12.695,-24.902,-108.887
1692215673.263,-27.344,-10.254,-12.207,-29.785,-15.625
1692215673.267,-43.945,-17.090,-15.137,-49.805,39.062
1692215673.271,-43.457,-20.508,-18.555,-49.805,-140.625
1692215673.272,-27.832,-18.555,-20.508,-27.832,-159.180
1692215673.276,-18.066,-22.461,-20.996,-12.695,0.000
1692215673.280,-25.879,-22.949,-19.531,-19.043,-40.527
1692215673.284,-36.133,-20.020,-14.648,-31.738,-132.812
1692215673.288,-30.273,-19.531,-16.113,-27.832,-80.078
1692215673.292,-24.414,-19.531,-16.602,-7.812,139.160
1692215673.296,-14.648,-17.578,-13.672,0.977,162.598
1692215673.299,-20.508,-19.531,-14.648,-13.184,49.805
1692215673.303,-40.527,-20.996,-15.625,-25.879,-50.781
1692215673.307,-41.992,-17.578,-18.555,-21.973,255.371
1692215673.311,-36.133,-20.996,-19.043,-8.301,427.734
1692215673.315,-27.832,-21.973,-20.020,-5.859,21.484
1692215673.333,-23.438,-17.090,-21.973,-12.207,-168.945
1692215673.337,-23.926,-17.090,-22.461,-25.879,-187.988
1692215673.341,-28.320,-20.996,-21.973,-36.621,-245.605
1692215673.345,-33.691,-18.555,-18.066,-20.996,-234.375
1692215673.349,-24.414,-19.531,-18.555,-10.742,-113.770
1692215673.353,-20.508,-23.438,-21.973,-20.020,89.844
1692215673.357,-23.438,-20.508,-16.602,-29.297,62.012
1692215673.360,-16.113,-13.184,-10.742,-35.156,-153.809
1692215673.364,0.000,-6.836,-11.230,-17.090,-35.156
1692215673.368,5.371,-9.766,-16.113,-5.371,318.359
1692215673.372,-11.230,-15.137,-19.531,-22.949,124.512
1692215673.376,-26.855,-19.531,-23.926,-37.109,-130.371
1692215673.362,-29.785,-19.531,-23.926,-27.344,-20.020
1692215673.366,-25.879,-21.973,-21.973,-22.461,-54.199
1692215673.370,-16.113,-20.996,-23.438,-19.043,-127.930
1692215673.374,-16.602,-15.625,-23.438,-15.625,-117.676
1692215673.378,-26.367,-17.090,-24.902,-31.738,-45.898
1692215673.382,-29.785,-20.996,-23.438,-41.504,73.242
1692215673.386,-26.855,-18.555,-23.438,-34.668,11.719
1692215673.389,-17.090,-19.531,-24.414,-13.184,104.492
1692215673.393,-19.531,-22.461,-24.414,-9.766,182.617
1692215673.397,-33.691,-20.020,-19.531,-26.855,-4.395
1692215673.401,-41.016,-20.508,-20.020,-35.645,-129.395
1692215673.405,-34.668,-23.926,-26.367,-29.785,-159.668
1692215673.409,-27.832,-22.461,-27.832,-10.742,308.105
1692215673.413,-28.320,-24.902,-25.879,-8.301,466.309
1692215673.417,-24.414,-23.438,-22.461,-23.926,-38.574
1692215673.421,-31.250,-16.602,-19.531,-31.738,-229.492
1692215673.425,-40.039,-14.648,-19.531,-27.344,-217.285
1692215673.429,-29.785,-18.555,-16.113,-8.301,-110.840
1692215673.433,-22.949,-20.996,-16.602,-8.789,-17.090
1692215673.436,-28.809,-15.625,-20.020,-24.414,45.410
1692215673.440,-40.527,-19.043,-17.090,-28.320,182.617
1692215673.444,-27.344,-18.555,-17.578,-13.672,-52.734
1692215673.448,-12.207,-15.137,-16.602,13.672,-172.852
1692215673.452,-39.551,-21.973,-14.648,-2.930,-56.152
1692215673.452,-54.688,-23.926,-13.672,-33.691,-62.500
1692215673.456,-45.410,-21.484,-12.207,-35.645,-175.781
1692215673.460,-51.758,-26.367,-13.672,-37.109,-154.297
1692215673.464,-56.641,-28.809,-14.648,-31.250,103.516
1692215673.468,-50.293,-28.320,-15.137,-36.621,55.176
1692215673.472,-37.109,-26.855,-20.996,-39.551,-25.391
1692215673.476,-35.645,-26.367,-23.926,-45.898,5.371
1692215673.479,-46.387,-28.809,-20.508,-48.340,301.758
1692215673.483,-40.039,-30.273,-18.066,-32.227,437.012
1692215673.487,-36.133,-29.297,-17.090,-23.926,-10.742
1692215673.491,-34.180,-28.320,-16.602,-30.273,-180.664
1692215673.495,-23.438,-26.367,-12.695,-33.203,-142.578
1692215673.499,-31.250,-23.438,-18.066,-35.645,-196.777
1692215673.503,-30.762,-18.555,-20.508,-16.113,-130.859
1692215673.507,-12.695,-16.602,-11.230,-2.930,-40.039
1692215673.511,-15.137,-19.531,-12.207,-14.160,-17.578
1692215673.515,-24.902,-18.555,-11.719,-21.973,-68.359
1692215673.519,-27.344,-15.137,-8.301,-27.832,-159.180
1692215673.523,-31.738,-21.484,-13.672,-20.508,-36.133
1692215673.526,-31.738,-29.297,-17.090,-4.395,366.211
1692215673.530,-31.250,-27.832,-19.531,-6.348,151.855
1692215673.534,-41.016,-24.902,-19.043,-16.113,-194.824
1692215673.538,-46.875,-28.809,-17.090,-20.996,-112.793
1692215673.542,-42.969,-27.832,-20.996,-21.484,-68.848
1692215673.542,-30.273,-22.949,-20.508,-10.742,-141.602
1692215673.546,-18.066,-18.555,-16.113,-2.441,-142.090
1692215673.550,-24.902,-20.508,-17.578,-19.043,-86.914
1692215673.554,-36.133,-24.902,-21.484,-38.574,-174.805
1692215673.558,-37.109,-18.066,-19.043,-34.668,-210.938
1692215673.562,-38.086,-16.602,-19.531,-13.672,-41.992
1692215673.566,-34.180,-16.602,-24.902,-6.836,350.098
1692215673.569,-31.250,-13.184,-25.391,-23.438,437.500
1692215673.573,-45.898,-17.090,-27.832,-48.340,28.809
1692215673.577,-40.527,-15.625,-26.367,-37.598,-135.254
1692215673.581,-29.785,-17.090,-24.414,-18.555,0.977
1692215673.585,-29.297,-22.949,-23.926,-18.555,-75.195
1692215673.602,-15.137,-18.066,-17.578,-29.785,-210.449
1692215673.606,-15.137,-16.602,-27.344,-41.504,-100.098
1692215673.610,-24.902,-19.043,-31.738,-40.527,81.543
1692215673.614,-18.066,-20.020,-22.949,-40.039,-51.758
1692215673.618,-10.742,-20.996,-20.508,-33.203,-166.504
1692215673.622,-22.949,-22.949,-27.344,-38.086,-37.109
1692215673.626,-41.992,-27.344,-31.250,-55.176,91.309
1692215673.629,-45.898,-28.809,-27.832,-51.270,-57.617
1692215673.633,-37.109,-26.367,-24.902,-26.855,-177.246
1692215673.637,-27.344,-25.879,-23.926,-24.414,-18.066
1692215673.641,-28.809,-30.273,-29.785,-47.363,167.969
1692215673.645,-33.691,-29.297,-33.203,-58.594,-30.762
1692215673.647,-33.203,-27.832,-31.738,-53.711,-154.785
1692215673.651,-21.973,-31.250,-28.320,-30.273,40.527
1692215673.655,-8.301,-29.785,-22.949,-0.977,71.289
1692215673.659,-35.645,-28.320,-26.855,-24.902,-113.770
1692215673.663,-62.988,-28.809,-29.297,-60.547,-149.902
1692215673.667,-47.363,-24.902,-25.879,-44.434,115.723
1692215673.671,-39.062,-24.414,-27.344,-35.645,164.062
1692215673.674,-42.480,-26.855,-25.879,-36.133,10.742
1692215673.678,-41.992,-31.250,-22.949,-32.715,-31.250
1692215673.682,-40.039,-32.227,-29.297,-35.645,193.848
1692215673.686,-41.016,-26.367,-26.855,-36.621,172.363
1692215673.690,-33.691,-20.020,-20.020,-29.297,-106.445
1692215673.694,-13.672,-21.484,-20.996,-4.395,34.668
1692215673.698,-6.836,-22.949,-18.555,2.930,133.789
1692215673.702,-20.996,-21.973,-17.578,-15.625,-43.457
1692215673.706,-31.250,-20.020,-18.555,-25.391,-141.113
1692215673.710,-34.180,-19.531,-20.020,-13.184,-114.258
1692215673.714,-25.391,-20.996,-22.461,6.836,58.105
1692215673.718,-18.066,-21.484,-24.414,6.836,171.387
1692215673.721,-21.973,-18.555,-27.344,-13.184,-18.555
1692215673.725,-30.762,-19.531,-28.809,-27.344,-77.637
1692215673.729,-36.133,-27.832,-29.297,-23.438,210.938
1692215673.733,-30.273,-30.762,-26.367,-10.254,-21.484
1692215673.737,-21.973,-29.297,-23.438,-1.465,-217.285
1692215673.737,-20.020,-26.367,-21.973,-12.695,-85.449
1692215673.741,-22.461,-20.020,-18.555,-32.227,-107.422
1692215673.745,-24.902,-21.973,-19.531,-26.855,-142.090
1692215673.749,-21.484,-23.926,-17.090,-5.371,-20.508
1692215673.753,-12.207,-19.043,-13.184,3.906,175.781
1692215673.757,-15.137,-20.508,-17.090,-8.789,146.484
1692215673.761,-26.367,-21.484,-20.508,-23.926,22.461
1692215673.764,-29.785,-22.461,-23.438,-24.902,42.480
1692215673.768,-20.996,-25.391,-19.043,-8.301,338.867
1692215673.772,-13.184,-24.902,-18.555,-11.230,386.230
1692215673.776,-19.043,-22.461,-22.461,-30.762,-108.887
1692215673.780,-32.227,-23.926,-20.508,-38.574,-238.281
1692215673.784,-44.922,-25.879,-20.996,-32.715,-134.766
1692215673.788,-45.898,-26.855,-24.414,-14.648,-144.531
1692215673.792,-33.203,-24.414,-26.367,-2.930,-140.625
1692215673.796,-39.062,-22.461,-24.902,-18.555,-147.949
1692215673.800,-52.246,-30.273,-26.367,-42.969,-104.980
1692215673.804,-52.246,-30.762,-26.367,-40.039,-27.832
1692215673.808,-44.434,-22.949,-26.855,-31.250,-50.293
1692215673.811,-35.645,-17.578,-26.855,-27.832,29.297
1692215673.815,-38.574,-20.508,-21.973,-23.926,305.664
1692215673.819,-46.875,-24.414,-21.973,-29.785,53.223
1692215673.823,-39.551,-22.949,-25.879,-28.320,-237.305
1692215673.827,-26.367,-19.531,-21.973,-11.230,-108.398
1692215673.827,-19.043,-15.625,-18.555,0.488,-93.750
1692215673.831,-24.902,-17.090,-24.414,-19.531,-184.570
1692215673.835,-34.668,-23.926,-25.879,-48.340,-146.973
1692215673.839,-37.109,-22.461,-26.855,-44.922,-82.520
1692215673.843,-34.180,-23.438,-33.203,-26.855,-71.289
1692215673.847,-26.855,-29.297,-28.809,-20.996,14.160
1692215673.851,-29.297,-28.320,-26.855,-27.344,49.805
1692215673.854,-40.527,-27.344,-24.414,-32.227,259.277
1692215673.858,-39.062,-19.531,-20.508,-32.715,463.867
1692215673.862,-28.320,-15.625,-21.973,-29.297,68.848
1692215673.866,-17.090,-20.020,-21.973,-11.230,-97.168
1692215673.870,-19.043,-15.137,-21.973,-5.859,11.230
1692215673.874,-33.203,-20.508,-21.973,-23.926,-113.281
1692215673.878,-32.227,-30.762,-20.020,-27.344,-190.918
1692215673.882,-17.090,-28.809,-17.578,-16.113,-126.465
1692215673.886,-11.230,-22.949,-17.578,-7.324,-86.914
1692215673.890,-18.555,-26.855,-17.578,-2.441,-120.605
1692215673.894,-29.297,-32.715,-20.508,-11.230,-94.727
1692215673.898,-43.457,-33.691,-21.973,-27.832,119.629
1692215673.901,-41.992,-32.227,-18.066,-28.809,337.402
1692215673.905,-41.016,-30.762,-21.973,-27.832,46.387
1692215673.909,-48.340,-27.344,-23.438,-32.715,-142.578
1692215673.913,-53.223,-23.438,-19.531,-49.805,-29.297
1692215673.917,-64.453,-22.949,-21.973,-67.871,-18.066
1692215673.917,-61.035,-21.973,-24.414,-56.152,-133.301
1692215673.921,-49.316,-25.879,-26.367,-33.203,-122.559
1692215673.925,-41.504,-29.297,-22.461,-26.855,33.203
1692215673.929,-41.016,-26.855,-27.832,-34.668,32.227
1692215673.933,-43.945,-29.785,-32.715,-40.527,-54.199
1692215673.937,-39.551,-28.809,-30.762,-38.574,-0.488
1692215673.941,-28.320,-25.391,-25.879,-21.484,343.262
1692215673.944,-21.484,-28.809,-22.949,-11.719,485.352
1692215673.948,-23.926,-25.879,-28.809,-24.902,-63.965
1692215673.952,-35.156,-24.902,-30.273,-38.086,-295.898
1692215673.956,-40.039,-24.902,-28.809,-30.762,-167.480
1692215673.960,-30.273,-20.508,-32.715,-16.602,-144.531
1692215673.965,-17.578,-20.020,-32.227,-7.324,-135.254
1692215673.969,-13.184,-19.531,-26.855,-9.766,-48.340
1692215673.973,-23.438,-20.508,-25.879,-25.879,13.672
1692215673.977,-28.809,-22.949,-29.785,-30.273,-126.953
1692215673.981,-21.973,-27.344,-30.762,-12.207,-189.941
1692215673.985,-16.602,-25.879,-28.320,-3.418,42.480
1692215673.989,-21.973,-24.902,-31.738,-17.090,183.594
1692215673.992,-26.367,-23.926,-31.738,-29.297,-47.363
1692215673.996,-31.250,-24.414,-25.879,-34.668,-182.617
1692215674.000,-30.762,-23.438,-26.855,-27.344,-14.160
1692215674.004,-22.461,-25.879,-29.785,-16.602,71.289
1692215674.008,-26.855,-28.320,-27.344,-21.973,-97.168
1692215674.022,-40.527,-26.367,-26.855,-31.738,-131.348
1692215674.026,-47.852,-27.832,-25.391,-34.668,-85.938
1692215674.030,-44.434,-28.320,-20.508,-16.602,-54.199
1692215674.034,-40.039,-23.926,-16.602,-2.441,-28.320
1692215674.038,-43.457,-20.996,-18.066,-12.207,6.836
1692215674.042,-43.457,-22.949,-23.438,-22.461,312.012
1692215674.046,-40.039,-26.855,-23.926,-28.809,377.441
1692215674.049,-39.551,-28.809,-25.391,-23.926,-10.254
1692215674.053,-29.785,-27.832,-25.391,-3.906,-114.746
1692215674.057,-23.926,-23.438,-23.926,-0.977,52.246
1692215674.061,-28.320,-22.461,-24.902,-20.020,-39.062
1692215674.065,-27.832,-22.461,-25.879,-28.809,-187.012
1692215674.069,-21.484,-21.973,-26.367,-19.531,-142.578
1692215674.073,-15.137,-23.438,-28.809,-1.465,159.668
1692215674.077,-11.230,-23.438,-27.832,-1.953,92.773
1692215674.081,-22.949,-22.949,-25.391,-27.832,-130.859
1692215674.085,-33.691,-25.879,-26.855,-39.062,-116.699
1692215674.089,-27.344,-28.809,-27.832,-27.344,-27.832
1692215674.093,-21.973,-22.949,-27.344,-15.137,39.062
1692215674.096,-20.020,-14.648,-27.344,-14.648,-39.062
1692215674.100,-23.438,-11.719,-25.879,-22.461,-86.426
1692215674.104,-33.691,-15.625,-21.973,-35.645,216.797
1692215674.108,-31.738,-16.113,-20.996,-33.691,51.270
1692215674.112,-20.996,-15.137,-18.555,-8.301,-218.750
1692215674.112,-10.742,-15.137,-16.113,-1.953,-122.070
1692215674.116,-9.277,-16.602,-21.973,-18.066,-126.953
1692215674.120,-14.160,-13.672,-25.879,-36.133,-187.500
1692215674.124,-16.113,-14.648,-23.438,-33.203,-187.500
1692215674.128,-17.090,-22.949,-19.043,-15.137,-12.695
1692215674.132,-18.555,-19.531,-19.531,-7.812,123.535
1692215674.136,-22.461,-17.090,-23.438,-20.996,92.285
1692215674.139,-31.250,-22.949,-23.926,-30.273,59.570
1692215674.143,-34.668,-22.461,-23.926,-22.461,291.016
1692215674.147,-33.691,-19.043,-24.414,-14.648,471.191
1692215674.151,-32.715,-18.066,-20.508,-10.742,62.988
1692215674.155,-30.762,-13.672,-17.578,-17.090,-211.426
1692215674.173,-30.762,-13.672,-23.438,-28.809,-162.109
1692215674.177,-27.832,-19.043,-26.855,-32.227,-216.797
1692215674.181,-37.598,-23.926,-20.996,-22.949,-195.312
1692215674.185,-42.969,-20.020,-15.137,-5.859,-72.754
1692215674.189,-41.016,-14.648,-18.555,-13.184,-41.016
1692215674.193,-44.434,-16.602,-28.320,-34.180,-48.828
1692215674.197,-44.922,-17.578,-36.133,-34.668,-129.883
1692215674.200,-40.527,-20.996,-37.109,-21.973,-99.609
1692215674.204,-27.344,-24.414,-35.156,-12.695,187.988
1692215674.208,-26.367,-26.367,-34.668,-25.391,-15.625
1692215674.212,-40.527,-31.250,-33.203,-37.598,-237.793
1692215674.216,-40.527,-31.250,-30.762,-41.016,-46.875
1692215674.202,-36.133,-28.809,-30.762,-34.668,-34.180
1692215674.206,-34.180,-27.344,-32.227,-18.066,-152.832
1692215674.210,-35.156,-22.461,-32.227,-17.578,-89.355
1692215674.214,-41.992,-21.484,-27.832,-31.250,-39.062
1692215674.218,-36.133,-26.367,-29.785,-38.574,-96.191
1692215674.222,-32.715,-27.344,-31.738,-33.691,-122.559
1692215674.226,-21.973,-25.391,-33.691,-18.555,20.508
1692215674.229,-6.836,-22.949,-32.715,-6.348,268.066
1692215674.233,-10.742,-26.855,-29.297,-22.949,28.809
1692215674.237,-25.879,-22.461,-29.785,-39.551,-195.312
1692215674.241,-35.156,-20.508,-27.344,-31.738,-158.691
1692215674.245,-34.668,-24.414,-25.879,-17.578,176.758
1692215674.264,-39.062,-22.461,-28.320,-24.414,248.535
1692215674.268,-43.457,-23.438,-29.297,-41.016,-83.984
1692215674.272,-48.828,-24.902,-33.691,-45.410,-125.977
1692215674.276,-39.062,-28.320,-34.668,-39.551,-56.152
1692215674.280,-21.973,-31.738,-30.762,-30.273,-95.703
1692215674.284,-20.020,-26.367,-27.832,-26.367,-74.707
1692215674.288,-23.926,-29.297,-28.809,-38.574,77.637
1692215674.291,-29.785,-29.785,-31.250,-44.434,269.531
1692215674.295,-33.203,-29.297,-31.250,-32.715,-35.156
1692215674.299,-29.785,-27.832,-25.879,-16.602,-232.422
1692215674.303,-26.367,-20.020,-19.043,-13.672,-54.688
1692215674.307,-28.809,-21.973,-22.461,-20.020,-43.457
1692215674.292,-41.992,-27.832,-28.320,-35.156,-145.996
1692215674.296,-41.504,-29.785,-29.297,-42.969,-149.902
1692215674.300,-34.668,-29.297,-25.391,-29.297,-3.418
1692215674.304,-26.367,-25.391,-30.762,-21.973,28.320
1692215674.308,-23.926,-21.973,-31.250,-26.367,-20.508
1692215674.312,-30.762,-22.461,-25.391,-31.738,26.367
1692215674.316,-38.086,-20.020,-25.391,-31.738,265.137
1692215674.319,-33.203,-20.996,-23.438,-24.414,259.766
1692215674.323,-35.156,-28.320,-19.531,-23.926,-25.391
1692215674.327,-40.039,-28.809,-25.879,-27.832,-143.066
1692215674.331,-38.574,-24.414,-24.902,-32.715,166.016
1692215674.335,-40.527,-19.531,-22.949,-37.109,254.883
1692215674.352,-28.809,-16.113,-28.320,-29.297,-173.828
1692215674.356,-15.625,-22.461,-31.738,-18.555,-190.430
1692215674.360,-19.043,-25.391,-31.738,-24.414,-29.297
1692215674.364,-23.926,-20.020,-28.809,-32.227,-84.473
1692215674.368,-27.832,-20.996,-28.809,-42.480,-190.918
1692215674.372,-22.949,-22.949,-28.320,-23.438,-25.879
1692215674.376,-11.719,-21.484,-25.879,-2.930,208.984
1692215674.379,-11.719,-21.484,-22.949,-11.719,14.648
1692215674.383,-22.461,-21.973,-22.461,-28.320,-167.480
1692215674.387,-26.855,-22.461,-20.508,-33.691,-25.391
1692215674.391,-29.297,-23.926,-22.461,-27.344,122.559
1692215674.395,-22.949,-21.973,-27.832,-11.230,-95.215
1692215674.397,-13.184,-19.531,-29.785,-5.859,-133.301
1692215674.401,-24.414,-21.484,-34.668,-22.461,-41.016
1692215674.405,-28.809,-27.344,-31.738,-33.691,-89.355
1692215674.409,-35.645,-29.785,-27.832,-24.902,-160.156
1692215674.413,-43.945,-27.832,-33.203,-9.277,-60.547
1692215674.417,-37.598,-32.227,-36.621,-4.883,241.699
1692215674.421,-45.898,-33.691,-33.203,-22.461,228.027
1692215674.424,-46.387,-31.250,-30.762,-43.457,18.066
1692215674.428,-47.363,-31.738,-30.273,-34.668,-75.195
1692215674.432,-41.504,-27.344,-30.273,-9.766,280.762
1692215674.436,-30.273,-25.391,-32.715,-7.324,407.715
1692215674.440,-31.738,-22.949,-29.785,-39.551,-77.148
1692215674.472,-33.203,-20.508,-18.555,-52.734,-267.578
1692215674.476,-27.832,-26.367,-19.043,-33.203,-148.438
1692215674.480,-15.625,-24.414,-24.902,-14.160,-67.871
1692215674.484,-16.602,-21.973,-20.996,-4.395,-125.488
1692215674.488,-22.461,-25.879,-17.578,-13.184,-119.141
1692215674.492,-26.855,-29.297,-19.043,-30.762,61.035
1692215674.496,-22.949,-29.297,-20.020,-24.414,28.320
1692215674.499,-9.766,-27.832,-17.578,-5.371,-105.469
1692215674.503,-12.695,-30.273,-14.160,-3.418,-21.484
1692215674.507,-29.297,-24.902,-20.508,-8.789,60.547
1692215674.511,-47.852,-20.508,-22.949,-20.508,-107.422
1692215674.515,-36.133,-22.949,-24.414,-20.996,-202.148
1692215674.491,-20.996,-20.996,-22.461,-4.883,46.387
1692215674.495,-25.879,-17.578,-21.484,-4.883,294.922
1692215674.499,-23.438,-20.020,-24.414,-20.996,-11.719
1692215674.503,-24.902,-23.438,-18.066,-27.344,-206.543
1692215674.507,-24.414,-23.438,-18.555,-23.926,-92.773
1692215674.511,-13.184,-20.996,-18.066,-16.113,-57.617
1692215674.515,-6.836,-19.043,-14.160,-5.371,-66.895
1692215674.518,-7.812,-17.578,-19.531,-11.230,4.395
1692215674.522,-23.926,-21.973,-19.531,-23.438,185.547
1692215674.526,-33.203,-23.438,-17.090,-25.879,45.898
1692215674.530,-23.926,-23.926,-22.949,-11.719,-152.344
1692215674.534,-16.113,-28.320,-23.926,6.836,-64.941
1692215674.535,-20.996,-29.297,-23.926,-4.395,47.852
1692215674.539,-28.809,-29.785,-25.879,-16.113,-31.738
1692215674.543,-30.273,-30.273,-22.461,-13.184,-136.719
1692215674.547,-24.902,-25.879,-19.531,-8.789,-80.566
1692215674.551,-15.137,-25.391,-23.926,-2.930,58.594
1692215674.555,-15.137,-22.949,-24.414,-12.695,5.859
1692215674.559,-26.855,-23.438,-22.461,-32.227,-35.645
1692215674.562,-31.250,-25.391,-20.020,-31.250,-23.926
1692215674.566,-25.879,-25.391,-24.414,-14.648,319.336
1692215674.570,-22.949,-29.297,-26.855,-2.930,405.273
1692215674.574,-21.484,-29.297,-22.949,-10.742,-40.039
1692215674.578,-22.949,-27.832,-24.414,-31.250,-204.590
1692215674.592,-35.645,-27.832,-22.949,-42.480,-195.801
1692215674.596,-41.016,-27.832,-26.367,-38.086,-168.457
1692215674.600,-35.156,-30.273,-29.785,-21.484,-102.539
1692215674.604,-35.645,-31.250,-26.367,-11.719,-34.668
1692215674.608,-33.203,-29.297,-22.461,-14.648,44.434
1692215674.612,-11.719,-26.367,-13.184,-5.859,42.969
1692215674.616,-9.277,-28.809,-15.625,11.230,-53.711
1692215674.619,-36.621,-29.297,-27.344,-1.953,255.371
1692215674.623,-57.129,-22.949,-27.832,-36.621,542.969
1692215674.627,-69.824,-14.160,-20.020,-57.617,9.766
1692215674.631,-99.609,-17.578,-23.926,-81.543,-227.539
1692215674.635,-104.980,-18.066,-29.297,-91.797,-9.277
1692215674.637,-88.867,-13.184,-27.344,-76.660,-100.098
1692215674.641,-94.238,-15.137,-26.367,-81.055,-178.223
1692215674.645,-98.633,-16.602,-25.879,-97.656,-104.492
1692215674.649,-103.516,-16.602,-30.273,-111.816,-87.891
1692215674.653,-96.191,-16.113,-36.621,-110.352,-141.113
1692215674.657,-80.078,-14.160,-31.738,-92.285,-83.008
1692215674.661,-77.637,-17.578,-29.785,-79.590,93.750
1692215674.664,-76.660,-24.902,-31.250,-78.125,97.168
1692215674.668,-74.707,-28.809,-29.785,-82.031,-19.531
1692215674.672,-68.848,-26.367,-26.367,-78.613,-175.781
1692215674.676,-62.500,-25.879,-28.320,-62.500,-28.809
1692215674.680,-52.246,-22.949,-30.762,-44.434,353.516
1692215674.667,-46.387,-19.531,-26.367,-58.105,98.633
1692215674.671,-46.875,-23.438,-28.809,-69.824,-188.965
1692215674.675,-50.781,-27.344,-30.273,-64.453,-126.465
1692215674.679,-45.410,-20.996,-27.344,-50.293,-139.648
1692215674.683,-31.738,-20.996,-33.203,-41.016,-131.348
1692215674.687,-26.367,-22.461,-34.668,-44.922,96.680
1692215674.691,-26.367,-18.555,-23.926,-46.875,207.520
1692215674.694,-41.016,-26.367,-25.879,-53.711,11.719
1692215674.698,-39.551,-30.762,-30.273,-43.457,-95.215
1692215674.702,-24.414,-26.855,-26.367,-27.344,-66.406
1692215674.706,-18.555,-24.414,-20.996,-25.391,229.004
1692215674.710,-21.484,-21.973,-20.996,-37.109,427.734
1692215674.716,-34.668,-21.484,-24.902,-48.340,108.398
1692215674.720,-47.363,-22.461,-26.367,-37.598,-152.832
1692215674.724,-40.527,-24.414,-23.438,-12.695,-99.121
1692215674.728,-21.973,-28.320,-20.996,-4.395,-85.938
1692215674.732,-19.531,-30.273,-21.973,-18.066,-155.273
1692215674.736,-31.250,-31.250,-27.344,-25.879,0.000
1692215674.740,-33.691,-33.203,-23.926,-22.949,187.012
1692215674.743,-23.926,-30.762,-24.902,-14.648,-57.617
1692215674.747,-25.879,-27.832,-28.320,-11.230,-219.727
1692215674.751,-34.180,-26.855,-25.391,-29.297,-149.902
1692215674.755,-42.969,-27.832,-27.344,-37.109,-88.867
1692215674.759,-35.156,-29.785,-24.414,-25.391,-130.859
1692215674.772,-25.879,-31.738,-22.949,-16.113,-76.660
1692215674.776,-26.367,-32.227,-25.879,-14.160,-3.418
1692215674.780,-26.367,-28.809,-23.926,-23.438,-92.773
1692215674.784,-28.809,-24.414,-16.602,-34.180,-222.656
1692215674.788,-18.555,-40.527,-14.160,-19.043,-163.574
1692215674.792,1.953,-35.156,-20.996,10.254,180.664
1692215674.796,-10.254,-14.160,-30.273,-13.184,522.461
1692215674.799,-30.273,-22.461,-38.086,-60.059,229.980
1692215674.803,-42.480,-24.902,-42.480,-76.172,-150.879
1692215674.807,-41.504,-24.902,-41.504,-58.594,69.824
1692215674.811,-22.461,-21.484,-40.039,-43.457,-39.551
1692215674.815,-16.113,-11.719,-42.480,-44.922,-230.469
1692215674.820,-29.785,-16.113,-45.410,-48.340,-135.742
1692215674.824,-42.969,-19.043,-48.828,-54.688,-137.695
1692215674.828,-47.363,-17.578,-48.828,-52.246,-118.652
1692215674.832,-35.156,-24.414,-44.434,-29.785,-110.840
1692215674.836,-17.578,-28.320,-43.457,-13.672,-73.730
1692215674.840,-16.602,-27.832,-39.551,-20.996,143.066
1692215674.844,-28.320,-21.973,-35.156,-36.133,73.730
1692215674.847,-36.621,-23.438,-35.645,-35.156,-158.203
1692215674.851,-30.762,-19.531,-32.227,-13.672,-43.457
1692215674.855,-20.996,-15.625,-26.367,3.906,239.746
1692215674.859,-18.555,-19.531,-25.391,-7.324,-31.250
1692215674.863,-8.789,-22.461,-28.320,-23.438,-214.844
1692215674.862,-5.371,-22.461,-24.902,-25.391,-93.262
1692215674.866,-8.789,-26.855,-22.949,-16.113,-50.293
1692215674.870,-0.488,-26.855,-23.438,-5.371,-49.805
1692215674.874,-13.672,-27.344,-24.902,-11.230,-59.082
1692215674.878,-35.156,-29.297,-28.320,-17.578,-36.133
1692215674.882,-35.156,-26.855,-21.973,-23.438,40.527
1692215674.886,-20.508,-24.414,-15.625,-12.695,6.836
1692215674.889,-8.301,-24.902,-16.602,3.906,-13.672
1692215674.893,-11.230,-29.785,-16.602,1.953,273.926
1692215674.897,-22.949,-29.785,-19.531,-13.672,456.543
1692215674.901,-20.020,-22.461,-24.902,-25.391,63.477
1692215674.905,-9.766,-18.555,-26.367,-8.789,-137.695
1692215674.909,-0.488,-21.484,-22.461,0.977,-34.180
1692215674.913,2.441,-20.508,-19.531,-12.695,-113.770
1692215674.917,-5.859,-21.973,-19.531,-18.066,-185.059
1692215674.921,-26.855,-23.438,-19.531,-19.043,-178.223
1692215674.925,-30.762,-25.391,-23.438,-13.184,-133.301
1692215674.929,-12.207,-23.926,-22.461,3.418,-63.965
1692215674.933,-3.906,-19.531,-15.625,4.883,-71.289
1692215674.936,-8.789,-15.625,-14.160,-3.906,-12.695
1692215674.940,-23.438,-20.508,-22.461,-13.184,293.945
1692215674.944,-23.926,-26.855,-29.297,-15.625,156.250
1692215674.948,-10.742,-21.484,-26.367,-0.977,-48.340
1692215674.952,-11.719,-19.531,-23.926,3.418,-14.648
1692215674.952,-19.531,-19.043,-21.484,-14.160,-58.105
1692215674.956,-27.344,-23.926,-23.438,-31.250,-131.836
1692215674.960,-25.879,-25.391,-28.809,-23.926,-155.273
1692215674.964,-9.277,-24.902,-25.391,-6.348,6.836
1692215674.968,-7.812,-26.367,-21.973,-4.883,-3.418
1692215674.972,-12.207,-24.414,-27.344,-4.883,-7.324
1692215674.976,-16.602,-21.484,-30.273,-18.555,16.113
1692215674.979,-26.855,-25.879,-27.832,-20.508,247.559
1692215674.983,-25.879,-29.297,-24.414,-4.883,433.594
1692215674.987,-18.066,-30.273,-23.926,-9.277,45.410
1692215674.991,-22.949,-31.250,-29.297,-23.438,-85.449
1692215674.995,-30.273,-26.855,-33.203,-21.973,42.969
1692215674.999,-26.367,-25.391,-27.832,-13.672,-121.582
1692215675.003,-24.902,-26.855,-22.461,-11.719,-154.297
1692215675.007,-19.531,-21.484,-23.926,0.488,-39.062
1692215675.011,-14.648,-16.602,-30.273,-9.277,-66.406
1692215675.015,-24.414,-23.438,-32.715,-34.668,-142.578
1692215675.019,-36.133,-23.926,-29.785,-35.156,-133.301
1692215675.023,-32.715,-20.508,-31.250,-20.508,27.832
1692215675.026,-32.715,-21.973,-28.809,-12.695,326.660
1692215675.030,-32.715,-23.926,-24.902,-18.066,73.730
1692215675.034,-35.156,-25.879,-25.391,-24.414,-158.203
1692215675.038,-38.086,-25.879,-23.438,-29.785,-64.941
1692215675.042,-33.203,-18.555,-20.508,-13.184,-20.996
1692215675.043,-21.973,-13.672,-16.602,1.465,-42.480
1692215675.047,-31.250,-20.020,-18.066,-19.043,-74.219
1692215675.051,-41.016,-23.926,-24.414,-33.691,18.555
1692215675.055,-40.527,-18.555,-24.414,-35.156,-5.371
1692215675.059,-30.273,-18.555,-22.949,-23.438,-125.000
1692215675.063,-16.602,-21.484,-21.484,-4.883,-46.387
1692215675.067,-21.484,-21.484,-19.531,-5.859,304.688
1692215675.070,-30.762,-22.949,-18.555,-26.855,253.418
1692215675.074,-21.484,-23.438,-21.484,-32.227,-132.812
1692215675.078,-8.301,-20.996,-19.531,-16.113,-145.508
1692215675.082,0.000,-21.973,-17.090,2.441,102.539
1692215675.086,-3.906,-26.855,-24.414,-2.441,10.254
1692215675.102,-15.625,-23.438,-20.508,-18.066,-154.297
1692215675.106,-24.902,-21.484,-20.020,-32.227,-132.812
1692215675.110,-25.391,-20.508,-25.879,-30.273,-56.641
1692215675.114,-23.926,-21.973,-25.879,-19.531,-8.301
1692215675.118,-18.066,-23.438,-23.438,-14.648,-117.188
1692215675.122,-18.066,-21.484,-23.438,-24.902,-7.812
1692215675.126,-23.926,-26.855,-26.367,-29.785,382.812
1692215675.129,-22.949,-30.762,-31.250,-25.391,113.281
1692215675.133,-10.742,-28.809,-30.762,-14.648,-223.633
1692215675.137,-13.672,-33.691,-33.203,-11.719,-121.094
1692215675.141,-28.320,-33.691,-35.645,-31.738,-104.492
1692215675.145,-35.645,-29.785,-29.785,-44.922,-187.500
1692215675.147,-43.945,-29.297,-33.203,-35.645,-181.152
1692215675.151,-31.738,-20.996,-30.273,-17.090,-76.660
1692215675.155,-19.531,-21.973,-19.043,-1.953,-138.672
1692215675.159,-12.695,-22.461,-27.344,-10.254,-218.750
1692215675.163,-3.418,-15.137,-42.969,-15.625,-175.293
1692215675.167,-13.672,-28.320,-34.668,-2.441,64.941
1692215675.171,-32.715,-42.480,-20.020,-6.348,112.305
1692215675.174,-44.434,-37.109,-16.113,-18.555,40.527
1692215675.178,-52.734,-34.668,-13.184,-28.320,3.906
1692215675.182,-62.988,-25.391,-14.160,-40.039,148.438
1692215675.186,-67.383,-25.391,-16.602,-41.992,239.258
1692215675.190,-57.617,-43.945,-12.207,-37.598,-88.867
1692215675.194,-46.387,-48.828,-10.254,-40.527,-157.227
1692215675.198,-39.062,-43.945,-9.277,-43.457,-107.910
1692215675.202,-42.969,-46.387,-11.719,-47.852,-196.777
1692215675.206,-46.387,-47.852,-16.113,-41.016,-191.406
1692215675.210,-26.855,-37.109,-11.230,-14.160,-98.633
1692215675.214,-17.578,-40.039,-6.836,-2.930,106.934
1692215675.218,-21.973,-44.434,-10.742,-4.883,112.793
1692215675.221,-20.996,-36.621,-13.672,-12.207,17.578
1692215675.225,-22.461,-33.203,-15.625,-16.113,100.586
1692215675.229,-20.996,-32.715,-15.625,-0.977,351.562
1692215675.233,-20.996,-32.715,-19.531,12.207,143.555
1692215675.237,-22.949,-30.762,-18.066,8.789,-110.352
1692215675.237,-24.414,-28.809,-15.625,-2.441,-0.977
1692215675.241,-14.648,-20.508,-12.695,-7.324,-20.020
1692215675.245,-3.906,-18.066,-8.301,4.883,-102.539
1692215675.249,-1.465,-32.227,-10.254,21.973,-82.520
1692215675.253,0.977,-33.691,-7.812,12.695,37.109
1692215675.257,-10.254,-30.273,-11.230,-5.371,33.203
1692215675.261,-17.090,-28.320,-18.066,-9.277,-24.902
1692215675.264,-0.488,-27.344,-20.020,2.441,13.672
1692215675.268,11.230,-31.250,-20.020,16.602,256.348
1692215675.272,0.000,-23.926,-20.996,13.184,417.480
1692215675.276,-1.465,-15.625,-19.531,-3.418,90.332
1692215675.280,-1.953,-22.949,-14.160,-11.719,-91.309
1692215675.297,-4.883,-28.809,-16.602,-4.395,5.371
1692215675.301,4.395,-22.949,-20.508,0.977,-83.496
1692215675.305,6.836,-23.438,-21.973,3.906,-162.109
1692215675.309,0.000,-28.320,-28.809,-1.953,-117.188
1692215675.313,-10.254,-28.320,-25.391,-14.648,-153.809
1692215675.317,-18.555,-30.273,-20.020,-9.277,-91.309
1692215675.321,-9.766,-25.879,-20.996,4.883,-14.160
1692215675.324,-3.906,-24.414,-18.066,12.207,12.695
1692215675.328,-15.625,-34.180,-19.043,-4.395,257.812
1692215675.332,-27.344,-34.180,-21.973,-23.438,-12.695
1692215675.336,-27.832,-32.715,-25.879,-21.973,-262.695
1692215675.340,-22.461,-35.645,-24.902,-18.066,-90.820
1692215675.328,-17.090,-31.250,-23.926,-4.883,-22.461
1692215675.332,-17.578,-29.785,-26.855,-8.789,-31.738
1692215675.336,-24.414,-32.227,-24.902,-20.020,-112.793
1692215675.340,-29.297,-32.715,-22.949,-13.184,-16.113
1692215675.344,-27.344,-30.273,-28.320,-1.953,0.977
1692215675.348,-18.555,-28.320,-30.273,5.371,-78.125
1692215675.352,-20.508,-32.715,-28.320,2.930,7.812
1692215675.355,-22.949,-27.832,-27.832,-8.301,277.344
1692215675.359,-27.832,-26.367,-27.344,-15.625,158.203
1692215675.363,-20.508,-25.391,-25.391,-4.395,-135.254
1692215675.367,-6.348,-21.973,-25.391,7.324,-69.824
1692215675.371,-10.254,-19.531,-26.855,0.488,205.566
1692215675.374,-12.695,-13.672,-19.531,-17.090,69.336
1692215675.378,-17.090,-9.277,-16.113,-27.344,-205.566
1692215675.382,-15.625,-3.906,-24.414,-21.484,-125.488
1692215675.386,-12.207,-2.441,-21.484,-20.020,-24.902
1692215675.390,-10.254,0.488,-11.719,-20.508,-33.691
1692215675.394,-8.301,38.574,3.906,-12.207,-36.133
1692215675.398,-15.625,55.664,34.180,-14.648,52.734
1692215675.401,-16.602,0.977,32.715,-4.395,303.711
1692215675.405,-9.277,-9.766,-13.184,6.348,101.074
1692215675.409,-12.695,24.414,-57.617,-5.859,-156.250
1692215675.413,-33.691,-41.992,-68.848,-30.273,-78.613
1692215675.417,-45.410,-86.426,-71.777,-45.898,-121.094
1692215675.417,-48.828,-76.172,-79.102,-47.852,-188.965
1692215675.421,-43.457,-86.914,-69.824,-32.715,-145.020
1692215675.425,-37.598,-93.750,-59.570,-29.785,-89.355
1692215675.429,-45.898,-93.262,-67.871,-49.316,-100.586
1692215675.433,-51.758,-83.496,-82.031,-61.035,-124.023
1692215675.437,-43.945,-76.660,-83.008,-43.945,-81.543
1692215675.441,-54.199,-116.211,-101.562,-33.691,263.672
1692215675.444,-54.199,-137.695,-93.750,-29.297,381.836
1692215675.448,-48.828,-116.211,-47.852,-33.691,44.922
1692215675.452,-62.988,-139.160,-77.148,-54.199,-128.906
1692215675.456,-62.988,-193.848,-140.137,-55.176,75.684
1692215675.460,-64.941,-200.195,-147.949,-50.293,82.031
1692215675.478,-69.336,-211.426,-135.742,-51.270,-120.605
1692215675.482,-77.148,-217.773,-133.301,-57.129,-144.531
1692215675.486,-90.820,-189.941,-116.699,-70.312,-137.695
1692215675.490,-93.262,-189.941,-104.980,-74.219,-186.035
1692215675.494,-83.496,-195.312,-131.348,-65.918,-221.680
1692215675.498,-77.148,-201.172,-140.625,-69.336,7.812
1692215675.502,-70.801,-200.195,-120.117,-69.824,112.793
1692215675.505,-71.777,-177.246,-78.613,-66.406,-140.625
1692215675.509,-91.797,-229.492,-68.848,-77.148,-196.777
1692215675.513,-86.426,-278.320,-116.211,-68.848,-18.066
1692215675.517,-55.664,-293.457,-135.254,-51.758,250.977
1692215675.521,-67.871,-328.125,-138.184,-67.383,44.434
1692215675.522,-100.586,-333.496,-153.320,-96.680,-161.133
1692215675.526,-87.402,-322.754,-127.930,-87.402,-11.230
1692215675.530,-84.961,-354.980,-109.375,-85.938,-18.066
1692215675.534,-92.773,-403.809,-102.539,-92.773,-114.258
1692215675.538,-84.961,-460.938,-77.637,-94.727,-56.641
1692215675.542,-93.750,-513.184,-58.594,-112.793,3.906
1692215675.546,-102.051,-546.875,-55.664,-115.234,-15.625
1692215675.549,-89.355,-573.730,-54.688,-91.309,-10.742
1692215675.553,-69.336,-605.957,-25.879,-66.406,-13.184
1692215675.557,-79.102,-772.461,-27.344,-79.102,230.469
1692215675.561,-89.355,-912.598,-62.988,-101.562,354.980
1692215675.565,-77.148,-847.656,-56.641,-101.562,-101.562
1692215675.568,-60.059,-676.758,-14.648,-80.566,-222.168
1692215675.572,-61.523,-486.328,2.441,-70.801,23.926
1692215675.576,-62.012,-313.965,25.391,-71.289,-62.012
1692215675.580,-54.199,-235.840,80.078,-66.895,-194.824
1692215675.584,-69.336,-333.496,122.559,-77.148,-172.363
1692215675.588,-83.496,-466.309,151.367,-75.684,-83.008
1692215675.592,-102.539,-596.191,136.719,-90.332,-53.711
1692215675.595,-115.234,-727.539,136.230,-106.445,-108.398
1692215675.599,-107.422,-754.395,169.922,-116.699,-28.809
1692215675.603,-107.910,-757.812,227.539,-127.441,214.844
1692215675.607,-86.914,-787.598,273.438,-102.539,-3.906
1692215675.611,-92.285,-924.805,150.391,-107.910,-163.086
1692215675.612,-108.887,-1000.000,-6.348,-126.465,-31.738
1692215675.616,-105.469,-978.027,-12.207,-129.395,54.199
1692215675.620,-105.469,-923.340,-14.648,-131.836,-81.055
1692215675.624,-97.168,-862.793,-38.574,-120.117,-136.230
1692215675.628,-99.609,-930.176,-52.734,-113.281,97.168
1692215675.632,-121.094,-1000.000,-51.758,-128.418,96.191
1692215675.636,-130.371,-991.211,16.113,-130.859,21.973
1692215675.639,-141.602,-972.656,81.543,-143.066,-50.293
1692215675.643,-145.996,-990.723,109.375,-133.301,142.090
1692215675.647,-148.926,-1000.000,76.172,-109.863,376.953
1692215675.651,-125.488,-999.023,32.227,-101.562,37.109
1692215675.655,-116.211,-1000.000,-115.723,-117.188,-149.902
1692215675.658,-131.348,-996.094,-344.238,-144.043,-127.441
1692215675.662,-122.559,-998.535,-368.164,-136.719,-190.430
1692215675.666,-125.977,-1000.000,-235.840,-137.695,-193.359
1692215675.670,-94.238,-796.387,-200.195,-105.957,-71.289
1692215675.674,-62.012,-575.195,-371.582,-88.379,11.230
1692215675.678,-104.980,-452.637,-456.543,-139.160,-28.320
1692215675.682,-137.695,-297.363,-456.543,-165.527,-55.176
1692215675.685,-127.441,-247.559,-351.074,-140.137,6.836
1692215675.689,-111.328,-188.965,-27.832,-111.328,88.379
1692215675.693,-105.957,-16.602,257.812,-120.117,-56.641
1692215675.697,-115.234,119.141,417.969,-137.695,-191.895
1692215675.701,-122.070,190.430,589.844,-128.418,-33.691
1692215675.702,-123.047,319.824,664.062,-115.234,162.598
1692215675.706,-109.375,359.375,491.699,-105.957,-29.297
1692215675.710,-101.074,339.355,200.195,-108.398,-88.379
1692215675.714,-121.094,205.078,-165.039,-135.254,64.941
1692215675.718,-110.352,99.121,-395.996,-126.953,-36.133
1692215675.722,-95.215,209.961,-515.137,-102.051,-50.781
1692215675.726,-100.098,271.484,-642.578,-103.027,2.930
1692215675.729,-103.027,277.832,-797.852,-107.910,268.555
1692215675.733,-116.699,315.918,-712.402,-118.164,593.750
1692215675.737,-122.559,487.305,-499.023,-134.277,153.809
1692215675.741,-112.305,656.738,-741.211,-130.859,-152.344
1692215675.745,-104.492,732.910,-997.070,-110.352,-66.406
1692215675.749,-74.707,922.852,-1000.000,-74.219,-132.324
1692215675.753,-84.961,981.445,-949.707,-104.980,-153.809
1692215675.757,-119.629,958.496,-808.594,-145.508,-153.320
1692215675.761,-119.141,969.727,-803.223,-125.488,-153.809
1692215675.765,-86.914,967.773,-884.766,-93.262,-135.742
1692215675.769,-62.500,967.773,-923.828,-82.031,-115.723
1692215675.773,-59.082,967.773,-884.277,-74.707,79.102
1692215675.776,-90.820,967.773,-845.215,-98.633,290.527
1692215675.780,-101.562,967.773,-687.988,-110.352,69.824
1692215675.784,-99.609,967.773,-466.309,-107.910,-67.383
1692215675.788,-90.820,967.773,-345.703,-106.934,-14.648
1692215675.792,-93.750,967.773,-330.566,-120.605,10.254
1692215675.792,-105.469,967.773,-308.594,-132.324,-142.578
1692215675.796,-96.680,967.773,-177.734,-121.094,-172.363
1692215675.800,-91.797,967.773,-96.191,-103.516,-25.391
1692215675.804,-91.309,967.773,-42.480,-95.215,-15.625
1692215675.808,-83.496,967.773,116.699,-92.773,-109.375
1692215675.812,-87.402,967.773,229.004,-100.586,-26.855
1692215675.816,-86.914,967.773,286.133,-97.656,282.227
1692215675.819,-79.590,967.773,375.000,-82.520,279.785
1692215675.823,-63.477,967.773,488.770,-62.012,-18.066
1692215675.827,-56.152,967.773,641.602,-55.664,-126.465
1692215675.831,-84.961,967.773,732.422,-85.449,117.676
1692215675.835,-100.586,967.773,784.668,-98.633,107.910
1692215675.852,-58.105,967.773,847.656,-52.734,-136.719
1692215675.856,-36.133,967.773,747.559,-31.250,-86.426
1692215675.860,-96.680,967.773,426.270,-93.750,39.062
1692215675.864,-109.375,967.773,192.383,-119.141,-43.457
1692215675.868,-69.824,967.773,134.277,-82.031,-150.391
1692215675.872,-77.637,967.773,60.547,-76.172,33.691
1692215675.876,-88.867,967.773,73.242,-90.820,241.699
1692215675.879,-71.777,967.773,77.637,-90.332,-19.531
1692215675.883,-94.238,967.773,-66.406,-118.164,-222.168
1692215675.887,-107.422,967.773,-216.309,-124.023,-146.484
1692215675.891,-89.844,967.773,-342.285,-93.750,-32.227
1692215675.895,-74.219,967.773,-480.957,-77.148,-72.266
1692215675.883,-84.473,967.773,-651.855,-97.656,-104.980
1692215675.887,-106.445,967.773,-751.465,-123.047,-26.855
1692215675.891,-97.168,967.773,-779.785,-119.141,-64.941
1692215675.895,-67.383,967.773,-823.730,-85.938,-179.199
1692215675.899,-63.965,967.773,-885.254,-64.453,-126.465
1692215675.903,-94.238,967.773,-918.945,-82.520,137.695
1692215675.907,-107.422,967.773,-874.023,-104.980,108.398
1692215675.910,-102.051,967.773,-846.680,-107.422,-47.852
1692215675.914,-86.914,967.773,-825.195,-91.797,-80.566
1692215675.918,-83.496,967.773,-819.336,-78.613,172.363
1692215675.922,-78.613,967.773,-897.461,-67.871,226.562
1692215675.926,-79.590,967.773,-991.699,-83.984,-115.234
1692215675.944,-95.703,967.773,-1000.000,-93.262,-137.207
1692215675.948,-76.172,966.797,-997.070,-59.082,-80.078
1692215675.952,-54.688,967.773,-1000.000,-35.645,-125.977
1692215675.956,-74.219,970.215,-1000.000,-58.594,-141.113
1692215675.960,-92.773,919.922,-1000.000,-83.008,38.086
1692215675.964,-84.473,902.832,-999.023,-79.590,246.094
1692215675.968,-80.566,917.480,-1000.000,-79.102,62.012
1692215675.971,-76.172,854.492,-984.863,-71.289,-166.016
1692215675.975,-65.918,820.801,-918.945,-57.129,-61.523
1692215675.979,-84.473,853.027,-822.266,-82.520,132.324
1692215675.983,-92.285,809.082,-810.059,-103.027,-96.680
1692215675.987,-89.355,710.938,-824.707,-91.797,-182.617
1692215675.987,-90.332,643.066,-750.977,-80.078,-8.301
1692215675.991,-84.473,617.676,-672.852,-73.730,4.883
1692215675.995,-85.449,629.395,-608.398,-77.148,-39.062
1692215675.999,-87.402,650.879,-535.156,-86.914,-85.449
1692215676.003,-73.730,632.812,-485.352,-67.871,-1.465
1692215676.007,-64.941,565.430,-451.660,-48.340,126.465
1692215676.011,-64.941,514.160,-421.387,-60.547,96.191
1692215676.014,-71.777,422.852,-430.664,-86.426,47.852
1692215676.018,-66.895,401.367,-428.223,-91.309,212.891
1692215676.022,-54.688,435.059,-384.766,-78.613,391.113
1692215676.026,-47.852,434.570,-318.848,-57.617,100.586
1692215676.030,-51.758,425.781,-309.570,-50.293,-134.766
1692215676.034,-52.734,479.004,-304.199,-51.758,-140.625
1692215676.038,-59.570,479.492,-257.812,-56.641,-175.781
1692215676.042,-75.684,413.574,-279.297,-73.242,-140.625
1692215676.046,-79.590,351.562,-321.777,-65.918,-107.910
1692215676.050,-91.797,313.477,-281.250,-56.152,-74.707
1692215676.054,-92.773,339.844,-210.938,-64.941,-16.113
1692215676.058,-88.379,342.773,-142.578,-73.730,-79.590
1692215676.061,-91.797,251.953,-100.586,-80.078,-94.727
1692215676.065,-92.285,260.254,-96.191,-71.777,224.609
1692215676.069,-62.012,358.887,-142.578,-50.293,81.543
1692215676.073,-44.434,267.090,-147.461,-51.758,-160.156
1692215676.077,-61.523,196.289,-98.145,-67.871,-66.895
1692215676.077,-70.312,264.648,-29.785,-68.848,-55.664
1692215676.081,-82.031,251.465,-28.809,-76.172,-147.461
1692215676.085,-56.152,241.211,13.184,-44.922,-126.465
1692215676.089,-45.898,253.418,49.805,-45.410,-28.809
1692215676.093,-62.012,211.426,45.410,-77.148,-6.348
1692215676.097,-62.988,153.320,43.945,-76.660,6.348
1692215676.101,-65.918,138.184,57.129,-67.871,-21.973
1692215676.104,-60.059,180.176,73.730,-55.176,228.027
1692215676.108,-51.758,264.160,44.434,-63.477,432.129
1692215676.112,-64.941,223.633,10.742,-88.867,-13.184
1692215676.116,-63.965,152.832,14.648,-91.797,-210.938
1692215676.120,-27.832,175.781,24.414,-65.430,-47.852
1692215676.123,-23.926,167.480,-24.902,-69.824,-79.590
1692215676.127,-33.691,145.508,-42.969,-75.684,-150.879
1692215676.131,-26.855,173.340,1.953,-67.871,-117.188
1692215676.135,-79.102,177.734,41.992,-82.520,18.555
1692215676.139,-105.957,196.777,74.219,-74.219,-24.414
1692215676.143,-89.355,207.520,93.262,-57.617,-84.961
1692215676.147,-100.586,103.027,61.523,-68.359,41.504
1692215676.150,-117.188,85.938,58.594,-66.895,262.695
1692215676.154,-119.629,106.445,86.426,-85.938,24.902
1692215676.158,-118.652,47.852,58.105,-98.145,-208.496
1692215676.162,-91.309,75.684,14.648,-60.547,-127.441
1692215676.166,-70.312,46.387,6.348,-41.016,-63.965
1692215676.168,-73.730,-8.789,-19.531,-55.664,-113.770
1692215676.172,-77.148,12.695,7.812,-75.684,-164.062
1692215676.176,-70.312,61.035,43.457,-63.965,11.719
1692215676.180,-65.918,72.754,-30.762,-44.434,54.199
1692215676.184,-43.945,78.613,0.488,-37.109,-47.852
1692215676.188,-54.199,35.156,36.133,-65.918,-34.180
1692215676.192,-80.078,3.906,-41.992,-87.402,200.195
1692215676.195,-53.223,134.766,8.301,-59.082,291.504
1692215676.199,-47.363,134.277,41.016,-52.246,-43.945
1692215676.203,-48.828,17.090,18.555,-55.664,-135.254
1692215676.207,-43.945,29.297,36.621,-66.406,114.746
1692215676.211,-55.664,71.777,35.645,-81.055,17.090
1692215676.230,-56.152,80.566,81.055,-76.660,-210.449
1692215676.234,-55.664,76.172,113.770,-65.918,-190.430
1692215676.238,-37.598,94.727,152.344,-46.387,-82.031
1692215676.242,-2.930,171.875,202.637,-21.973,-40.039
1692215676.246,3.418,213.867,222.656,-26.855,-54.688
1692215676.250,-43.945,94.727,148.438,-84.961,-8.789
1692215676.254,-62.012,28.320,85.449,-85.449,361.328
1692215676.257,-45.898,75.684,119.141,-51.270,184.570
1692215676.261,-52.734,138.672,148.926,-55.176,-200.684
1692215676.265,-75.684,167.969,140.625,-75.195,-71.289
1692215676.269,-83.984,163.574,148.926,-90.332,-7.812
1692215676.273,-60.547,196.289,203.125,-70.801,-165.039
1692215676.272,-48.828,218.262,150.879,-66.406,-131.348
1692215676.276,-62.988,134.766,91.797,-87.891,-28.809
1692215676.280,-74.219,73.730,89.355,-98.145,-92.285
1692215676.284,-72.754,110.352,100.098,-94.727,-187.500
1692215676.288,-65.430,137.207,108.887,-83.984,-120.605
1692215676.292,-31.738,185.059,116.699,-45.898,179.688
1692215676.296,-21.484,220.703,99.121,-40.527,140.625
1692215676.299,-50.293,158.203,20.020,-78.613,-22.949
1692215676.303,-42.969,136.719,3.906,-75.195,-2.930
1692215676.307,-49.316,178.223,21.484,-58.594,196.777
1692215676.311,-54.688,171.875,18.555,-42.969,171.875
1692215676.315,-37.598,101.562,22.949,-30.762,-93.750
1692215676.319,-42.969,56.152,27.344,-41.504,-89.844
1692215676.323,-66.895,52.734,11.719,-53.223,185.059
