timestamps,TP9,AF7,AF8,TP10,Right AUX
1688253359.324,61.035,-62.988,-49.805,-94.727,-313.477
1688253359.328,-97.656,-64.453,-43.457,-56.641,-181.152
1688253359.332,-200.195,-55.664,-33.203,3.418,-18.555
1688253359.336,-61.035,-84.961,-28.809,-1.465,-11.230
1688253359.340,101.074,-93.750,-33.203,-58.594,-171.387
1688253359.344,87.402,-82.031,-37.109,-71.777,86.914
1688253359.348,-65.918,-109.375,-44.434,-42.969,193.359
1688253359.351,-197.754,-151.855,-37.598,1.953,9.277
1688253359.355,-73.730,-83.008,-20.996,17.090,35.156
1688253359.359,98.633,1.465,-37.598,-38.086,196.777
1688253359.363,74.219,-1.465,-55.176,-83.984,61.035
1688253359.367,-63.477,-35.645,-47.852,-67.383,-261.230
1688253359.371,-191.895,-61.035,-44.434,-17.090,-43.457
1688253359.375,-103.516,-47.363,-34.668,15.625,123.047
1688253359.379,82.520,-31.250,-25.391,-26.855,-97.656
1688253359.383,93.262,-66.406,-38.574,-83.496,-261.719
1688253359.387,-25.879,-109.863,-46.875,-64.453,-84.473
1688253359.391,-173.828,-114.746,-43.945,-6.836,107.422
1688253359.395,-113.281,-74.219,-32.227,20.508,134.277
1688253359.398,79.590,-32.715,-20.020,-25.879,-45.898
1688253359.402,97.656,-49.316,-33.691,-79.590,-53.711
1688253359.406,-21.973,-77.637,-34.180,-61.035,123.047
1688253359.410,-175.781,-88.379,-23.926,-8.789,-80.566
1688253359.414,-153.809,-73.242,-24.902,15.137,-63.477
1688253359.414,31.738,-32.227,-24.902,-30.273,21.973
1688253359.418,95.703,-13.184,-32.227,-83.496,-112.305
1688253359.422,-1.465,-49.805,-37.109,-71.777,-280.273
1688253359.426,-149.414,-82.031,-29.297,-5.371,-133.301
1688253359.430,-161.133,-86.426,-21.973,21.973,164.062
1688253359.434,24.414,-74.707,-25.391,-14.648,158.203
1688253359.438,120.605,-87.402,-34.668,-56.641,-62.500
1688253359.441,43.945,-84.961,-33.691,-52.734,-216.797
1688253359.445,-108.887,-56.152,-25.391,11.230,179.688
1688253359.449,-159.668,-64.941,-24.902,49.316,406.738
1688253359.453,12.207,-70.312,-32.715,0.488,-47.363
1688253359.457,119.141,-65.430,-38.086,-55.176,-145.996
1688253359.461,41.016,-49.805,-38.086,-59.570,-79.102
1688253359.465,-126.465,-49.316,-46.875,-25.879,-155.273
1688253359.469,-197.266,-74.219,-49.316,11.230,-30.762
1688253359.473,-27.832,-83.496,-51.758,-9.766,38.086
1688253359.477,104.980,-83.008,-44.434,-59.082,-114.746
1688253359.481,60.547,-81.543,-34.668,-63.965,-179.199
1688253359.485,-83.008,-68.848,-34.180,-28.320,-141.113
1688253359.488,-201.660,-62.988,-36.621,4.883,140.625
1688253359.492,-77.637,-53.223,-29.785,-12.695,287.109
1688253359.496,94.727,-55.176,-20.996,-47.363,-136.230
1688253359.500,67.383,-75.195,-30.273,-65.430,-333.008
1688253359.504,-60.059,-50.781,-33.203,-20.996,-184.570
1688253359.506,-158.203,-24.414,-33.691,45.410,-73.242
1688253359.510,-67.383,-60.547,-31.250,6.836,-38.574
1688253359.514,89.355,-67.383,-14.648,-62.012,-75.684
1688253359.518,81.543,-31.738,-0.488,-73.730,-96.680
1688253359.522,-60.059,-30.273,-9.766,-42.480,-73.730
1688253359.526,-201.660,-31.250,-27.344,-11.230,45.898
1688253359.530,-140.625,-29.297,-44.434,-26.367,74.219
1688253359.533,40.039,-37.598,-43.945,-67.871,200.684
1688253359.537,67.871,-24.414,-32.227,-89.844,176.758
1688253359.541,-67.383,-16.602,-33.691,-77.148,-169.922
1688253359.545,-227.051,-62.988,-58.594,-45.898,-103.516
1688253359.549,-154.785,-76.172,-58.594,-23.438,30.762
1688253359.565,54.688,-38.086,-34.180,-58.105,-126.465
1688253359.569,101.562,-28.809,-27.832,-85.449,-299.805
1688253359.573,-7.324,-34.180,-22.461,-49.316,-197.754
1688253359.577,-159.668,-45.898,-24.414,1.953,-6.348
1688253359.581,-128.418,-67.871,-33.203,23.438,68.359
1688253359.585,52.734,-59.082,-42.969,-28.320,-46.387
1688253359.589,95.703,-82.031,-52.246,-86.426,38.574
1688253359.592,-2.930,-93.262,-42.969,-62.012,361.328
1688253359.596,-144.043,-86.426,-28.809,-2.441,140.137
1688253359.600,-133.301,-53.711,-15.625,36.621,-77.148
1688253359.604,50.781,22.461,-7.812,1.953,-84.473
1688253359.608,122.559,44.434,-22.949,-67.871,-190.430
1688253359.594,29.297,14.160,-39.062,-64.941,-262.695
1688253359.598,-127.441,-23.438,-31.738,-0.977,-167.480
1688253359.602,-156.738,-13.184,-21.484,37.598,-4.883
1688253359.606,21.973,-9.277,-22.461,-2.441,-20.996
1688253359.610,128.418,-28.320,-26.367,-65.430,-99.609
1688253359.614,51.270,-38.574,-29.297,-45.898,-70.801
1688253359.618,-112.305,-73.242,-37.598,6.836,268.066
1688253359.621,-173.828,-67.383,-39.062,19.531,334.473
1688253359.625,-6.836,-24.414,-31.250,-14.648,22.461
1688253359.629,131.348,-24.414,-23.926,-58.594,-191.406
1688253359.633,58.594,-67.383,-35.645,-71.777,64.453
1688253359.637,-125.488,-76.660,-51.270,-49.805,216.309
1688253359.654,-221.191,-35.156,-49.316,-7.324,-70.801
1688253359.658,-59.082,10.742,-26.367,-9.277,-62.988
1688253359.662,101.562,-8.789,-26.367,-58.105,-127.441
1688253359.666,71.289,-31.250,-46.387,-78.125,-265.137
1688253359.670,-70.312,-24.902,-45.410,-36.133,-259.766
1688253359.674,-182.617,-45.898,-29.785,18.066,180.664
1688253359.678,-61.523,-57.129,-29.785,-5.371,434.570
1688253359.681,112.305,-47.363,-28.320,-56.152,-10.742
1688253359.685,87.891,-108.887,-28.809,-79.102,-261.230
1688253359.689,-62.988,-94.238,-37.109,-43.457,-60.547
1688253359.693,-187.500,-5.859,-36.621,15.625,71.289
1688253359.697,-83.984,13.184,-33.203,6.348,-93.750
1688253359.699,106.445,-19.043,-41.992,-30.273,-217.285
1688253359.703,120.117,-29.297,-47.363,-33.691,-166.016
1688253359.707,-32.715,-42.969,-42.969,-29.785,-126.953
1688253359.711,-198.730,-64.941,-38.574,-13.184,-131.348
1688253359.715,-147.949,-40.527,-45.410,-21.484,25.879
1688253359.719,34.668,-33.691,-46.387,-72.266,117.188
1688253359.723,88.379,-14.160,-27.832,-86.914,-17.090
1688253359.726,-43.945,-26.855,-35.645,-78.613,-184.082
1688253359.730,-195.801,-56.641,-38.574,-29.297,-133.301
1688253359.734,-142.578,-89.355,-25.879,6.348,260.742
1688253359.738,44.434,-73.730,-35.645,-51.270,153.320
1688253359.742,88.379,-36.133,-57.129,-109.863,-273.438
1688253359.746,-31.250,-63.477,-66.406,-92.773,-117.676
1688253359.750,-183.594,-45.410,-68.848,-36.621,62.012
1688253359.754,-171.875,-19.043,-67.383,-10.254,-45.410
1688253359.758,12.695,-44.434,-57.617,-41.016,-145.020
1688253359.762,97.656,-50.781,-27.832,-72.754,-214.844
1688253359.766,23.438,-50.781,-18.066,-52.246,-122.559
1688253359.770,-138.672,-72.754,-32.227,-11.719,7.324
1688253359.773,-187.012,-66.406,-31.738,-1.953,-44.922
1688253359.777,-2.930,-55.664,-37.109,-29.297,117.188
1688253359.781,106.445,-34.180,-38.574,-71.777,160.156
1688253359.785,19.531,-31.738,-43.945,-85.938,-235.352
1688253359.789,-137.207,-43.945,-44.434,-34.180,-250.977
1688253359.789,-186.523,-25.879,-27.832,8.789,-41.016
1688253359.793,-18.066,-17.090,-23.438,-14.648,-42.480
1688253359.797,109.863,-57.617,-41.016,-56.152,-96.191
1688253359.801,45.898,-85.938,-54.688,-70.312,-111.328
1688253359.805,-116.211,-65.918,-47.852,-30.762,105.957
1688253359.809,-199.707,-46.387,-30.273,12.207,284.180
1688253359.813,-35.156,-38.086,-29.297,-3.418,112.793
1688253359.816,104.004,-43.945,-34.180,-57.617,-157.715
1688253359.820,52.246,-50.781,-36.621,-70.801,9.766
1688253359.824,-94.238,-31.250,-39.062,-31.738,164.062
1688253359.828,-193.848,-21.484,-43.457,11.719,-112.793
1688253359.832,-62.988,-83.496,-51.758,-1.465,-129.883
1688253359.836,87.402,-117.676,-41.992,-69.824,-167.480
1688253359.840,63.965,-74.219,-28.809,-90.332,-307.617
1688253359.844,-77.148,-26.367,-25.879,-40.527,-267.578
1688253359.848,-203.125,-3.906,-34.668,17.578,12.695
1688253359.852,-84.961,-14.160,-37.598,17.578,103.516
1688253359.856,92.285,-71.777,-35.645,-43.457,-51.758
1688253359.860,85.938,-81.543,-36.133,-81.543,-122.070
1688253359.863,-48.828,-57.129,-23.438,-36.621,55.176
1688253359.867,-175.781,-52.734,-6.348,21.973,392.090
1688253359.871,-107.422,-62.012,-18.555,4.395,188.477
1688253359.875,73.242,-58.105,-33.691,-52.734,-169.434
1688253359.879,91.309,-70.801,-43.457,-96.680,-240.234
1688253359.879,-46.387,-119.629,-49.316,-76.172,-229.492
1688253359.883,-187.500,-82.031,-42.969,-0.488,-62.012
1688253359.887,-132.812,-25.391,-38.574,20.996,50.781
1688253359.891,58.594,-13.184,-37.109,-37.598,39.551
1688253359.895,102.539,2.441,-38.086,-72.754,-30.273
1688253359.899,1.465,-24.902,-30.762,-37.109,-35.645
1688253359.903,-150.391,-68.359,-21.484,8.301,84.473
1688253359.906,-148.438,-99.121,-18.066,20.508,430.664
1688253359.910,47.852,-99.121,-10.254,-13.184,523.438
1688253359.914,131.348,-24.414,-7.812,-62.012,-82.031
1688253359.918,20.996,-14.648,-21.484,-64.453,-273.926
1688253359.922,-153.320,-89.355,-19.043,-12.207,-94.727
1688253359.926,-185.547,-89.844,-27.832,11.719,-75.195
1688253359.930,-3.906,-35.156,-47.363,-33.691,-173.828
1688253359.934,107.910,-2.441,-33.691,-76.172,-236.816
1688253359.938,37.598,-18.066,-15.625,-74.219,-239.746
1688253359.942,-120.605,-69.336,-20.508,-20.508,-126.953
1688253359.946,-173.340,-85.938,-32.715,19.043,71.777
1688253359.950,0.000,-75.195,-40.527,-27.344,205.078
1688253359.953,117.676,-72.266,-43.945,-83.008,149.902
1688253359.957,43.945,-53.711,-39.551,-80.566,-221.680
1688253359.961,-117.676,-31.250,-49.316,-29.785,-246.094
1688253359.965,-192.383,-39.062,-55.664,5.371,117.188
1688253359.969,-34.668,-53.711,-39.551,-26.367,98.145
1688253359.969,102.051,-35.645,-32.227,-76.172,-208.008
1688253359.973,58.594,-39.062,-39.062,-69.336,-266.602
1688253359.977,-99.609,-89.844,-47.852,-28.320,-138.672
1688253359.981,-194.336,-110.840,-48.340,14.648,12.695
1688253359.985,-31.738,-67.383,-43.457,0.977,61.035
1688253359.989,125.977,-11.719,-41.992,-65.918,-93.750
1688253359.993,80.078,-44.434,-43.457,-81.543,138.184
1688253359.996,-86.914,-74.707,-44.922,-43.945,312.988
1688253360.000,-205.078,-41.504,-34.668,8.789,-39.062
1688253360.004,-74.707,-26.367,-24.902,1.465,-66.406
1688253360.008,95.215,-11.719,-37.109,-64.453,-91.797
1688253360.012,86.426,2.441,-53.711,-87.402,-263.672
1688253360.044,-58.105,-35.645,-60.547,-61.523,-257.812
1688253360.048,-205.078,-83.984,-62.988,-21.484,55.176
1688253360.052,-110.352,-79.102,-61.035,-1.465,199.707
1688253360.056,85.938,-33.691,-39.551,-41.016,-65.430
1688253360.060,98.633,-4.883,-19.531,-58.594,-261.719
1688253360.064,-41.016,-75.684,-26.367,-34.180,-62.500
1688253360.068,-187.988,-94.727,-39.551,-9.766,210.938
1688253360.071,-119.141,-37.109,-48.828,1.953,74.707
1688253360.075,63.965,-18.066,-49.316,-43.945,-150.879
1688253360.079,87.891,-33.691,-52.734,-79.102,-84.961
1688253360.083,-18.555,-51.758,-42.480,-53.223,22.949
1688253360.087,-169.922,-56.152,-41.504,-16.113,-89.844
1688253360.074,-146.484,-39.062,-44.434,8.301,-43.945
1688253360.078,49.805,-25.391,-29.297,-14.648,-46.875
1688253360.082,111.816,-36.621,-28.320,-71.289,-192.871
1688253360.086,-5.371,-31.738,-43.945,-63.965,-194.336
1688253360.090,-178.223,-52.734,-51.270,-16.602,-63.965
1688253360.094,-178.711,-47.852,-51.270,-4.395,329.102
1688253360.098,24.414,-20.996,-49.805,-45.410,345.703
1688253360.101,126.953,-22.461,-30.273,-81.055,-205.078
1688253360.105,36.133,-34.668,-33.203,-61.523,-297.363
1688253360.109,-129.883,-77.637,-43.457,-8.789,-31.738
1688253360.113,-163.086,-97.656,-23.438,23.926,31.738
1688253360.117,14.160,-46.387,-28.809,-11.230,-133.301
1688253360.121,103.027,-15.137,-64.941,-83.496,-174.316
1688253360.125,17.578,-57.129,-69.336,-94.238,47.363
1688253360.129,-136.719,-102.539,-46.875,-40.527,-7.324
1688253360.133,-191.895,-97.168,-27.344,3.906,-106.934
1688253360.137,-12.695,-66.895,-21.484,-11.230,5.371
1688253360.141,121.582,-42.969,-28.809,-59.570,28.809
1688253360.145,50.293,-29.297,-33.691,-73.242,-60.059
1688253360.148,-105.957,-32.715,-35.645,-33.203,-89.844
1688253360.152,-183.105,-34.180,-36.133,19.043,156.738
1688253360.156,-28.809,-43.945,-33.691,1.953,437.012
1688253360.160,104.492,-69.824,-44.922,-81.543,19.531
1688253360.164,58.105,-97.656,-55.176,-99.609,-325.684
1688253360.165,-92.285,-74.707,-50.781,-41.992,-209.473
1688253360.169,-208.008,-72.266,-51.758,9.766,-43.945
1688253360.173,-76.660,-84.473,-53.711,-12.207,-54.199
1688253360.177,90.332,-66.895,-45.410,-76.660,-201.660
1688253360.181,81.055,-65.430,-32.227,-81.055,-125.000
1688253360.185,-43.945,-82.520,-33.203,-30.762,2.441
1688253360.189,-177.246,-70.312,-34.180,11.230,111.328
1688253360.192,-84.473,-27.344,-24.414,11.719,108.398
1688253360.196,87.402,-38.086,-33.203,-29.297,203.613
1688253360.200,91.309,-30.762,-44.434,-60.059,229.492
1688253360.204,-30.273,-8.789,-44.922,-38.086,-150.879
1688253360.208,-177.246,-40.039,-36.133,25.391,-177.734
1688253360.211,-114.258,-61.523,-31.250,26.855,-74.219
1688253360.215,70.312,-61.035,-35.645,-47.363,-195.312
1688253360.219,100.586,-51.270,-39.551,-83.496,-291.016
1688253360.223,-10.254,-67.383,-32.715,-43.945,-190.918
1688253360.227,-164.062,-98.633,-34.668,11.230,-29.297
1688253360.231,-135.742,-42.480,-38.086,23.926,39.551
1688253360.235,63.477,25.391,-26.367,-12.207,-8.301
1688253360.238,118.164,-21.484,-29.297,-57.129,8.789
1688253360.242,-0.977,-87.402,-42.480,-60.059,145.996
1688253360.246,-160.156,-60.547,-55.176,-13.184,-11.230
1688253360.250,-155.762,-28.809,-48.828,17.578,16.602
1688253360.254,37.598,-13.672,-31.250,-14.648,152.344
1688253360.270,114.746,-1.465,-31.250,-68.848,-75.684
1688253360.274,21.484,-22.461,-20.508,-59.082,-311.523
1688253360.278,-137.695,-62.988,-20.508,0.977,-217.773
1688253360.282,-163.086,-63.477,-29.297,25.391,-50.781
1688253360.286,21.973,-49.805,-22.461,-19.043,-1.465
1688253360.290,124.023,-28.809,-27.832,-64.453,-84.961
1688253360.294,34.180,-24.902,-27.832,-63.965,-192.871
1688253360.297,-136.719,-66.895,-30.273,-19.043,173.828
1688253360.301,-163.574,-42.969,-39.551,37.598,365.234
1688253360.305,-0.488,-16.113,-41.016,-15.625,-49.805
1688253360.309,82.520,-34.180,-43.457,-108.887,-259.766
1688253360.313,32.715,-5.371,-21.484,-94.727,-281.738
1688253360.302,-124.512,-9.766,-27.344,-40.527,-224.609
1688253360.306,-226.074,-55.664,-55.176,-26.855,-77.637
1688253360.310,-61.523,-31.738,-47.363,-58.594,60.547
1688253360.314,87.402,-15.625,-41.992,-111.816,-1.465
1688253360.318,26.855,-37.598,-47.363,-135.742,-251.953
1688253360.322,-145.508,-52.246,-50.781,-112.793,-203.125
1688253360.326,-273.926,-64.453,-50.781,-94.238,186.035
1688253360.329,-138.672,-11.230,-50.781,-112.305,219.238
1688253360.333,48.828,25.391,-58.594,-143.066,-97.656
1688253360.337,38.574,-38.574,-36.621,-146.484,-251.465
1688253360.341,-114.258,-72.754,-42.969,-117.188,31.250
1688253360.345,-230.957,10.742,-65.430,-68.848,343.262
1688253360.344,-112.305,91.309,-51.270,-64.453,54.199
1688253360.348,61.035,83.496,-61.035,-114.746,-158.203
1688253360.352,53.223,21.973,-68.848,-145.020,-224.609
1688253360.356,-53.711,2.441,-30.273,-72.754,-160.156
1688253360.360,-166.016,2.930,-12.207,8.301,-31.738
1688253360.364,-97.656,-1.953,-38.086,-17.578,-13.672
1688253360.368,88.867,-61.523,-69.336,-71.289,213.867
1688253360.371,99.121,-98.633,-71.289,-98.145,413.086
1688253360.375,-22.461,-59.082,-30.273,-71.777,45.410
1688253360.379,-171.387,-80.566,-39.551,-27.344,-108.887
1688253360.383,-120.117,-103.516,-81.055,-13.672,27.832
1688253360.387,82.031,-58.105,-67.383,-39.551,-95.703
1688253360.404,125.488,11.230,-50.781,-81.543,-298.828
1688253360.408,15.625,-14.648,-44.922,-55.664,-230.957
1688253360.412,-150.879,-41.504,-31.738,-1.953,-36.621
1688253360.416,-145.996,-62.500,-25.879,-0.977,-5.371
1688253360.420,48.828,-125.488,-19.531,-39.062,-77.148
1688253360.424,122.070,-164.551,-24.902,-64.941,-7.324
1688253360.428,26.367,-180.664,-28.809,-48.828,8.301
1688253360.431,-130.859,-179.199,-26.367,-4.395,28.320
1688253360.435,-160.156,-166.992,-38.086,11.230,9.766
1688253360.439,10.254,-167.480,-42.480,-36.133,51.270
1688253360.443,113.770,-154.297,-37.109,-63.965,145.020
1688253360.447,40.039,-116.699,-38.574,-60.547,-154.297
1688253360.450,-130.371,-131.836,-43.457,-16.113,-166.016
1688253360.454,-161.133,-160.645,-29.785,38.086,6.348
1688253360.458,28.320,-107.422,-27.832,6.348,-46.875
1688253360.462,128.906,-125.977,-47.363,-60.059,-232.910
1688253360.466,41.992,-182.617,-47.363,-73.242,-244.141
1688253360.470,-124.023,-184.570,-46.387,-21.484,97.168
1688253360.474,-190.918,-179.199,-37.598,22.461,240.234
1688253360.477,-38.086,-180.664,-32.227,-17.578,49.316
1688253360.481,100.098,-185.547,-44.434,-74.219,-92.773
1688253360.485,63.965,-180.176,-50.781,-78.613,135.742
1688253360.489,-85.449,-154.297,-41.016,-33.203,163.574
1688253360.493,-183.105,-163.574,-31.250,17.578,-144.043
1688253360.495,-32.227,-179.199,-25.391,12.695,-91.309
1688253360.499,133.301,-183.594,-26.367,-34.180,-137.207
1688253360.503,93.262,-200.684,-21.973,-49.316,-275.391
1688253360.507,-67.871,-197.754,-22.949,-25.879,-227.051
1688253360.511,-195.312,-205.078,-37.598,14.648,25.879
1688253360.515,-77.148,-192.383,-45.410,4.395,213.867
1688253360.519,97.168,-176.270,-47.852,-55.664,40.039
1688253360.522,90.820,-167.969,-38.086,-66.406,-216.797
1688253360.526,-50.293,-178.223,-25.879,-21.484,-30.273
1688253360.530,-177.246,-215.332,-18.555,5.371,252.441
1688253360.534,-78.613,-223.145,-23.438,-12.695,57.617
1688253360.538,87.891,-245.117,-32.715,-51.270,-118.652
1688253360.539,103.027,-241.699,-28.809,-74.707,-185.059
1688253360.543,-18.555,-217.285,-35.156,-44.922,-128.906
1688253360.547,-179.688,-214.844,-46.875,-12.207,-99.121
1688253360.551,-118.164,-225.586,-34.668,-6.348,-17.090
1688253360.555,83.496,-241.211,-37.598,-36.621,102.051
1688253360.559,119.141,-184.082,-41.016,-60.547,7.812
1688253360.563,-10.254,-139.160,-45.410,-50.781,-128.418
1688253360.566,-179.199,-159.668,-52.734,-14.160,-72.754
1688253360.570,-147.949,-165.039,-46.875,16.113,270.996
1688253360.574,50.781,-123.047,-43.457,-20.508,274.414
1688253360.578,117.188,-90.820,-49.316,-66.895,-272.949
1688253360.582,15.625,-105.469,-34.668,-54.199,-287.598
1688253360.587,-145.020,-104.980,-20.508,-3.906,-21.484
1688253360.591,-155.762,-106.445,-30.762,9.766,33.691
1688253360.595,18.555,-147.461,-37.598,-39.062,-91.797
1688253360.599,103.516,-172.363,-38.086,-82.520,-138.672
1688253360.603,21.973,-141.602,-32.227,-61.523,-58.594
1688253360.607,-142.090,-102.539,-41.992,-6.836,-0.977
1688253360.611,-194.824,-76.172,-59.082,5.859,61.035
1688253360.614,-16.602,-41.992,-59.082,-15.625,159.180
1688253360.618,106.445,-14.648,-45.898,-62.012,155.762
1688253360.622,34.180,-21.484,-43.457,-85.449,-204.590
1688253360.626,-131.348,-44.922,-47.363,-33.203,-261.230
1688253360.630,-196.289,-85.938,-50.293,5.371,-36.133
1688253360.630,-25.879,-119.141,-53.711,-27.344,-32.715
1688253360.634,110.352,-90.332,-44.434,-71.289,-175.781
1688253360.638,56.152,-77.637,-36.133,-78.125,-286.133
1688253360.642,-104.004,-90.820,-42.969,-38.086,-132.812
1688253360.646,-192.383,-92.773,-37.598,21.484,147.461
1688253360.650,-41.504,-26.367,-23.438,8.301,131.836
1688253360.654,96.680,-18.066,-32.227,-69.336,-65.430
1688253360.657,64.941,-60.059,-35.156,-76.660,46.875
1688253360.661,-94.238,-62.012,-36.621,-31.738,289.062
1688253360.665,-213.867,-41.016,-35.156,3.906,76.172
1688253360.669,-60.547,-14.160,-20.020,-6.348,-89.844
1688253360.673,120.117,-27.832,-26.855,-43.457,-97.656
1688253360.676,87.891,-63.965,-40.039,-66.406,-236.328
1688253360.680,-75.684,-19.043,-31.250,-57.129,-249.023
1688253360.684,-212.891,-41.016,-22.461,-12.695,-35.645
1688253360.688,-122.559,-116.699,-37.598,-24.414,79.102
1688253360.692,67.871,-55.664,-33.203,-72.266,-97.168
1688253360.696,77.148,25.391,-39.062,-94.238,-189.941
1688253360.700,-73.242,30.762,-57.617,-85.449,63.477
1688253360.703,-206.543,-0.488,-44.434,-19.531,413.086
1688253360.707,-132.324,-39.062,-32.715,-7.324,128.418
1688253360.711,57.129,-110.840,-20.996,-58.594,-212.891
1688253360.715,87.402,-113.281,-32.227,-81.543,-189.453
1688253360.719,-21.484,-41.016,-47.852,-59.082,-183.105
1688253360.719,-159.668,11.230,-34.180,-10.742,-115.723
1688253360.723,-123.047,-33.691,-20.508,10.254,-19.531
1688253360.727,65.430,-104.980,-16.113,-27.344,-8.789
1688253360.731,129.395,-87.891,0.977,-48.340,-161.133
1688253360.735,19.531,-66.406,-3.906,-45.410,-182.129
1688253360.739,-160.645,-75.195,-34.668,-27.832,37.109
1688253360.743,-156.738,-112.305,-46.875,-3.418,385.742
1688253360.746,35.156,-157.227,-51.270,-39.062,476.074
1688253360.750,121.094,-184.082,-39.062,-74.219,-101.562
1688253360.754,20.020,-200.684,-41.016,-72.266,-268.555
1688253360.758,-157.227,-207.031,-49.805,-37.109,-20.508
1688253360.762,-162.109,-173.340,-28.809,1.465,-8.301
1688253360.766,43.457,-139.648,-3.906,-6.836,-124.512
1688253360.770,140.137,-162.598,-9.766,-36.621,-187.988
1688253360.774,44.922,-190.430,-42.480,-57.617,-223.145
1688253360.778,-135.254,-213.379,-63.965,-36.133,-143.555
1688253360.782,-189.453,-241.699,-53.711,-0.977,-36.621
1688253360.786,-12.695,-250.000,-41.504,-28.320,139.160
1688253360.790,113.281,-194.336,-36.133,-74.707,176.270
1688253360.793,63.477,-214.355,-18.555,-69.336,-116.699
1688253360.797,-94.238,-284.180,-17.578,-15.625,-185.547
1688253360.801,-185.059,-240.234,-41.504,25.391,139.160
1688253360.805,-31.250,-160.156,-45.410,-2.930,177.734
1688253360.809,117.188,-172.852,-38.574,-70.801,-169.922
1688253360.824,62.500,-168.945,-47.363,-85.938,-309.082
1688253360.828,-96.191,-129.883,-37.598,-27.344,-104.492
1688253360.832,-192.383,-127.441,-24.902,28.809,68.359
1688253360.836,-57.129,-161.621,-34.180,10.742,-38.086
1688253360.840,91.309,-222.168,-38.574,-55.176,-97.656
1688253360.844,53.711,-319.336,-32.715,-65.430,143.066
1688253360.848,-72.754,-280.762,-22.461,-12.695,230.957
1688253360.851,-202.148,-141.113,-34.180,13.184,5.371
1688253360.855,-94.238,-128.418,-44.922,-20.020,-31.250
1688253360.859,90.332,-153.320,-40.527,-56.641,48.340
1688253360.863,76.172,-137.695,-47.852,-70.801,-131.836
1688253360.867,-49.316,-149.414,-32.227,-41.016,-331.543
1688253360.872,-185.547,-161.133,-14.648,12.695,-102.539
1688253360.876,-106.445,-174.805,-31.250,15.137,37.598
1688253360.880,92.285,-203.613,-36.621,-26.367,-118.164
1688253360.884,121.094,-146.973,-20.020,-52.246,-313.965
1688253360.888,-11.230,-90.332,-17.578,-32.227,-163.574
1688253360.892,-178.223,-98.633,-30.762,13.184,116.699
1688253360.896,-148.926,-95.215,-61.035,0.000,136.230
1688253360.899,43.457,-125.488,-54.688,-56.641,-59.082
1688253360.903,107.422,-182.129,-32.227,-74.219,-46.875
1688253360.907,-2.930,-133.789,-27.344,-53.711,149.902
1688253360.911,-158.203,-51.758,-19.531,-5.859,-0.977
1688253360.915,-140.625,-97.168,-30.273,17.578,-36.133
1688253360.914,68.359,-117.188,-8.301,-1.465,-36.133
1688253360.918,145.508,-126.953,8.789,-39.062,-146.973
1688253360.922,14.648,-126.465,-23.926,-62.500,-231.934
1688253360.926,-145.020,-64.453,-32.715,-8.789,-137.695
1688253360.930,-149.414,-43.945,-20.996,23.926,163.086
1688253360.934,15.625,-54.688,-38.086,-38.574,143.066
1688253360.938,100.586,-93.750,-62.012,-88.867,-88.379
1688253360.941,29.785,-118.652,-38.086,-53.223,-105.469
1688253360.945,-129.395,-86.914,-20.508,2.441,266.113
1688253360.949,-171.875,-80.566,-33.203,18.066,520.508
1688253360.953,6.348,-141.602,-30.273,-16.113,60.059
1688253360.957,119.629,-166.016,-29.785,-62.988,-253.906
1688253360.974,54.688,-166.504,-28.320,-65.918,-209.961
1688253360.978,-103.516,-124.512,-22.461,-16.602,-184.082
1688253360.982,-164.062,-76.660,7.324,36.133,-65.430
1688253360.986,-9.766,-153.809,9.766,-5.371,29.297
1688253360.990,111.328,-198.730,-25.391,-70.312,-94.238
1688253360.994,48.828,-189.453,-42.480,-79.102,-145.996
1688253360.998,-117.676,-198.730,-48.828,-43.945,-77.637
1688253361.001,-206.055,-187.012,-35.156,1.953,203.125
1688253361.005,-47.852,-178.711,-10.742,-2.441,454.102
1688253361.009,121.582,-171.875,-11.230,-45.410,15.625
1688253361.013,80.078,-159.180,-22.461,-64.453,-333.496
1688253361.017,-91.309,-172.363,-36.133,-55.664,-199.219
1688253361.004,-211.914,-166.016,-31.738,-18.555,-67.871
1688253361.008,-70.312,-118.164,-18.066,-4.395,-44.434
1688253361.012,124.512,-111.816,-27.832,-52.246,-172.852
1688253361.016,80.078,-154.297,-32.227,-91.309,-240.723
1688253361.020,-83.008,-190.430,-37.598,-61.035,-141.113
1688253361.024,-211.426,-175.293,-55.664,-20.020,-37.109
1688253361.028,-94.727,-117.188,-30.273,-3.418,59.570
1688253361.031,115.723,-85.938,-4.883,-35.645,215.820
1688253361.035,112.793,-70.801,-17.578,-77.637,19.531
1688253361.039,-23.438,-87.891,-20.996,-50.293,-216.309
1688253361.043,-162.598,-120.605,-20.020,18.555,-116.211
1688253361.047,-96.191,-110.840,-14.648,29.297,256.836
1688253361.051,94.727,-76.172,-18.555,-23.926,207.520
1688253361.055,128.418,-73.730,-25.879,-46.387,-329.102
1688253361.059,3.418,-96.191,-21.484,-24.902,-298.828
1688253361.063,-146.484,-124.512,-3.418,16.602,-91.309
1688253361.067,-114.746,-102.051,-0.977,26.367,-57.617
1688253361.071,56.641,-98.145,-25.879,-24.414,-114.746
1688253361.075,112.793,-111.816,-39.062,-62.500,21.973
1688253361.078,9.766,-75.195,-40.039,-53.711,167.969
1688253361.082,-159.668,-49.805,-39.062,-17.090,-23.438
1688253361.086,-152.832,-84.473,-23.926,26.855,-83.008
1688253361.090,56.152,-83.984,-11.719,3.418,-53.711
1688253361.094,143.066,-45.898,-16.113,-37.598,-126.953
1688253361.095,55.664,-61.035,-0.488,-26.367,-145.020
1688253361.099,-123.535,-104.004,-3.418,3.906,-113.770
1688253361.103,-153.809,-133.789,-19.043,26.855,99.609
1688253361.107,34.180,-104.004,-20.508,-10.742,57.617
1688253361.111,125.000,-65.918,-27.832,-50.293,-194.336
1688253361.115,42.969,-58.105,-49.316,-57.617,-177.734
1688253361.119,-113.770,-43.945,-44.922,-19.043,305.664
1688253361.122,-175.781,-31.738,-16.602,36.133,458.496
1688253361.126,0.977,-29.297,-2.441,9.766,-44.434
1688253361.130,141.602,-24.902,-7.812,-41.504,-206.543
1688253361.134,82.520,-34.180,-21.973,-50.293,-152.344
1688253361.138,-89.355,-93.750,-24.902,-6.348,-180.176
1688253361.155,-205.078,-78.613,-19.531,18.066,-131.836
1688253361.159,-59.570,-35.645,-34.668,-31.738,-41.016
1688253361.163,107.422,-52.246,-31.738,-81.055,-75.684
1688253361.167,76.172,-47.363,-18.555,-76.172,-171.875
1688253361.171,-85.449,-67.383,-18.066,-33.203,-165.039
1688253361.175,-206.055,-91.797,-20.996,11.230,216.797
1688253361.179,-67.383,-48.340,-29.297,9.766,587.891
1688253361.182,107.422,23.438,-25.391,-47.852,117.676
1688253361.186,94.727,9.277,-20.020,-64.453,-291.504
1688253361.190,-44.922,-76.172,-15.137,-18.555,-142.578
1688253361.194,-195.312,-89.844,-2.930,14.648,22.461
1688253361.198,-110.840,-1.465,-20.508,-5.859,-33.203
1688253361.199,72.266,19.043,-47.363,-45.898,-192.383
1688253361.203,91.309,-51.270,-17.578,-58.105,-244.141
1688253361.207,-40.039,-75.195,5.371,-45.410,-192.383
1688253361.211,-184.082,-25.879,-21.973,-7.324,-65.430
1688253361.215,-110.352,-18.066,-35.156,-2.441,32.715
1688253361.219,84.961,-42.480,-16.602,-39.551,232.422
1688253361.223,116.211,-19.043,-2.930,-58.105,108.398
1688253361.226,-29.785,-50.781,-19.043,-58.594,-132.812
1688253361.230,-191.406,-58.105,-28.320,-15.137,-68.848
1688253361.234,-128.418,-50.293,-9.766,20.020,242.676
1688253361.238,43.945,-82.520,-17.578,-37.109,200.684
1688253361.242,93.750,-20.996,-23.926,-77.148,-278.320
1688253361.245,14.160,11.719,-15.625,-25.879,-229.492
1688253361.249,-155.762,9.277,-32.227,22.461,13.672
1688253361.253,-154.297,-22.949,-39.062,23.438,59.570
1688253361.257,38.086,-48.340,-24.902,-22.461,-77.637
1688253361.261,110.352,-70.801,-28.320,-77.148,-205.566
1688253361.265,16.113,-92.773,-28.809,-72.266,-150.391
1688253361.269,-135.254,-27.344,-16.113,-7.812,-8.301
1688253361.272,-153.320,-11.230,-9.277,28.320,75.684
1688253361.276,20.508,-78.613,-22.461,-10.742,127.930
1688253361.280,134.766,-118.652,-20.508,-48.828,236.816
1688253361.284,71.777,-52.734,2.441,-38.574,-48.828
1688253361.288,-88.867,-0.977,-18.555,6.836,-197.266
1688253361.289,-163.086,-12.695,-33.203,24.414,6.348
1688253361.293,-6.836,-38.574,-15.137,-9.766,-62.500
1688253361.297,128.906,-130.859,-3.418,-47.363,-255.859
1688253361.301,44.922,-209.961,-7.324,-46.387,-232.910
1688253361.305,-129.395,-168.457,-20.508,-3.418,63.477
1688253361.309,-179.688,-98.633,-24.414,22.949,142.578
1688253361.313,-13.672,-60.059,-22.949,-2.441,-7.812
1688253361.316,130.371,-54.199,-11.230,-46.387,-149.414
1688253361.320,79.102,-89.355,-14.648,-61.035,32.715
1688253361.324,-66.895,-106.934,-10.742,-5.859,237.305
1688253361.328,-166.016,-77.148,-2.441,43.945,8.789
1688253361.332,-28.809,-65.430,-10.742,11.719,-79.590
1688253361.337,111.328,-79.590,-18.555,-55.176,-56.641
1688253361.341,58.594,-92.773,-27.832,-83.496,-247.070
1688253361.345,-81.543,-130.371,-32.715,-55.664,-282.715
1688253361.349,-198.730,-158.691,-28.809,-8.301,-34.668
1688253361.353,-85.449,-139.160,-19.043,-7.324,59.082
1688253361.357,88.379,-103.516,-32.715,-60.547,-70.312
1688253361.361,78.125,-87.402,-36.133,-83.008,-140.625
1688253361.364,-50.781,-90.332,-33.203,-40.039,13.672
1688253361.368,-167.480,-68.359,-11.719,38.574,295.410
1688253361.372,-89.844,-62.012,5.371,22.461,115.723
1688253361.376,73.730,-83.008,-20.020,-61.523,-171.387
1688253361.380,94.238,-71.289,-44.922,-83.496,-228.516
1688253361.394,-24.414,-69.336,-44.922,-43.945,-147.949
1688253361.398,-182.617,-78.125,-28.809,2.930,-103.516
1688253361.402,-139.648,-71.289,-30.762,-1.953,-59.082
1688253361.406,60.059,-73.242,-42.969,-48.340,20.508
1688253361.410,110.352,-70.312,-34.668,-56.152,-110.840
1688253361.414,3.906,-31.738,-28.809,-30.762,-94.727
1688253361.418,-151.367,-24.414,-22.949,14.160,40.039
1688253361.421,-153.320,-68.848,-31.250,12.207,304.688
1688253361.425,20.508,-87.402,-44.922,-44.434,506.836
1688253361.429,100.586,-42.480,-35.156,-61.523,-10.742
1688253361.433,0.977,-52.246,-41.992,-60.059,-312.012
1688253361.437,-155.273,-109.863,-43.457,-11.230,-97.168
1688253361.426,-162.109,-102.539,-40.039,33.691,-2.441
1688253361.430,26.367,-32.715,-54.199,-13.184,-108.887
1688253361.434,125.488,-2.930,-49.805,-62.012,-147.949
1688253361.438,40.039,-20.996,-11.719,-29.785,-46.875
1688253361.442,-118.652,-30.273,0.977,26.855,-71.289
1688253361.446,-179.199,-68.848,-23.926,19.043,62.012
1688253361.450,-24.414,-115.723,-44.922,-35.645,217.773
1688253361.453,98.145,-143.555,-42.969,-76.660,18.555
1688253361.457,47.852,-99.121,-30.762,-70.801,-221.680
1688253361.461,-106.934,-46.387,-27.832,-15.625,-194.824
1688253361.465,-185.059,-71.289,-42.480,20.020,108.887
1688253361.469,-33.691,-103.027,-64.453,-28.320,281.738
1688253361.469,106.445,-129.883,-52.246,-78.613,-133.789
1688253361.473,65.918,-147.461,-34.668,-59.570,-303.711
1688253361.477,-88.379,-153.320,-31.250,-15.625,-182.617
1688253361.481,-189.941,-148.438,-28.809,24.902,-71.289
1688253361.485,-61.523,-192.871,-53.711,-13.672,1.465
1688253361.489,82.031,-226.562,-65.430,-89.355,-137.207
1688253361.493,60.547,-193.359,-45.898,-83.008,110.352
1688253361.496,-85.449,-188.965,-29.297,-28.320,428.223
1688253361.500,-217.285,-197.266,-39.551,-10.742,80.078
1688253361.504,-91.797,-212.891,-55.664,-32.715,-68.848
1688253361.508,98.633,-181.152,-48.340,-56.641,-26.367
1688253361.512,99.609,-127.441,-30.273,-54.199,-168.457
1688253361.531,-53.711,-165.527,-32.227,-27.344,-243.652
1688253361.535,-186.523,-174.316,-41.504,6.836,-45.898
1688253361.539,-88.867,-116.699,-37.598,4.883,21.484
1688253361.543,83.008,-91.309,-35.156,-41.992,-185.059
1688253361.547,100.586,-82.520,-49.805,-63.965,-314.453
1688253361.551,-26.367,-106.445,-33.203,-17.578,-41.992
1688253361.555,-180.176,-123.047,-21.973,24.414,264.648
1688253361.558,-124.512,-147.949,-51.270,-1.953,118.652
1688253361.562,61.035,-155.273,-59.082,-57.617,-110.840
1688253361.566,104.980,-115.234,-38.574,-69.824,-104.004
1688253361.570,-5.859,-96.680,-17.578,-41.504,7.324
1688253361.574,-181.641,-111.328,-33.691,-13.672,-129.883
1688253361.574,-155.273,-126.465,-47.852,-1.953,-101.562
1688253361.578,53.711,-100.586,-37.598,-38.086,-55.664
1688253361.582,112.305,-83.496,-25.879,-72.266,-139.160
1688253361.586,-4.395,-80.078,-35.156,-65.918,-225.098
1688253361.590,-172.852,-97.656,-60.547,-33.203,-60.547
1688253361.594,-164.062,-121.094,-46.387,-4.395,163.086
1688253361.598,20.996,-97.168,-29.785,-39.551,68.848
1688253361.601,100.586,-96.680,-47.852,-88.867,-105.957
1688253361.605,17.578,-140.625,-44.922,-74.219,-212.891
1688253361.609,-159.180,-177.246,-46.875,-21.484,169.922
1688253361.613,-193.359,-137.207,-49.805,2.441,646.484
1688253361.617,-8.789,-71.289,-42.480,-31.250,144.531
1688253361.623,98.145,-38.574,-19.043,-78.125,-248.047
1688253361.627,32.715,-60.547,-3.418,-73.730,-160.645
1688253361.631,-137.207,-75.684,-38.574,-36.133,-145.996
1688253361.635,-196.289,-97.168,-51.758,-2.441,-62.500
1688253361.639,-10.742,-143.066,-34.180,-23.438,-67.871
1688253361.643,119.141,-105.469,-32.227,-69.824,-131.836
1688253361.647,57.617,-75.195,-41.504,-80.078,-215.820
1688253361.650,-115.234,-77.637,-54.688,-56.641,-220.703
1688253361.654,-213.867,-127.441,-41.992,-12.207,96.191
1688253361.658,-50.781,-147.461,-34.180,-25.391,287.109
1688253361.662,107.422,-67.871,-44.922,-72.266,-92.773
1688253361.666,57.129,-48.828,-27.832,-62.500,-305.664
1688253361.664,-101.562,-50.293,-30.273,-25.391,-104.492
1688253361.668,-214.355,-41.992,-53.711,2.441,90.332
1688253361.672,-87.402,-98.145,-50.781,-8.301,6.348
1688253361.676,83.984,-127.930,-42.480,-62.500,-152.832
1688253361.680,68.359,-112.793,-40.039,-78.125,9.277
1688253361.684,-77.148,-92.773,-39.551,-53.223,110.840
1688253361.688,-199.219,-48.340,-39.551,-7.324,130.371
1688253361.691,-83.496,0.000,-26.855,13.184,79.102
1688253361.695,103.027,-25.879,-23.438,-28.809,112.305
1688253361.699,102.051,-52.734,-30.762,-57.129,87.891
1688253361.703,-47.363,-35.645,-33.203,-44.922,-253.906
1688253361.707,-198.242,-47.363,-42.480,-10.254,-89.844
1688253361.711,-120.117,-45.410,-41.504,0.977,33.203
1688253361.715,77.148,-50.293,-41.992,-46.387,-118.652
1688253361.719,105.957,-62.012,-34.180,-78.613,-265.137
1688253361.723,-23.926,-51.270,-31.738,-62.012,-122.070
1688253361.727,-192.871,-68.359,-44.434,-25.879,120.117
1688253361.731,-161.621,-73.730,-44.434,-22.949,107.910
1688253361.735,38.086,-45.410,-35.645,-70.312,-14.160
1688253361.738,110.840,-44.434,-25.391,-91.797,-23.926
1688253361.742,-23.438,-57.617,-21.484,-83.496,84.473
1688253361.746,-231.934,-73.730,-28.320,-72.754,-61.035
1688253361.750,-227.539,-62.012,-14.648,-60.059,-77.148
1688253361.754,-19.531,-36.133,5.371,-84.473,-64.941
1688253361.754,50.293,-98.145,-20.508,-140.137,-181.641
1688253361.758,-70.801,-183.594,-51.270,-149.902,-231.445
1688253361.762,-250.000,-165.527,-37.109,-100.586,-132.324
1688253361.766,-268.066,-72.266,-36.133,-73.730,0.977
1688253361.770,-73.730,-20.020,-46.875,-114.746,11.719
1688253361.774,42.480,9.277,-41.504,-148.926,-62.012
1688253361.778,-5.859,-7.812,-29.297,-114.746,-147.949
1688253361.781,-165.527,-72.266,-25.879,-55.664,237.305
1688253361.785,-208.008,-72.266,-22.461,-0.977,687.012
1688253361.789,-17.090,-36.133,-8.789,-15.137,239.746
1688253361.793,87.891,-90.820,-32.715,-75.195,-233.398
1688253361.797,28.320,-95.703,-36.621,-75.684,-259.277
1688253361.801,-105.957,-114.746,-27.344,-5.371,-186.035
1688253361.805,-186.035,-194.824,-20.508,46.387,-90.820
1688253361.809,-16.602,-155.762,-14.648,31.250,-33.203
1688253361.813,155.762,-87.891,-10.742,7.812,-174.316
1688253361.817,106.445,-34.180,-15.625,0.000,-273.438
1688253361.821,-58.594,25.391,-29.297,26.855,-141.113
1688253361.825,-152.344,24.414,-27.344,76.172,165.039
1688253361.828,-20.508,-10.742,-29.297,57.617,326.660
1688253361.832,130.371,-36.621,-36.133,-1.465,-24.414
1688253361.836,103.027,-42.480,-30.762,-12.695,-314.941
1688253361.840,-20.508,-29.297,-16.602,38.574,-129.395
1688253361.844,-127.441,-24.414,-24.902,87.402,69.824
1688253361.844,-36.621,-63.477,-47.363,55.664,-32.227
1688253361.848,127.930,-90.332,-43.945,-7.324,-148.926
1688253361.852,133.789,-51.270,-24.902,-26.367,-239.746
1688253361.856,-2.441,-26.367,-28.320,10.254,-196.777
1688253361.860,-141.113,-40.527,-22.461,57.617,-4.883
1688253361.864,-50.781,-25.391,-5.371,56.152,29.297
1688253361.868,118.164,-18.066,-26.855,4.395,277.344
1688253361.871,134.766,-14.160,-30.273,-22.461,374.023
1688253361.875,20.996,-13.672,-19.043,4.883,-109.375
1688253361.879,-142.090,-65.430,-40.039,51.270,-161.621
1688253361.883,-90.332,-61.035,-37.598,61.523,72.266
1688253361.887,103.516,-30.273,-31.250,13.672,-64.453
1688253361.892,131.348,-20.996,-39.062,-28.809,-333.008
1688253361.896,27.344,-47.852,-17.090,-1.465,-198.730
1688253361.900,-135.254,-101.074,-24.414,38.574,94.238
1688253361.904,-140.625,-71.777,-47.852,26.855,47.363
1688253361.908,54.688,-31.738,-35.156,-6.836,-120.117
1688253361.912,137.695,-25.391,-27.344,-29.297,-47.363
1688253361.916,25.391,6.348,-43.457,-32.715,-1.953
1688253361.919,-145.996,14.160,-45.898,12.695,-97.656
1688253361.923,-149.902,-39.062,-6.836,41.504,-64.453
1688253361.927,39.062,-76.660,-12.207,4.395,89.355
1688253361.931,136.719,-70.312,-34.668,-36.621,63.477
1688253361.935,50.293,-68.359,-28.809,-36.133,-230.469
1688253361.949,-116.211,-104.004,-38.574,8.789,-196.777
1688253361.953,-145.020,-117.676,-31.738,60.547,42.969
1688253361.957,38.574,-85.938,-18.555,36.621,9.277
1688253361.961,147.949,-64.941,-22.461,-27.344,-220.703
1688253361.965,56.641,-61.035,-31.738,-39.551,-205.078
1688253361.969,-109.863,-51.758,-22.949,10.254,237.305
1688253361.973,-169.922,-60.059,-18.066,41.992,435.059
1688253361.976,-3.906,-59.082,-8.301,3.418,-4.883
1688253361.980,139.648,-83.496,-13.184,-34.668,-238.281
1688253361.984,89.355,-151.855,-30.273,-28.320,-138.672
1688253361.988,-74.707,-157.715,-27.344,-1.465,-108.398
1688253361.992,-181.641,-108.887,-23.438,36.621,-106.934
1688253361.995,-24.414,-77.148,-25.879,29.785,-44.922
1688253361.999,126.953,-61.523,-41.016,-34.668,-110.352
1688253362.003,83.008,-43.945,-48.340,-53.711,-200.684
1688253362.007,-70.312,-53.223,-37.109,-19.531,-127.441
1688253362.011,-188.477,-72.266,-24.414,26.855,143.555
1688253362.015,-59.082,-63.477,-19.043,21.973,217.285
1688253362.019,104.004,-50.293,-27.344,-46.875,-8.789
1688253362.022,87.891,-75.684,-19.043,-65.918,-226.074
1688253362.026,-38.086,-111.328,-25.391,-14.648,-47.852
1688253362.030,-165.039,-98.633,-38.086,46.387,304.688
1688253362.034,-75.684,-55.176,-37.598,34.180,53.223
1688253362.038,114.258,-65.430,-47.852,-19.043,-167.969
1688253362.039,124.023,-101.562,-44.922,-42.480,-196.289
1688253362.043,-13.184,-135.254,-31.250,-26.855,-236.328
1688253362.047,-174.805,-138.184,-32.715,11.719,-113.770
1688253362.051,-112.793,-123.535,-27.344,25.879,3.418
1688253362.055,87.402,-136.230,-14.648,-8.301,-16.602
1688253362.059,101.562,-175.293,-13.184,-32.227,-109.863
1688253362.063,-19.531,-251.953,-16.602,-10.742,-163.574
1688253362.066,-155.273,-316.406,-14.648,31.250,-55.664
1688253362.070,-123.535,-334.961,-13.672,49.805,352.051
1688253362.074,64.941,-330.566,-14.160,9.766,437.012
1688253362.078,139.160,-323.730,-7.324,-26.367,-120.117
1688253362.082,40.527,-312.012,-11.230,-20.996,-306.641
1688253362.086,-124.512,-315.430,-10.742,22.949,-157.715
1688253362.090,-131.348,-334.961,-13.184,45.410,-110.352
1688253362.094,72.266,-359.863,-21.973,6.836,-129.395
1688253362.098,160.645,-377.441,-27.832,-37.109,-163.574
1688253362.102,33.691,-340.332,-43.945,-39.062,-178.223
1688253362.106,-145.996,-272.461,-42.480,2.930,31.250
1688253362.110,-182.617,-229.492,-29.297,27.344,164.551
1688253362.113,1.953,-219.238,-24.414,-7.812,97.656
1688253362.117,114.746,-229.980,-32.715,-58.105,305.664
1688253362.121,38.086,-238.770,-24.902,-57.617,41.992
1688253362.125,-118.164,-259.766,-16.602,-1.953,-176.270
1688253362.129,-185.059,-257.324,-28.320,34.180,33.691
1688253362.129,-8.301,-229.004,-29.297,3.418,-10.254
1688253362.133,141.602,-190.918,-14.648,-37.598,-224.121
1688253362.137,73.730,-188.965,-23.438,-51.758,-299.805
1688253362.141,-116.699,-210.449,-44.922,-38.086,-184.082
1688253362.145,-211.914,-206.543,-46.875,0.488,62.988
1688253362.149,-39.551,-196.289,-37.598,-6.348,107.422
1688253362.153,115.723,-216.797,-35.156,-61.035,-64.453
1688253362.156,75.195,-231.445,-36.133,-67.871,131.836
1688253362.160,-88.867,-202.637,-41.016,-29.785,277.344
1688253362.164,-199.219,-167.969,-31.250,10.742,-42.480
1688253362.168,-57.617,-170.898,-11.230,-1.465,-117.188
1688253362.172,95.215,-199.707,-14.648,-54.688,-92.285
1688253362.176,65.430,-253.418,-29.297,-73.730,-219.238
1688253362.180,-66.406,-292.969,-45.898,-35.156,-279.785
1688253362.184,-189.941,-269.531,-41.992,27.832,-53.711
1688253362.188,-103.027,-242.676,-38.574,15.625,89.844
1688253362.192,73.242,-232.910,-55.176,-60.059,-78.125
1688253362.196,84.473,-197.266,-41.504,-82.520,-166.504
1688253362.200,-21.484,-170.410,-17.090,-15.625,131.348
1688253362.203,-139.648,-161.621,-21.973,56.152,382.324
1688253362.207,-83.984,-142.090,-9.766,28.320,155.273
1688253362.211,71.777,-136.230,-8.301,-55.664,-119.629
1688253362.215,92.285,-140.137,-24.902,-86.914,-137.207
1688253362.219,-37.598,-153.809,-22.949,-68.359,-104.492
1688253362.220,-214.355,-164.551,-34.180,-36.621,-133.789
1688253362.224,-176.758,-228.516,-43.945,-29.297,-0.488
1688253362.228,9.766,-233.887,-50.781,-85.449,87.402
1688253362.232,56.641,-143.066,-41.504,-125.488,-81.543
1688253362.236,-30.273,-101.562,-19.043,-81.055,-118.164
1688253362.240,-183.594,-99.121,-35.645,-20.020,-34.180
1688253362.244,-189.941,-147.949,-62.012,-20.020,334.473
1688253362.247,8.789,-146.484,-49.316,-61.035,414.551
1688253362.251,100.098,-93.262,-24.414,-88.867,-221.191
1688253362.255,3.906,-124.512,-28.809,-68.848,-311.523
1688253362.259,-160.645,-145.996,-38.574,-19.043,-85.938
1688253362.263,-177.246,-121.094,-38.574,3.418,-41.504
1688253362.266,27.832,-133.301,-24.902,-16.113,-124.512
1688253362.270,140.137,-138.672,-12.207,-47.363,-176.758
1688253362.274,56.152,-94.727,-9.277,-48.828,-142.578
1688253362.278,-124.512,-86.426,-24.902,-15.137,-127.441
1688253362.282,-189.941,-100.098,-46.875,11.719,39.551
1688253362.286,-14.160,-109.863,-36.621,-15.625,246.582
1688253362.290,118.652,-132.812,-33.203,-60.547,331.543
1688253362.293,49.805,-145.996,-46.387,-76.172,21.484
1688253362.297,-125.000,-140.625,-45.410,-42.969,-212.891
1688253362.301,-191.895,-107.910,-29.297,12.207,-73.242
1688253362.305,-2.930,-85.449,0.488,10.254,-63.477
1688253362.309,142.090,-131.836,-6.348,-45.898,-137.207
1688253362.325,88.867,-166.016,-27.344,-58.594,-189.453
1688253362.329,-70.801,-100.586,-33.691,-22.949,-139.160
1688253362.333,-183.594,-70.312,-44.922,9.277,31.250
1688253362.337,-30.273,-112.793,-19.043,7.324,30.273
1688253362.341,131.836,-110.840,-11.719,-44.922,-81.543
1688253362.345,93.750,-90.820,-24.414,-56.152,125.488
1688253362.349,-63.965,-107.422,-32.715,-17.090,191.895
1688253362.352,-191.406,-131.348,-35.156,10.254,99.121
1688253362.356,-64.941,-130.859,-22.461,12.207,62.012
1688253362.360,115.234,-124.512,-16.113,-34.180,137.695
1688253362.364,102.539,-77.637,-0.488,-69.824,59.082
1688253362.368,-51.270,-73.242,-11.230,-43.945,-292.480
1688253362.371,-207.520,-161.133,-35.156,10.742,-126.465
1688253362.375,-116.699,-146.973,-32.715,12.695,-19.531
1688253362.379,82.031,-83.496,-41.504,-50.781,-184.570
1688253362.383,97.168,-94.727,-41.016,-81.543,-296.387
1688253362.387,-28.320,-136.719,-23.926,-41.504,-190.430
1688253362.391,-163.574,-173.828,-26.367,12.695,77.148
1688253362.395,-115.234,-168.945,-42.480,7.812,191.895
1688253362.398,74.707,-155.762,-32.227,-31.250,-71.289
1688253362.402,124.023,-157.227,-38.086,-58.105,-87.891
1688253362.406,-3.906,-127.441,-47.852,-52.734,295.898
1688253362.410,-172.363,-104.980,-38.574,-13.184,83.984
1688253362.414,-136.719,-101.562,-33.203,12.695,-146.973
1688253362.415,70.312,-122.070,-27.832,-16.113,-115.723
1688253362.419,125.977,-185.059,-14.648,-61.523,-180.664
1688253362.423,14.648,-193.848,-4.395,-52.246,-249.512
1688253362.427,-156.738,-170.898,-27.832,7.324,-154.785
1688253362.431,-159.668,-152.832,-24.902,28.809,85.938
1688253362.435,37.109,-115.234,-13.672,-23.926,84.961
1688253362.439,110.352,-140.137,-49.316,-78.613,-118.652
1688253362.442,22.949,-169.922,-59.082,-66.895,-250.977
1688253362.446,-141.602,-193.848,-34.668,-8.301,104.980
1688253362.450,-182.129,-164.551,-29.297,22.949,413.086
1688253362.454,2.930,-61.523,-20.996,-6.836,8.301
1688253362.458,127.441,-36.621,-1.953,-40.039,-162.109
1688253362.461,57.617,-86.426,-0.488,-41.016,-68.848
1688253362.465,-119.141,-110.352,-23.926,-18.066,-76.660
1688253362.469,-195.312,-121.582,-41.016,3.418,-92.285
1688253362.473,-21.973,-134.766,-48.340,-17.090,-53.223
1688253362.477,132.812,-143.555,-36.621,-47.852,-135.254
1688253362.481,62.012,-151.367,-24.902,-61.035,-176.270
1688253362.485,-123.047,-91.797,-34.668,-37.598,-98.145
1688253362.488,-211.914,-65.918,-10.742,17.578,111.816
1688253362.492,-48.828,-66.406,14.648,25.391,270.996
1688253362.496,113.281,-36.133,9.277,-38.086,-106.934
1688253362.500,54.199,-64.453,-18.555,-89.355,-334.473
1688253362.504,-113.281,-112.305,-37.598,-53.711,-76.172
1688253362.505,-219.238,-143.066,-26.367,2.441,99.609
1688253362.509,-83.008,-129.883,-20.996,-3.418,6.348
1688253362.513,102.539,-127.441,-34.668,-55.176,-94.727
1688253362.517,83.984,-128.906,-44.922,-79.102,-108.887
1688253362.521,-67.871,-88.867,-43.457,-44.922,-67.383
1688253362.525,-185.547,-82.520,-26.367,10.254,-7.812
1688253362.529,-79.590,-92.773,-20.508,14.160,46.875
1688253362.532,99.609,-75.684,-20.996,-31.250,147.461
1688253362.536,99.121,-55.176,-24.414,-66.406,178.711
1688253362.540,-39.551,-49.805,-34.180,-58.594,-165.039
1688253362.544,-193.359,-81.055,-31.738,-12.207,-146.973
1688253362.548,-129.883,-77.637,-38.086,-2.441,-42.480
1688253362.551,60.059,-42.969,-51.758,-58.594,-187.012
1688253362.555,98.633,-44.922,-44.922,-83.496,-314.453
1688253362.559,-17.578,-101.074,-31.250,-40.039,-240.723
1688253362.563,-175.781,-89.355,-11.230,8.789,-46.387
1688253362.567,-128.906,-39.551,4.883,27.344,104.980
1688253362.571,67.871,-50.293,-10.742,-20.020,51.758
1688253362.575,104.492,-114.746,-37.598,-81.543,37.109
1688253362.578,-6.836,-180.176,-30.273,-67.871,331.055
1688253362.582,-149.902,-149.414,-10.254,-6.836,165.039
1688253362.586,-141.113,-48.340,2.441,21.484,-68.359
1688253362.590,42.480,-7.324,-14.648,-23.438,-51.758
1688253362.594,118.164,-35.156,-42.480,-71.289,-181.641
1688253362.594,23.926,-52.734,-38.086,-59.082,-301.758
1688253362.598,-150.879,-56.152,-26.855,-13.184,-186.035
1688253362.602,-173.828,-55.176,-11.719,22.949,13.184
1688253362.606,40.039,-48.340,4.395,13.672,-36.621
1688253362.610,143.555,-102.539,6.348,-41.992,-187.988
1688253362.614,31.738,-167.480,-19.531,-74.219,-202.637
1688253362.618,-128.906,-128.418,-15.137,-14.648,192.871
1688253362.621,-185.059,-51.270,-3.418,23.438,523.438
1688253362.625,-24.414,-35.156,-21.484,-29.297,155.273
1688253362.629,110.840,-50.293,-31.250,-71.289,-197.266
1688253362.633,51.270,-49.805,-22.949,-56.641,-180.664
1688253362.637,-118.652,-99.121,-16.113,-24.902,-115.234
1688253362.641,-196.289,-122.559,-21.973,14.648,-48.828
1688253362.645,-27.344,-54.199,-35.645,13.672,3.906
1688253362.649,107.910,-62.500,-46.387,-45.410,-117.676
1688253362.653,67.383,-91.797,-38.086,-62.012,-253.418
1688253362.657,-66.406,-64.453,-25.391,-9.277,-269.531
1688253362.661,-180.176,-40.527,-18.555,31.250,159.180
1688253362.665,-72.266,-60.059,-33.203,-7.812,410.156
1688253362.668,72.754,-105.957,-42.969,-75.684,-52.734
1688253362.672,46.387,-97.168,-35.645,-93.750,-346.680
1688253362.676,-91.309,-83.984,-46.875,-56.152,-49.316
1688253362.680,-208.496,-46.387,-52.734,-4.395,290.039
1688253362.684,-76.172,24.414,-19.043,3.906,52.246
1688253362.700,102.051,8.301,-19.043,-46.387,-132.324
1688253362.704,73.242,-23.438,-44.922,-96.191,-216.797
1688253362.708,-64.453,-54.199,-50.781,-76.660,-185.547
1688253362.712,-208.496,-78.125,-74.707,-37.598,-31.738
1688253362.716,-130.371,-27.832,-54.688,-30.273,40.527
1688253362.720,65.918,-32.715,-42.480,-62.500,224.121
1688253362.724,90.820,-55.664,-61.035,-92.285,96.191
1688253362.727,-29.785,-31.250,-42.969,-61.523,-189.941
1688253362.731,-169.922,-29.785,-31.250,0.488,-108.398
1688253362.735,-120.117,-53.223,-34.180,18.066,169.434
1688253362.739,56.152,-50.781,-39.062,-34.180,77.637
1688253362.743,96.680,-59.082,-41.992,-83.008,-189.453
1688253362.747,-2.930,-91.309,-42.480,-60.059,-77.637
1688253362.751,-145.996,-86.426,-44.434,0.000,43.945
1688253362.755,-143.066,-38.574,-47.852,3.906,10.254
1688253362.759,28.809,3.906,-43.945,-49.805,-132.812
1688253362.763,103.516,-21.484,-40.039,-83.496,-220.703
1688253362.767,18.066,-108.887,-34.668,-66.895,-152.344
1688253362.771,-124.023,-114.746,-20.996,-10.254,-32.715
1688253362.774,-140.625,-31.250,-29.297,17.090,-38.086
1688253362.778,17.578,20.996,-32.227,-28.809,0.977
1688253362.782,100.586,4.395,-21.484,-70.801,102.051
1688253362.786,20.508,-21.484,-21.973,-75.684,-143.066
1688253362.790,-131.836,-42.969,-23.438,-31.250,-193.848
1688253362.791,-174.316,-74.219,-30.762,15.137,6.836
1688253362.795,5.859,-41.016,-26.367,-3.906,-4.883
1688253362.799,140.625,-26.367,-0.488,-48.828,-92.773
1688253362.803,65.918,-88.379,-2.441,-57.617,-181.152
1688253362.807,-95.215,-105.469,3.418,10.254,-28.320
1688253362.811,-162.598,-63.477,-2.441,51.270,174.316
1688253362.815,-22.461,-18.555,-27.832,-4.395,66.895
1688253362.818,107.422,41.992,-19.043,-55.176,-101.074
1688253362.822,52.246,21.973,-27.832,-68.359,36.621
1688253362.826,-92.285,-30.273,-22.461,-25.879,330.078
1688253362.830,-162.109,-15.625,3.906,41.016,106.445
1688253362.834,-43.457,-81.055,-18.066,14.648,-89.844
1688253362.849,104.980,-145.020,-26.855,-50.781,-133.789
1688253362.853,107.422,-87.891,-0.488,-52.734,-277.832
1688253362.857,-49.316,-11.719,-12.207,-30.273,-217.285
1688253362.861,-193.359,34.668,-24.414,11.719,20.996
1688253362.865,-71.289,13.184,-20.020,16.113,87.402
1688253362.869,110.840,-34.668,-18.555,-46.875,-68.848
1688253362.873,89.844,-25.879,-19.531,-83.984,-112.793
1688253362.876,-40.527,-4.395,-33.691,-37.598,-12.207
1688253362.880,-171.387,-24.902,-52.246,16.113,346.680
1688253362.884,-99.609,-48.828,-48.340,-11.719,227.051
1688253362.888,81.543,-118.164,-35.156,-66.895,-174.316
1688253362.892,104.492,-124.512,-27.832,-71.777,-236.328
1688253362.880,-6.348,-58.105,-20.508,-26.367,-245.605
1688253362.884,-154.785,-57.129,-18.066,22.949,-151.367
1688253362.888,-110.352,-27.832,-26.855,24.902,-93.750
1688253362.892,88.379,-41.016,-20.996,-14.160,-174.805
1688253362.896,125.488,-53.711,-19.043,-48.828,-157.715
1688253362.900,-12.207,-15.625,-22.461,-51.758,-97.656
1688253362.904,-167.969,-20.020,-24.414,-15.137,13.672
1688253362.907,-144.531,-36.621,-31.250,4.395,318.848
1688253362.911,52.246,-12.207,-32.715,-39.062,168.945
1688253362.915,132.812,2.930,-24.902,-67.383,-286.133
1688253362.919,35.645,-18.066,-30.762,-45.898,-315.918
1688253362.923,-126.465,-47.852,-37.109,-6.348,90.820
1688253362.926,-131.348,-46.387,-39.551,17.090,158.691
1688253362.930,54.199,-50.781,-48.828,-21.973,-178.711
1688253362.934,154.297,-98.145,-43.945,-54.199,-191.406
1688253362.938,66.895,-96.191,-35.156,-40.527,34.180
1688253362.942,-108.398,-47.363,-29.785,10.742,37.598
1688253362.946,-136.230,-26.367,-30.762,54.199,43.457
1688253362.950,44.434,-68.359,-43.945,13.184,123.047
1688253362.953,147.949,-88.867,-40.039,-35.645,103.027
1688253362.957,73.242,-91.309,-45.410,-42.969,-185.547
1688253362.961,-91.309,-91.797,-61.523,-5.371,-220.215
1688253362.965,-140.137,-15.625,-58.105,49.316,154.297
1688253362.969,31.250,24.902,-53.223,26.367,124.512
1688253362.969,135.254,-25.879,-52.734,-38.086,-186.523
1688253362.973,74.219,-37.598,-47.852,-51.270,-272.949
1688253362.977,-84.473,-29.785,-41.504,0.000,-137.695
1688253362.981,-169.434,-48.828,-30.762,37.109,7.812
1688253362.985,-8.789,-99.609,-18.066,2.930,33.203
1688253362.989,129.883,-160.156,-27.344,-51.758,-68.359
1688253362.993,88.867,-83.496,-27.344,-54.688,172.852
1688253362.996,-58.105,23.926,-13.184,-11.719,373.535
1688253363.000,-178.223,35.156,-9.277,24.414,30.273
1688253363.004,-66.895,1.953,-22.461,6.836,-88.867
1688253363.008,105.469,-24.414,-26.367,-31.250,-119.629
1688253363.012,99.121,-42.480,-28.809,-47.363,-259.766
1688253363.017,-36.621,-64.453,-30.762,-25.391,-177.734
1688253363.021,-179.199,-60.547,-33.691,11.719,119.141
1688253363.025,-101.074,-69.824,-40.039,0.000,194.824
1688253363.029,76.172,-125.977,-44.922,-57.129,-92.285
1688253363.033,77.637,-127.930,-49.805,-89.355,-308.594
1688253363.037,-37.109,-39.062,-41.992,-33.691,28.320
1688253363.041,-170.898,23.926,-30.762,23.438,273.926
1688253363.044,-100.586,30.273,-7.324,23.926,0.488
1688253363.048,90.820,-13.672,12.207,-21.484,-185.547
1688253363.052,116.211,-114.746,2.441,-53.223,-94.238
1688253363.056,-15.137,-134.766,-19.043,-42.969,37.109
1688253363.060,-182.129,-49.316,-23.926,-0.488,-92.285
1688253363.075,-151.855,9.277,-34.180,14.160,-93.750
1688253363.079,53.711,11.719,-30.762,-29.785,-107.910
1688253363.083,125.000,-50.781,-7.324,-57.129,-143.066
1688253363.087,14.160,-121.582,-6.836,-35.645,-187.012
1688253363.091,-151.367,-70.801,-27.832,10.742,-138.184
1688253363.095,-145.508,-18.555,-23.926,19.043,354.492
1688253363.099,31.250,-28.320,-11.719,-19.531,586.426
1688253363.102,120.117,-34.668,-2.930,-59.082,18.066
1688253363.106,36.133,-95.703,-2.441,-43.457,-285.156
1688253363.110,-128.906,-80.566,-2.441,22.461,-50.293
1688253363.114,-174.316,7.812,-22.461,27.832,-1.953
1688253363.118,14.160,21.484,-26.367,-23.926,-202.637
1688253363.121,146.973,-25.879,-1.953,-46.875,-223.145
1688253363.125,52.734,-76.172,-13.184,-46.875,-188.477
1688253363.129,-132.324,-37.598,-32.227,-23.926,-146.973
1688253363.133,-187.988,2.930,-32.715,4.883,-12.207
1688253363.137,-32.227,-55.176,-33.691,-16.602,54.199
1688253363.141,118.164,-83.984,-32.227,-62.500,41.504
1688253363.145,73.242,-62.500,-32.715,-72.754,-89.355
1688253363.148,-110.840,-37.598,-41.504,-28.320,-145.508
1688253363.152,-194.824,-70.312,-47.852,-0.488,99.609
1688253363.156,-48.828,-144.043,-39.551,-23.926,431.641
1688253363.160,99.609,-90.820,-20.996,-62.988,69.824
1688253363.164,65.918,-83.496,-33.691,-70.801,-308.594
1688253363.164,-83.008,-52.246,-39.062,-25.391,-162.598
1688253363.168,-204.590,37.109,-43.457,20.508,-33.691
1688253363.172,-68.359,33.691,-32.227,2.930,-69.336
1688253363.176,117.188,-20.508,-15.137,-63.965,-178.223
1688253363.180,63.477,-77.148,-41.016,-101.074,-64.453
1688253363.184,-88.379,-73.730,-56.152,-68.848,75.195
1688253363.188,-205.566,-85.938,-50.293,-10.254,120.117
1688253363.191,-104.004,-124.023,-29.785,-5.371,64.453
1688253363.195,83.496,-100.098,-19.531,-55.176,152.344
1688253363.199,90.332,-42.480,-19.531,-85.449,236.816
1688253363.203,-79.590,-41.992,-24.902,-78.125,-104.004
1688253363.207,-248.535,-106.445,-53.223,-40.527,-163.086
1688253363.226,-149.414,-143.555,-40.039,-28.320,-46.875
1688253363.230,60.547,-68.848,-22.461,-66.406,-165.527
1688253363.234,100.098,-25.391,-29.297,-93.750,-304.688
1688253363.238,-31.250,-92.773,-30.762,-61.035,-150.879
1688253363.242,-188.965,-100.098,-40.527,-19.043,56.152
1688253363.246,-148.926,-59.570,-28.809,-8.301,103.027
1688253363.250,12.695,-56.152,-26.855,-61.035,34.180
1688253363.253,66.406,-55.176,-35.645,-105.957,-34.180
1688253363.257,-33.691,-55.664,-23.926,-65.430,124.512
1688253363.261,-186.035,-77.148,-26.855,-13.184,50.293
1688253363.265,-147.949,-92.773,-24.414,-1.465,15.137
1688253363.269,45.410,-61.523,-18.555,-37.109,96.680
1688253363.255,100.098,-84.473,-30.762,-77.637,-79.590
1688253363.259,-2.930,-123.535,-45.410,-80.078,-293.457
1688253363.263,-176.270,-108.887,-55.176,-47.363,-112.793
1688253363.267,-193.848,-98.633,-43.945,-13.184,-20.020
1688253363.271,5.371,-59.082,-44.922,-37.598,-55.176
1688253363.275,128.418,-30.762,-41.504,-72.754,-135.742
1688253363.279,27.832,-73.242,-32.227,-78.613,-196.289
1688253363.282,-161.133,-51.270,-58.105,-36.621,-63.965
1688253363.286,-161.133,-8.789,-34.180,11.719,2.441
1688253363.290,13.672,-37.109,-10.742,-20.996,-53.223
1688253363.294,99.609,-70.312,-27.344,-72.266,-195.801
1688253363.298,46.387,-108.887,-33.691,-75.684,75.684
1688253363.302,-133.789,-83.008,-42.969,-41.504,310.059
1688253363.306,-236.816,-42.969,-52.246,-20.020,14.648
1688253363.310,-50.293,-51.758,-42.969,-43.945,-42.969
1688253363.314,106.934,-43.945,-31.738,-83.496,-20.996
1688253363.318,43.945,-50.293,-25.879,-92.285,-211.914
1688253363.322,-106.934,-68.848,-43.457,-55.176,-156.250
1688253363.326,-220.703,-80.078,-58.594,-0.488,258.789
1688253363.329,-74.707,-91.797,-39.062,-0.488,416.992
1688253363.333,97.656,-68.359,-40.039,-69.336,-54.688
1688253363.337,69.824,-88.379,-41.016,-81.543,-336.914
1688253363.341,-66.406,-144.043,-28.809,-29.785,-189.941
1688253363.345,-192.871,-70.312,-33.203,3.906,-24.414
1688253363.344,-87.891,24.414,-30.762,-14.160,-78.125
1688253363.348,85.449,9.277,-43.457,-77.148,-193.359
1688253363.352,90.332,-24.902,-83.008,-96.680,-169.434
1688253363.356,-48.828,-40.039,-61.523,-50.781,-87.891
1688253363.360,-209.473,-45.898,-12.695,-23.926,-2.930
1688253363.364,-153.809,-34.668,-32.227,-52.734,64.453
1688253363.368,18.555,-82.520,-57.129,-101.562,143.555
1688253363.371,57.129,-127.930,-38.574,-118.164,293.457
1688253363.375,-55.664,-113.281,-23.438,-69.336,10.742
1688253363.379,-157.715,-62.012,-2.930,19.043,-171.875
1688253363.383,-91.309,-2.441,9.766,28.809,-42.969
1688253363.387,59.082,-20.020,-16.113,-51.758,-172.363
1688253363.391,75.684,-30.762,-37.109,-103.516,-324.707
1688253363.395,-40.039,-44.922,-34.180,-94.238,-239.746
1688253363.399,-199.219,-52.246,-38.086,-50.781,-57.129
1688253363.403,-148.926,-27.344,-18.066,13.672,-26.855
1688253363.407,83.008,-41.504,-11.719,-7.812,-147.461
1688253363.411,127.441,-24.902,-33.691,-88.867,-76.172
1688253363.415,-16.602,-24.414,-40.527,-95.215,107.422
1688253363.418,-174.316,-56.152,-17.578,-12.695,113.281
1688253363.422,-157.227,-32.227,0.488,39.062,16.602
1688253363.426,9.766,-16.113,-13.184,-10.254,58.105
1688253363.430,96.680,-21.973,-7.812,-75.195,158.203
1688253363.434,29.785,-45.410,-26.855,-93.262,-155.762
1688253363.450,-136.230,-24.902,-46.387,-42.969,-187.012
1688253363.454,-166.016,24.414,-3.418,27.832,12.207
1688253363.458,16.113,12.207,6.836,-17.578,-2.441
1688253363.462,91.309,-62.500,-20.508,-114.746,-164.551
1688253363.466,38.574,-93.262,-12.207,-86.914,-171.875
1688253363.470,-123.047,-39.062,-2.441,-22.461,237.305
1688253363.474,-167.969,5.371,19.043,10.742,415.039
1688253363.477,26.367,6.836,23.438,-4.395,125.000
1688253363.481,120.117,-61.523,-7.324,-72.754,-54.199
1688253363.485,62.988,-120.117,-4.883,-76.172,88.379
1688253363.489,-80.566,-91.797,4.883,-13.672,154.297
1688253363.493,-180.664,-26.855,5.371,18.066,-53.711
1688253363.496,-25.879,27.344,10.254,-9.277,-73.242
1688253363.500,120.117,47.363,14.160,-45.898,-164.551
1688253363.504,87.402,23.438,1.953,-61.035,-291.504
1688253363.508,-68.359,9.277,-11.230,-34.668,-261.719
1688253363.512,-192.871,-29.785,-1.465,27.344,-25.391
1688253363.516,-66.406,-77.637,-5.371,5.859,147.949
1688253363.520,89.844,-44.922,-18.066,-76.172,-45.410
1688253363.523,70.801,-14.160,-29.297,-85.938,-256.836
1688253363.527,-69.824,-50.781,-32.227,-43.945,-62.012
1688253363.531,-185.059,-50.781,8.789,7.324,252.930
1688253363.535,-88.379,-10.742,17.090,3.418,120.605
1688253363.539,89.844,-36.133,6.348,-48.340,-111.816
1688253363.539,100.586,-49.316,31.250,-67.871,-162.109
1688253363.543,-34.668,-17.090,33.203,-43.457,-127.441
1688253363.547,-211.914,-39.062,24.902,1.953,-126.953
1688253363.551,-133.301,-42.969,39.551,-7.812,-62.012
1688253363.555,93.262,-0.488,59.082,-49.805,-8.301
1688253363.559,114.258,-9.277,62.500,-85.449,-40.527
1688253363.563,-3.418,-19.531,68.359,-72.754,-118.652
1688253363.566,-150.879,-11.719,79.590,-9.277,-113.281
1688253363.570,-146.484,-14.648,73.730,19.531,248.535
1688253363.574,45.898,-14.160,67.383,-25.391,306.641
1688253363.578,125.000,-4.395,64.941,-71.777,-167.480
1688253363.582,2.930,-22.461,49.316,-57.129,-206.543
1688253363.587,-157.715,-33.691,32.715,-3.418,-10.254
1688253363.591,-137.207,-12.695,39.551,14.160,99.609
1688253363.595,23.438,-0.488,40.527,-24.902,-50.781
1688253363.599,111.816,-34.180,42.480,-75.195,-134.277
1688253363.603,18.555,-52.734,68.848,-60.059,-46.875
1688253363.607,-169.434,-30.273,68.359,-12.207,10.254
1688253363.611,-175.293,-11.719,63.965,6.348,100.098
1688253363.614,26.855,-12.695,69.824,-10.742,130.371
1688253363.618,154.297,-34.180,72.754,-49.316,93.262
1688253363.622,45.898,-38.086,63.477,-66.895,-178.223
1688253363.626,-146.484,-49.805,20.996,-35.156,-210.938
1688253363.630,-211.914,-55.664,1.953,-3.906,19.531
1688253363.630,-23.926,-30.762,7.812,-35.156,-28.320
1688253363.634,123.047,1.465,-5.371,-74.219,-218.262
1688253363.638,60.059,3.906,-14.648,-80.078,-283.691
1688253363.642,-114.258,-23.926,-28.809,-47.852,-90.820
1688253363.646,-192.383,-26.855,-28.809,17.578,127.930
1688253363.650,-33.203,-27.344,-18.555,-3.906,81.055
1688253363.654,110.352,-36.621,-22.461,-63.477,-111.328
1688253363.657,73.242,-19.043,-24.902,-56.641,8.789
1688253363.661,-99.609,5.859,-30.762,-28.809,287.598
1688253363.665,-192.383,31.738,-30.273,-7.324,69.336
1688253363.669,-38.574,42.480,-19.531,-11.719,-89.355
1688253363.673,105.957,30.273,-6.836,-41.016,-93.262
1688253363.676,91.309,21.484,-15.137,-51.758,-245.117
1688253363.680,-72.754,17.578,-36.621,-46.875,-276.855
1688253363.684,-183.105,-18.555,-38.086,6.836,4.883
1688253363.688,-66.895,-92.773,-29.297,19.531,85.938
1688253363.692,97.656,-91.797,-51.758,-53.711,-132.812
1688253363.696,90.820,-45.898,-70.312,-91.797,-259.277
1688253363.700,-55.176,-33.691,-62.500,-47.852,-71.289
1688253363.703,-187.500,-8.789,-61.035,8.789,482.910
1688253363.707,-108.398,34.180,-44.922,0.977,329.102
1688253363.711,80.078,53.223,-36.621,-40.039,-153.809
1688253363.715,96.191,45.410,-50.293,-87.891,-195.801
1688253363.719,-35.645,42.480,-45.410,-62.012,-187.500
1688253363.719,-171.875,-12.207,-25.391,30.273,-192.871
1688253363.723,-102.051,-70.801,-3.418,49.805,-121.094
1688253363.727,104.492,-29.297,-22.949,-20.508,-120.117
1688253363.731,118.164,27.832,-43.945,-70.801,-235.352
1688253363.735,-46.875,-10.254,-29.785,-54.688,-206.543
1688253363.739,-168.945,-21.484,-23.438,16.113,-43.945
1688253363.743,-137.207,17.578,-14.648,31.738,354.492
1688253363.746,38.086,34.668,-12.207,-30.273,419.922
1688253363.750,118.164,5.859,-24.414,-63.477,-79.590
1688253363.754,26.367,-56.152,-23.926,-43.457,-273.438
1688253363.758,-152.832,-25.391,-39.062,-4.395,-30.273
1688253363.762,-176.270,55.664,-33.691,20.020,101.074
1688253363.766,4.395,80.078,-24.414,-28.809,-143.555
1688253363.770,104.980,27.832,-31.738,-81.543,-234.863
1688253363.774,21.973,-8.789,-21.484,-69.336,-235.352
1688253363.778,-135.742,-13.672,-20.020,-26.855,-162.598
1688253363.782,-163.086,-93.262,-25.879,-8.789,-62.988
1688253363.786,0.977,-170.410,-17.578,-24.902,136.230
1688253363.790,108.398,-82.031,-22.461,-55.176,188.965
1688253363.793,17.578,5.371,-57.129,-100.586,-148.926
1688253363.797,-138.672,13.184,-37.109,-52.246,-205.078
1688253363.801,-180.664,-2.930,-24.902,7.812,59.082
1688253363.805,-23.438,-38.086,-52.734,-38.574,176.270
1688253363.809,105.957,-26.367,-38.086,-85.938,-81.055
1688253363.824,49.805,-40.527,-24.902,-88.379,-333.984
1688253363.828,-99.609,-69.824,-7.324,-29.297,-97.168
1688253363.832,-195.312,-44.434,-8.301,14.160,64.941
1688253363.836,-58.594,3.906,-31.250,-20.020,-77.637
1688253363.840,88.867,43.457,-25.391,-66.406,-134.766
1688253363.844,45.898,28.320,-25.391,-89.355,102.539
1688253363.848,-89.844,-46.875,-29.297,-51.270,210.449
1688253363.851,-194.336,-67.383,-22.461,0.977,-45.898
1688253363.855,-77.148,-45.898,-6.348,4.395,-74.219
1688253363.859,97.656,-56.641,-27.344,-44.434,-8.789
1688253363.863,88.379,-26.367,-42.480,-67.383,-166.016
1688253363.867,-44.434,-8.301,-15.625,-39.062,-297.363
1688253363.871,-170.898,-77.148,-4.883,-1.953,-106.934
1688253363.875,-94.238,-74.219,-17.578,-7.324,80.078
1688253363.879,82.031,-28.320,-31.738,-56.152,-46.387
1688253363.883,92.773,-24.414,-19.531,-91.797,-282.227
1688253363.887,-44.434,-38.574,-8.301,-52.734,-170.898
1688253363.891,-183.105,-62.500,-29.297,-6.836,119.629
1688253363.895,-123.535,-83.008,-31.738,-16.113,185.059
1688253363.898,42.480,-105.469,-15.625,-52.246,-23.438
1688253363.902,76.172,-102.051,-24.902,-80.078,-51.270
1688253363.906,-28.809,-62.012,-29.297,-39.062,193.359
1688253363.910,-188.477,-21.973,-25.879,-0.488,46.387
1688253363.914,-178.711,-35.645,-48.340,-18.555,-72.266
1688253363.915,7.812,-70.801,-55.176,-71.777,-98.145
1688253363.919,95.703,-74.219,-41.016,-89.355,-187.988
1688253363.923,7.812,-68.848,-46.875,-53.223,-271.484
1688253363.927,-147.461,-51.270,-31.250,4.883,-146.973
1688253363.931,-143.555,-30.273,2.441,31.250,212.891
1688253363.935,33.203,-41.992,-5.371,-5.371,183.594
1688253363.939,107.910,-59.082,-20.996,-60.059,-89.844
1688253363.942,16.113,-61.523,-30.273,-60.547,-163.574
1688253363.946,-144.531,-74.219,-31.250,-9.766,112.305
1688253363.950,-152.344,-53.711,-21.973,10.742,348.145
1688253363.954,22.461,-9.766,-28.809,-30.273,-103.516
1688253363.958,108.398,-20.996,-39.062,-66.895,-307.617
1688253363.961,20.020,-44.922,-36.621,-61.035,-182.129
1688253363.965,-132.324,-35.645,-28.809,-15.625,-126.465
1688253363.969,-171.387,-37.109,-25.879,30.762,-104.980
1688253363.973,-14.160,-55.664,-38.086,-12.207,-13.672
1688253363.977,126.953,-62.500,-29.297,-74.707,-8.789
1688253363.981,75.684,-98.145,-41.504,-49.316,-187.500
1688253363.985,-106.445,-76.172,-57.129,-9.277,-145.996
1688253363.988,-165.527,-13.672,-8.301,25.879,128.906
1688253363.992,-4.883,-36.133,12.695,14.160,104.492
1688253363.996,125.977,-68.848,-27.344,-61.523,-193.848
1688253364.000,68.359,-24.414,-41.016,-90.820,-321.289
1688253364.004,-105.469,4.395,-31.250,-38.086,-59.570
1688253364.005,-213.379,6.836,-28.320,6.836,332.031
1688253364.009,-70.801,-17.090,-13.184,-20.020,117.676
1688253364.013,123.047,-71.289,-9.277,-32.715,-149.902
1688253364.017,110.840,-66.406,-35.645,-34.668,-185.059
1688253364.021,-44.434,-40.039,-26.855,-20.508,-115.234
1688253364.025,-152.344,-31.250,-15.137,16.602,6.836
1688253364.029,-51.270,-46.875,-19.043,24.414,86.426
1688253364.032,121.582,-36.133,-3.418,-17.578,215.332
1688253364.036,96.680,-4.395,-22.461,-66.406,239.746
1688253364.040,-60.547,-32.227,-37.598,-57.617,-100.098
1688253364.044,-183.105,-91.797,-26.367,-0.488,-136.230
1688253364.048,-122.559,-39.062,-28.320,-5.371,44.922
1688253364.051,84.473,50.293,-2.930,-51.270,-123.047
1688253364.055,137.207,39.062,32.715,-42.480,-257.324
1688253364.059,-6.348,-11.719,20.020,-11.230,-163.574
1688253364.063,-168.945,-37.109,0.488,14.160,-45.898
1688253364.067,-137.695,-22.461,-4.395,18.066,5.371
1688253364.071,43.945,-22.461,-18.555,-33.203,-30.273
1688253364.075,84.961,-60.547,-30.273,-91.309,-4.883
1688253364.078,7.812,-42.480,-36.133,-61.035,118.164
1688253364.082,-135.742,-11.230,-38.086,10.254,0.000
1688253364.086,-165.527,-59.082,-29.297,6.836,-55.176
1688253364.090,40.527,-58.105,-26.367,-37.598,3.418
1688253364.094,134.277,3.906,-17.090,-61.523,-77.637
1688253364.095,29.785,35.645,6.836,-41.992,-187.012
1688253364.099,-138.184,20.996,3.418,15.137,-100.586
1688253364.103,-179.688,-46.875,-31.250,16.113,197.266
1688253364.107,18.066,-67.871,-24.902,-10.254,143.555
1688253364.111,150.391,-7.324,0.977,-57.129,-149.902
1688253364.115,46.387,0.977,-7.324,-76.660,-211.914
1688253364.119,-133.789,-73.730,-39.551,-16.602,190.430
1688253364.122,-181.152,-59.082,-60.547,39.551,495.605
1688253364.126,-12.695,26.367,-29.297,10.742,37.598
1688253364.130,118.652,41.016,9.277,-47.363,-267.578
1688253364.134,57.617,20.508,8.789,-47.852,-256.348
1688253364.138,-110.352,3.906,-10.254,6.348,-227.539
1688253364.154,-196.777,-6.348,-22.949,34.668,-157.227
1688253364.158,-59.570,-20.996,-20.996,-33.691,27.344
1688253364.162,69.336,-41.016,-14.648,-94.727,43.945
1688253364.166,34.668,-31.738,-21.484,-92.773,-226.074
1688253364.170,-95.215,-21.973,-11.230,-26.367,-238.770
1688253364.174,-206.055,-54.199,12.695,29.297,111.816
1688253364.178,-90.820,-70.312,12.695,-12.207,426.758
1688253364.181,72.266,-24.414,-21.484,-81.055,60.547
1688253364.185,47.363,-15.625,-36.621,-99.121,-358.398
1688253364.189,-99.121,-46.875,-17.090,-63.965,-189.453
1688253364.193,-214.355,-58.594,-15.137,-7.812,15.625
1688253364.197,-105.957,-64.453,-15.625,-22.461,-57.129
1688253364.200,72.266,-76.172,-27.344,-83.008,-202.148
1688253364.204,87.891,-78.125,-35.156,-87.891,-197.754
1688253364.208,-54.199,-67.871,-31.738,-55.664,-112.793
1688253364.212,-186.523,-60.059,-25.879,-7.812,-53.711
1688253364.216,-95.703,-62.012,-19.043,-1.465,10.742
1688253364.220,89.844,-62.500,-14.160,-45.410,255.859
1688253364.224,113.770,-62.012,-16.602,-68.848,218.262
1688253364.227,-19.531,-62.012,-22.949,-45.898,-98.145
1688253364.231,-162.109,-56.641,-24.414,9.766,-75.195
1688253364.235,-94.238,-51.758,-20.020,27.832,235.840
1688253364.239,76.660,-50.293,-14.160,-19.531,200.684
1688253364.243,102.051,-59.082,-20.020,-65.918,-258.789
1688253364.245,7.812,-55.176,-28.320,-48.340,-245.117
1688253364.249,-145.508,-40.039,-25.879,3.418,-41.016
1688253364.253,-141.602,-51.758,-40.039,7.324,23.926
1688253364.257,59.570,-106.934,-27.832,-20.508,-91.309
1688253364.261,145.020,-103.027,-11.230,-57.129,-125.488
1688253364.265,29.297,0.488,-26.855,-58.105,11.230
1688253364.269,-152.832,1.465,-39.062,-19.043,87.402
1688253364.272,-174.316,12.695,-50.293,8.301,112.305
1688253364.276,22.949,43.457,-33.203,-14.648,101.562
1688253364.280,126.465,-2.441,-19.043,-64.941,213.379
1688253364.284,37.598,13.672,-34.180,-74.219,20.020
1688253364.288,-122.070,50.293,-31.250,-9.766,-130.859
1688253364.289,-160.645,41.504,-16.113,32.715,64.453
1688253364.293,12.695,18.066,-19.531,-6.348,-3.418
1688253364.297,125.977,10.254,-30.762,-51.758,-203.125
1688253364.301,61.523,4.395,-32.715,-45.410,-242.676
1688253364.305,-105.469,-13.184,-24.902,-1.953,-9.766
1688253364.309,-178.223,-34.180,-14.648,48.828,153.809
1688253364.313,-16.113,-18.066,-11.230,22.949,105.957
1688253364.316,110.840,-20.020,-30.762,-70.801,-68.848
1688253364.320,51.758,-26.367,-47.363,-84.473,56.641
1688253364.324,-91.309,12.207,-43.945,-16.602,337.891
1688253364.328,-190.430,-22.949,-45.898,16.602,88.379
1688253364.332,-33.691,-63.477,-40.039,-8.301,-80.078
1688253364.336,149.414,-86.914,-39.551,-45.898,-133.789
1688253364.340,104.004,-39.551,-37.598,-46.387,-278.320
1688253364.344,-61.523,58.105,-24.414,-15.625,-238.281
1688253364.348,-196.777,66.406,-34.668,8.301,-17.578
1688253364.352,-86.914,26.855,-36.621,-6.348,-5.859
1688253364.356,87.402,-39.551,-24.414,-51.270,-62.012
1688253364.360,74.707,-43.945,-24.902,-74.219,-129.395
1688253364.363,-62.988,-43.945,-39.062,-45.898,-56.152
1688253364.367,-166.992,-61.035,-29.297,27.344,267.578
1688253364.371,-70.801,-24.902,-7.324,26.855,151.367
1688253364.375,100.586,-27.344,-9.277,-31.250,-92.285
1688253364.379,120.117,-61.523,-17.578,-65.918,-112.793
1688253364.380,-28.320,-39.062,-20.996,-55.176,-101.562
1688253364.384,-181.152,-4.883,-27.344,0.000,-51.758
1688253364.388,-104.980,-13.184,-35.156,20.996,57.129
1688253364.392,80.566,-32.227,-31.250,-38.574,20.020
1688253364.396,106.445,-54.199,-21.973,-84.961,-89.844
1688253364.400,-13.184,-52.246,-27.832,-59.082,-47.852
1688253364.404,-177.734,-47.363,-34.180,-12.695,-21.973
1688253364.407,-153.320,-75.195,-38.574,-2.930,287.598
1688253364.411,44.434,-84.473,-27.344,-28.320,447.754
1688253364.415,92.285,-123.535,-40.039,-74.707,-93.262
1688253364.419,-20.020,-166.992,-62.988,-84.473,-306.152
1688253364.423,-151.367,-83.984,-29.297,-24.902,-118.652
1688253364.427,-153.320,-17.090,-24.902,-1.465,7.324
1688253364.431,17.578,-6.348,-51.758,-44.922,-94.727
1688253364.435,100.098,-44.434,-44.434,-88.379,-104.004
1688253364.439,19.531,-105.469,-23.926,-72.266,-82.520
1688253364.443,-142.578,-75.684,-16.602,-11.719,-94.238
1688253364.447,-187.500,-20.996,-31.250,2.441,43.945
1688253364.451,-4.883,-20.508,-45.898,-35.645,130.859
1688253364.454,95.703,-26.367,-50.293,-92.773,164.062
1688253364.458,20.020,-62.012,-54.199,-108.887,-145.020
1688253364.462,-127.930,-90.332,-34.180,-47.363,-193.359
1688253364.466,-182.129,-86.914,-21.484,10.742,83.984
1688253364.470,-21.973,-110.352,-50.293,-39.551,45.410
1688253364.470,97.168,-61.523,-41.016,-83.496,-187.988
1688253364.474,45.898,-2.930,-5.859,-69.824,-268.555
1688253364.478,-112.305,-5.859,-15.137,-37.109,-131.836
1688253364.482,-195.801,-38.574,-39.551,14.648,10.742
1688253364.486,-40.039,-73.730,-41.016,-14.648,63.965
1688253364.490,111.816,-61.523,-29.297,-81.055,-35.645
1688253364.494,54.199,-77.637,-26.855,-89.844,168.457
1688253364.497,-92.773,-84.961,-23.926,-31.738,482.422
1688253364.501,-167.969,-55.176,-13.672,21.973,184.570
1688253364.505,-51.758,-44.434,-25.879,14.648,-77.148
1688253364.509,104.980,-70.801,-43.457,-44.434,-147.949
1688253364.513,84.961,-108.398,-41.016,-92.773,-297.363
1688253364.516,-82.520,-83.008,-24.414,-62.988,-303.223
1688253364.520,-199.219,-4.883,-12.207,4.395,-126.465
1688253364.524,-62.012,27.344,-6.348,33.203,-18.066
1688253364.528,111.816,17.578,-1.953,-29.785,-129.883
1688253364.532,86.426,-26.855,-14.648,-99.609,-335.449
1688253364.536,-50.781,-57.617,-24.902,-65.918,-172.363
1688253364.540,-192.871,-76.172,-24.414,-1.465,272.461
1688253364.543,-129.883,-78.125,-30.273,-6.836,194.824
1688253364.547,60.547,-38.574,-30.762,-50.781,-168.457
1688253364.551,106.934,-40.527,-9.766,-63.477,-160.156
1688253364.555,-10.254,-83.008,-8.301,-41.992,6.348
1688253364.559,-179.199,-85.449,-42.480,-15.137,-55.664
1688253364.575,-134.766,-83.496,-43.457,-19.043,-101.562
1688253364.579,51.270,-60.059,-25.879,-66.895,-72.754
1688253364.583,77.148,-56.152,-25.391,-109.375,-148.438
1688253364.587,-25.391,-62.500,-24.414,-92.285,-245.117
1688253364.591,-131.348,-15.625,-1.465,-14.648,-71.289
1688253364.595,-119.141,-8.789,-5.859,14.648,457.031
1688253364.599,46.875,-48.340,-16.113,-28.809,462.891
1688253364.602,129.883,-118.652,-31.250,-62.012,-148.926
1688253364.606,24.414,-108.398,-59.570,-51.758,-317.871
1688253364.610,-135.742,-27.832,-29.785,-0.488,31.250
1688253364.614,-154.785,-19.043,6.348,17.090,136.719
1688253364.618,20.996,-21.484,10.254,-31.738,-159.180
1688253364.620,125.488,-25.879,8.789,-78.613,-224.121
1688253364.624,14.160,-38.086,-30.273,-88.867,-143.555
1688253364.628,-147.461,-46.875,-38.086,-31.250,-63.477
1688253364.632,-182.617,-83.984,-7.324,20.020,-34.668
1688253364.636,-23.926,-83.984,-9.766,-31.250,-7.812
1688253364.640,100.586,-41.016,-12.207,-83.008,34.668
1688253364.644,35.645,-53.223,-8.301,-78.125,-64.941
1688253364.647,-104.004,-83.008,-18.555,-41.016,-153.809
1688253364.651,-162.109,-82.031,-29.297,22.461,76.172
1688253364.655,-22.949,-73.730,-1.465,28.809,342.773
1688253364.659,97.168,-31.250,14.648,-36.133,-19.043
1688253364.663,42.480,-28.809,-19.043,-64.453,-317.871
1688253364.664,-108.887,-33.203,-36.621,-34.668,-74.219
1688253364.668,-213.867,-44.922,-24.902,1.953,70.312
1688253364.672,-89.844,-66.895,-24.902,-14.160,-27.832
1688253364.676,65.918,-71.777,-31.250,-61.035,-101.074
1688253364.680,36.621,-90.332,-30.762,-79.590,79.590
1688253364.684,-99.121,-112.793,-18.066,-30.762,173.828
1688253364.688,-220.703,-141.113,-26.855,-1.465,126.465
1688253364.691,-109.375,-131.836,-20.020,-12.207,91.797
1688253364.695,70.312,-103.027,0.488,-40.039,135.742
1688253364.699,78.125,-76.660,-0.488,-63.965,80.566
1688253364.703,-37.109,-43.457,-2.930,-26.367,-226.074
1688253364.707,-184.082,-101.562,-11.719,12.207,-81.543
1688253364.711,-117.188,-180.664,-16.602,2.441,16.113
1688253364.715,67.871,-104.004,-12.207,-38.574,-177.734
1688253364.719,68.848,-83.984,-14.160,-90.332,-279.297
1688253364.723,-44.922,-126.953,-21.973,-49.805,-139.648
1688253364.727,-166.504,-40.527,-4.883,35.645,59.082
1688253364.731,-112.305,13.672,-6.348,34.668,60.547
1688253364.735,67.383,-18.555,-25.391,-20.996,-19.531
1688253364.738,96.680,-55.176,-29.297,-71.777,-7.812
1688253364.742,-9.766,-67.871,-32.227,-63.965,146.973
1688253364.746,-149.902,14.648,-21.973,7.324,25.879
1688253364.750,-127.441,62.012,-12.207,11.719,-120.605
1688253364.754,48.828,-3.418,-24.902,-40.527,-59.082
1688253364.754,144.043,-31.738,-7.324,-30.762,-155.762
1688253364.758,57.129,-16.602,11.719,0.488,-291.504
1688253364.762,-141.113,-101.562,-11.719,7.812,-177.734
1688253364.766,-151.855,-83.984,-31.250,23.926,0.977
1688253364.770,47.363,-63.477,-43.457,-13.672,59.570
1688253364.774,131.348,-87.402,-44.922,-68.848,-78.125
1688253364.778,54.688,37.598,-20.020,-40.527,-167.480
1688253364.781,-126.465,60.059,-19.043,1.465,237.305
1688253364.785,-177.246,-52.246,-30.273,25.879,603.027
1688253364.789,21.973,-43.945,-13.672,-0.488,195.312
1688253364.793,133.789,-38.086,-20.020,-59.570,-241.699
1688253364.797,42.480,-145.996,-40.039,-64.453,-280.273
1688253364.801,-109.375,-174.805,-37.109,-21.484,-211.914
1688253364.805,-157.227,-77.637,-22.949,11.719,-103.027
1688253364.809,12.695,43.945,-12.207,-2.930,-63.965
1688253364.813,143.066,20.996,-27.344,-61.523,-194.824
1688253364.817,68.848,-79.102,-43.457,-92.773,-276.855
1688253364.821,-81.543,-60.547,-23.926,-42.480,-145.996
1688253364.825,-168.457,-3.906,-23.438,19.043,100.098
1688253364.828,-37.109,-69.336,-38.086,-7.324,360.840
1688253364.832,102.051,-116.211,-32.227,-74.219,48.828
1688253364.836,73.242,-71.777,-15.625,-81.543,-363.281
1688253364.840,-78.125,-101.562,-13.672,-41.992,-172.852
1688253364.844,-199.219,-136.230,-20.996,8.789,63.477
1688253364.860,-48.828,-95.703,-3.906,20.996,-15.137
1688253364.864,135.254,-66.895,0.000,-25.879,-138.184
1688253364.868,124.023,-44.922,-26.855,-47.852,-154.785
1688253364.872,-32.227,-63.477,-47.363,-18.555,-96.680
1688253364.876,-185.059,-95.703,-30.273,21.973,18.555
1688253364.880,-105.957,-89.844,-13.184,13.184,19.531
1688253364.884,83.008,-125.000,-22.949,-44.922,203.613
1688253364.887,104.492,-147.461,-22.461,-66.406,361.328
1688253364.891,-32.715,-104.980,-6.348,-38.086,-80.078
1688253364.895,-173.828,-96.191,-2.930,13.184,-100.098
1688253364.899,-91.309,-94.238,-16.113,51.270,115.234
1688253364.903,125.977,-110.840,-10.254,18.555,-107.910
1688253364.893,140.625,-127.930,-5.371,-47.363,-332.520
1688253364.897,-48.828,-118.164,-39.551,-70.801,-249.023
1688253364.901,-217.285,-72.266,-63.477,-22.949,-65.430
1688253364.905,-170.898,-35.156,-57.129,-8.789,-4.883
1688253364.909,24.902,-81.055,-33.691,-56.152,-122.070
1688253364.913,108.887,-65.430,-1.953,-57.617,-42.969
1688253364.917,10.254,-34.180,-0.977,-34.180,131.836
1688253364.920,-147.949,-51.758,-19.531,1.953,-28.320
1688253364.924,-155.273,-83.008,-11.230,22.949,-62.500
1688253364.928,19.531,-92.773,-10.254,-36.621,33.203
1688253364.932,94.727,-67.383,-24.414,-71.777,-63.965
1688253364.936,10.254,-89.844,-16.113,-54.199,-202.637
1688253364.936,-130.859,-125.488,-10.742,10.742,-96.191
1688253364.940,-136.719,-95.215,1.465,65.430,234.863
1688253364.944,36.621,-61.523,5.859,-2.441,334.473
1688253364.948,107.422,-71.777,-24.902,-74.219,-87.891
1688253364.952,41.016,-72.266,-37.598,-48.340,-259.277
1688253364.956,-120.117,-54.688,-15.137,-4.395,145.508
1688253364.960,-224.121,-66.406,-32.227,3.418,664.062
1688253364.963,-66.895,-88.379,-48.828,-36.621,293.945
1688253364.967,98.633,-135.742,-30.273,-71.289,-232.422
1688253364.971,52.734,-162.598,-23.926,-69.824,-231.934
1688253364.975,-124.512,-124.023,-21.484,-17.090,-166.992
1688253364.979,-206.055,-101.074,-16.602,42.480,-145.996
1688253364.996,-45.410,-125.488,-29.785,24.414,-74.707
1688253365.000,122.070,-102.539,-26.367,-24.902,-124.512
1688253365.004,91.309,-109.375,-20.020,-39.062,-271.484
1688253365.008,-66.406,-97.168,-21.973,-19.531,-248.535
1688253365.012,-189.941,-37.598,-8.301,30.762,21.484
1688253365.016,-69.824,-54.199,-16.113,4.395,250.488
1688253365.020,92.773,-59.570,-19.531,-57.129,44.434
1688253365.023,77.637,-51.270,-15.625,-53.711,-236.328
1688253365.027,-55.176,-101.074,-50.293,-15.625,-120.605
1688253365.031,-193.848,-156.738,-45.898,24.414,196.777
1688253365.035,-119.141,-149.902,-25.879,-11.230,1.465
1688253365.039,57.617,-183.594,-41.992,-74.219,-207.031
1688253365.040,79.590,-257.812,-36.133,-73.242,-210.449
1688253365.044,-23.438,-185.547,-23.926,-22.949,-194.336
1688253365.048,-145.020,-41.504,-8.301,52.734,-92.285
1688253365.052,-114.746,-59.570,-16.602,24.414,-19.531
1688253365.056,43.945,-140.137,-22.461,-72.266,-8.789
1688253365.060,96.191,-142.090,-4.395,-77.148,-101.074
1688253365.064,-34.180,-130.371,1.465,-43.945,-213.867
1688253365.067,-206.055,-140.137,8.789,-21.484,-82.520
1688253365.071,-186.523,-162.109,-9.766,-34.180,316.895
1688253365.075,-21.484,-176.758,-16.602,-94.727,520.996
1688253365.079,62.988,-147.949,17.578,-102.539,20.020
1688253365.083,-14.648,-168.457,36.621,-55.664,-285.156
1688253365.086,-208.496,-182.129,32.227,-9.766,-72.266
1688253365.090,-221.191,-176.270,17.090,0.977,13.184
1688253365.094,-24.414,-208.984,9.766,-68.848,-104.980
1688253365.098,41.992,-227.539,-10.742,-146.484,-204.102
1688253365.102,-46.875,-243.164,-36.621,-115.234,-198.730
1688253365.106,-185.059,-228.027,-18.066,-41.016,-67.871
1688253365.110,-186.523,-165.039,22.949,-0.488,33.691
1688253365.113,8.301,-96.680,21.484,-14.648,52.246
1688253365.117,109.863,-71.289,2.930,-51.758,284.180
1688253365.121,1.465,-89.355,-7.324,-76.660,48.340
1688253365.125,-185.059,-91.309,-16.113,-42.480,-173.828
1688253365.129,-209.473,-83.496,-8.789,14.160,20.020
1688253365.129,-8.301,-104.980,-17.090,-16.113,-1.465
1688253365.133,104.980,-115.723,-31.738,-70.312,-172.363
1688253365.137,44.922,-75.195,-22.461,-69.336,-281.738
1688253365.141,-97.656,-80.078,-13.672,-12.695,-139.648
1688253365.145,-170.410,-150.391,-10.742,26.367,114.746
1688253365.149,3.906,-150.879,3.418,27.344,68.359
1688253365.153,159.668,-83.496,9.277,-3.906,-99.121
1688253365.156,123.047,-53.223,-11.719,-37.598,67.871
1688253365.160,-71.777,-60.547,-35.156,-27.344,304.688
1688253365.164,-214.844,-28.320,-35.156,-4.883,63.477
1688253365.168,-65.918,14.648,-17.578,-24.414,-78.125
1688253365.172,97.656,-5.859,-10.254,-62.988,-72.754
1688253365.176,78.125,-37.109,-16.113,-74.219,-285.156
1688253365.180,-57.617,-35.156,-12.695,-39.062,-304.199
1688253365.184,-178.223,-68.848,-22.949,13.672,-15.625
1688253365.188,-86.426,-89.844,-32.715,3.906,122.559
1688253365.192,81.055,-62.988,-22.461,-46.875,-110.840
1688253365.196,81.543,-128.418,-29.297,-68.848,-207.520
1688253365.200,-62.012,-166.992,-20.996,-31.250,-4.883
1688253365.203,-186.523,-81.543,-5.371,25.879,284.180
1688253365.207,-83.008,-12.695,-5.859,6.836,106.934
1688253365.211,72.754,-42.969,-20.996,-63.965,-146.973
1688253365.215,90.332,-156.738,-26.367,-62.500,-172.852
1688253365.219,-19.043,-128.906,-36.133,-30.762,-145.996
1688253365.221,-192.871,-12.207,-52.246,-26.855,-12.695
1688253365.225,-138.672,32.227,-35.156,-13.184,101.562
1688253365.229,71.289,32.715,-26.855,-39.551,134.766
1688253365.233,126.953,-13.672,-10.742,-65.918,-27.832
1688253365.237,-12.695,-51.758,-9.766,-45.898,-167.480
1688253365.241,-184.570,-77.637,-33.203,-7.812,-45.898
1688253365.245,-165.039,-137.695,-26.367,-0.488,297.363
1688253365.248,24.414,-125.488,-26.855,-31.738,443.359
1688253365.252,130.371,-23.926,-26.855,-57.617,-117.676
1688253365.256,9.277,-0.488,-44.922,-57.617,-347.656
1688253365.260,-176.758,-51.758,-37.109,-8.301,-107.910
1688253365.264,-177.734,-165.039,-30.762,15.137,-10.254
1688253365.266,28.320,-142.578,-21.973,-2.441,-126.465
1688253365.270,134.766,-28.320,-36.621,-43.457,-242.676
1688253365.274,56.152,-12.695,-82.520,-50.781,-235.352
1688253365.278,-105.469,20.508,-45.410,2.441,-56.641
1688253365.282,-169.922,30.762,18.066,26.367,41.992
1688253365.286,17.090,15.625,34.668,-29.297,42.480
1688253365.290,124.023,-29.785,35.645,-62.012,352.539
1688253365.293,49.805,-78.613,41.992,-31.738,204.102
1688253365.297,-99.121,-104.004,29.785,-0.488,-213.379
1688253365.301,-178.223,-67.383,-8.301,24.414,-95.703
1688253365.305,-15.137,-5.371,0.977,-7.324,-62.012
1688253365.309,102.051,-25.391,2.930,-66.406,-252.441
1688253365.325,38.574,-62.988,-24.414,-69.336,-365.234
1688253365.329,-94.238,-57.617,-10.254,-6.348,-221.191
1688253365.333,-205.566,-94.238,-20.508,7.812,-25.879
1688253365.337,-65.918,-152.344,-30.273,-26.855,-50.781
1688253365.341,90.820,-89.355,-29.297,-58.594,-101.562
1688253365.345,69.336,-16.113,-6.348,-46.875,116.211
1688253365.349,-81.543,-32.227,-1.953,-33.691,186.035
1688253365.352,-222.656,-17.578,-20.508,-3.906,107.422
1688253365.356,-104.004,-8.301,-2.441,-1.465,57.129
1688253365.360,75.195,-39.551,5.371,-61.035,117.188
1688253365.364,72.266,-46.875,3.906,-86.914,105.469
1688253365.368,-78.613,-46.387,8.301,-36.133,-236.328
1688253365.370,-193.359,-75.195,11.230,26.367,-161.133
1688253365.374,-69.336,-63.965,33.203,39.062,-36.621
1688253365.378,101.074,-61.523,27.832,-10.254,-125.977
1688253365.382,111.816,-121.582,-13.672,-68.848,-258.789
1688253365.386,-22.461,-202.148,-21.484,-51.270,-179.688
1688253365.390,-196.289,-194.824,-11.719,-4.395,87.402
1688253365.394,-145.996,-143.555,-21.484,-6.348,159.180
1688253365.397,36.133,-92.773,-27.832,-65.918,-69.336
1688253365.401,73.730,-57.617,-19.043,-88.867,-152.344
1688253365.405,-27.832,-85.449,-16.602,-51.758,189.453
1688253365.409,-165.527,-71.777,-22.461,4.395,171.387
1688253365.413,-110.840,-57.617,-13.184,40.527,-33.691
1688253365.414,85.449,-119.141,-10.254,-11.230,-46.387
1688253365.418,116.699,-141.602,-20.020,-79.102,-150.879
1688253365.422,2.930,-113.770,-24.902,-59.570,-207.031
1688253365.426,-166.504,-94.727,-16.602,-2.930,-126.953
1688253365.430,-142.090,-85.449,-3.906,16.602,49.805
1688253365.434,56.641,-114.746,-16.602,-41.504,56.152
1688253365.438,91.309,-111.816,-22.461,-97.656,-85.938
1688253365.441,8.789,-71.289,-2.930,-68.848,-184.570
1688253365.445,-129.883,-52.246,36.133,24.902,147.461
1688253365.449,-150.391,-77.148,41.992,45.898,406.738
1688253365.453,4.395,-111.328,-19.043,-28.809,53.223
1688253365.457,87.891,-106.934,-42.969,-81.055,-142.578
1688253365.461,16.113,-90.820,-38.574,-84.961,-120.117
1688253365.465,-145.020,-87.891,-59.570,-41.504,-134.766
1688253365.469,-190.430,-106.934,-32.227,16.602,-125.488
1688253365.473,0.977,-142.578,0.977,-4.883,-45.410
1688253365.477,142.090,-125.977,6.836,-43.945,-122.559
1688253365.481,35.156,-129.395,-30.762,-54.199,-199.707
1688253365.485,-144.043,-135.742,-45.410,-52.734,-97.168
1688253365.488,-178.711,-75.684,-16.113,-5.371,124.512
1688253365.492,-39.062,-93.262,-9.277,-10.742,326.660
1688253365.496,97.168,-81.055,-10.742,-64.941,-5.859
1688253365.500,93.750,4.883,0.977,-45.898,-278.320
1688253365.504,-63.477,20.020,0.488,-6.348,-108.398
1688253365.505,-206.543,3.906,-20.996,-3.906,36.621
1688253365.509,-75.684,-41.016,-21.973,-15.625,72.754
1688253365.513,117.676,-61.523,-11.719,-40.527,-90.332
1688253365.517,91.797,-99.609,-24.414,-71.777,-127.930
1688253365.521,-76.172,-112.793,-48.340,-63.965,-11.719
1688253365.525,-194.336,-76.172,-27.344,20.020,74.707
1688253365.529,-90.820,-129.395,-29.785,13.672,110.840
1688253365.532,78.125,-207.520,-42.969,-63.965,185.547
1688253365.536,114.258,-108.398,-5.371,-54.199,119.141
1688253365.540,-22.949,24.902,-6.836,-36.133,-217.773
1688253365.544,-189.453,19.043,-41.504,-1.953,-140.137
1688253365.548,-90.820,-62.500,-23.926,9.766,103.516
1688253365.551,102.051,-104.004,0.977,-39.062,-28.320
1688253365.555,99.609,-36.133,-6.836,-85.449,-316.406
1688253365.559,-43.945,6.836,-22.461,-76.172,-236.816
1688253365.563,-200.195,-9.766,-30.273,-14.160,-35.156
1688253365.567,-140.625,-36.133,-10.742,21.973,7.812
1688253365.571,67.383,-73.242,-11.230,-25.391,-49.316
1688253365.575,137.695,-97.168,-26.367,-58.594,-104.004
1688253365.578,50.293,-115.234,-3.418,-7.324,174.316
1688253365.582,-115.234,-60.059,-2.441,37.598,204.102
1688253365.586,-168.945,0.000,-35.645,-5.371,-20.508
1688253365.590,0.000,-17.578,-39.551,-74.219,-35.156
1688253365.594,99.121,-38.574,-48.828,-87.402,-192.871
1688253365.594,7.324,-20.508,-37.109,-65.918,-282.715
1688253365.598,-154.785,-7.812,-3.418,-31.250,-119.629
1688253365.602,-187.500,-22.949,-5.371,-10.254,46.875
1688253365.606,-1.465,-16.602,0.977,-21.973,-50.293
1688253365.610,100.586,-53.711,-18.555,-103.027,-170.410
1688253365.614,21.973,-60.059,-62.988,-104.004,-197.754
1688253365.618,-116.211,-69.824,-62.012,-3.418,177.734
1688253365.621,-149.414,-61.035,-2.441,27.344,628.906
1688253365.625,23.438,1.953,44.434,-2.930,195.801
1688253365.629,111.816,-20.020,16.113,-79.590,-207.520
1688253365.633,4.395,-49.316,-20.020,-126.465,-168.945
1688253365.637,-162.109,-22.461,-39.062,-87.402,-138.672
1688253365.641,-215.820,-5.371,-32.227,-24.414,-118.652
1688253365.645,-50.781,-27.344,-20.508,-44.922,-61.035
1688253365.649,94.238,-19.531,-18.066,-85.938,3.418
1688253365.653,52.246,1.465,-27.832,-96.680,-155.273
1688253365.657,-104.004,-26.367,-40.527,-56.152,-257.324
1688253365.661,-196.289,-48.340,-22.461,8.301,34.180
1688253365.665,-57.617,-24.902,-11.230,-13.672,252.441
1688253365.668,108.887,-7.324,-15.137,-74.219,-94.238
1688253365.672,53.223,-30.273,-21.973,-101.562,-356.445
1688253365.676,-128.418,-41.992,-35.156,-69.336,-22.949
1688253365.680,-229.004,-26.367,-21.973,-6.348,194.336
1688253365.684,-89.355,-3.418,-8.301,-7.324,-9.277
1688253365.700,107.910,-1.465,-35.156,-66.895,-147.461
1688253365.704,92.773,-6.836,-48.340,-94.727,-167.480
1688253365.708,-77.148,-24.414,-40.527,-68.359,-138.672
1688253365.712,-193.848,-33.203,-30.273,-13.184,-54.199
1688253365.716,-85.449,-6.836,-20.020,12.207,13.672
1688253365.720,84.961,-0.977,-20.996,-50.781,223.145
1688253365.724,91.309,19.531,-23.438,-82.031,286.133
1688253365.727,-41.504,44.922,-43.457,-63.965,-85.449
1688253365.731,-186.035,27.344,-61.035,-21.973,-178.223
1688253365.735,-132.812,43.457,-49.316,-4.883,61.523
1688253365.739,62.500,70.312,-27.832,-52.246,-23.926
1688253365.743,130.859,94.238,-6.836,-73.242,-292.969
1688253365.745,-2.441,103.027,-23.926,-48.828,-276.367
1688253365.749,-199.219,92.285,-50.293,-16.602,-55.176
1688253365.753,-187.012,108.398,-41.016,-11.719,47.363
1688253365.757,32.227,137.207,-16.113,-38.574,-113.770
1688253365.761,127.441,143.555,-6.836,-67.871,-191.895
1688253365.765,18.066,117.676,-13.672,-57.129,-144.043
1688253365.769,-140.137,109.375,0.977,3.418,-9.277
1688253365.772,-142.578,128.906,3.906,1.953,23.926
1688253365.776,32.715,137.695,-10.742,-29.297,6.348
1688253365.780,117.676,139.648,-24.902,-62.988,143.555
1688253365.784,35.156,155.273,-40.039,-81.055,-85.449
1688253365.788,-153.320,140.137,-62.500,-37.109,-208.496
1688253365.791,-189.453,153.809,-58.594,13.672,-33.691
1688253365.795,28.809,178.711,-26.855,0.000,-0.488
1688253365.799,132.812,147.461,-7.812,-45.898,-118.652
1688253365.803,54.688,114.746,-4.883,-63.965,-248.047
1688253365.807,-106.445,115.723,-20.020,-19.043,136.719
1688253365.811,-166.992,172.852,-18.066,44.434,386.719
1688253365.815,9.277,246.582,-8.789,21.484,69.336
1688253365.818,142.090,272.949,-5.371,-47.852,-143.066
1688253365.822,75.195,199.219,-18.555,-59.082,-54.688
1688253365.826,-98.633,155.762,-39.551,-40.039,128.418
1688253365.830,-211.426,196.289,-28.809,3.418,-27.832
1688253365.834,-58.594,203.613,-20.508,0.977,-75.195
1688253365.836,109.863,187.988,-52.246,-62.012,-164.062
1688253365.840,63.477,202.637,-62.500,-95.703,-232.910
1688253365.844,-89.355,232.422,-27.344,-57.129,-181.641
1688253365.848,-194.824,215.332,-20.020,10.742,41.992
1688253365.852,-75.195,191.895,-28.809,-15.137,252.930
1688253365.856,95.215,166.016,-27.832,-76.660,36.133
1688253365.860,80.078,115.723,-37.109,-89.844,-166.016
1688253365.863,-63.477,69.336,-48.828,-54.688,-76.172
1688253365.867,-198.730,35.156,-47.852,-3.418,354.492
1688253365.871,-120.605,70.312,-36.133,-13.672,276.855
1688253365.875,75.195,111.328,-27.344,-55.664,-166.504
1688253365.879,100.098,87.402,-34.668,-73.242,-225.098
1688253365.879,-42.480,57.129,-37.109,-62.500,-226.074
1688253365.883,-167.969,44.922,-23.926,-12.695,-106.445
1688253365.887,-88.867,54.688,-17.090,8.789,20.020
1688253365.891,80.566,78.613,-19.043,-37.598,-28.809
1688253365.895,100.586,35.645,-23.438,-80.078,-124.512
1688253365.899,-27.344,-27.344,-36.133,-67.383,-179.688
1688253365.903,-165.527,-16.113,-29.297,-5.859,-21.973
1688253365.906,-112.305,24.902,-15.137,21.484,351.562
1688253365.910,56.641,58.594,-18.555,-40.039,548.340
1688253365.914,99.121,35.645,-18.555,-95.703,44.922
1688253365.918,22.949,-11.719,-5.371,-63.477,-311.035
1688253365.922,-141.602,0.977,-7.812,9.277,-106.934
1688253365.926,-167.480,20.996,-11.230,34.668,-21.484
1688253365.930,18.555,30.762,-1.953,-25.879,-164.551
1688253365.934,100.586,20.996,-0.977,-100.098,-216.309
1688253365.938,18.555,-10.254,-21.484,-111.816,-176.758
1688253365.942,-152.344,-5.371,-26.367,-54.199,-135.742
1688253365.946,-199.219,16.602,-9.277,-13.672,11.719
1688253365.950,-10.742,8.789,-18.066,-58.594,123.047
1688253365.953,106.445,-24.902,-21.484,-102.539,128.418
1688253365.957,35.156,-68.848,-16.113,-85.449,-156.738
1688253365.961,-120.117,-80.078,-10.254,-3.906,-226.562
1688253365.965,-187.500,-36.133,-13.672,17.578,100.098
1688253365.969,-12.207,-25.391,-10.742,-28.320,230.469
1688253365.969,115.234,-9.277,-13.184,-73.242,-149.414
1688253365.973,46.875,41.504,-26.367,-76.172,-333.496
1688253365.977,-104.004,30.273,-19.043,-10.742,-192.383
1688253365.981,-201.172,-2.441,-31.738,22.461,-54.199
1688253365.985,-34.668,-9.277,-51.270,-11.230,-42.969
1688253365.989,121.582,-20.020,-51.270,-66.406,-165.039
1688253365.993,71.289,-37.598,-38.574,-80.078,66.895
1688253365.996,-72.266,-34.668,-27.344,-33.203,329.590
1688253366.000,-195.312,-27.832,-31.738,1.465,58.594
1688253366.004,-75.684,-49.316,-30.273,-20.508,-86.914
1688253366.008,100.586,-80.566,-25.879,-75.684,-161.133
1688253366.012,85.449,-104.980,-23.926,-87.891,-248.535
1688253366.017,-58.594,-64.453,-16.602,-44.922,-231.934
1688253366.021,-185.547,-64.941,-18.066,14.160,-79.590
1688253366.025,-78.613,-154.785,-21.973,14.648,60.547
1688253366.029,99.609,-105.469,-20.508,-25.391,-40.527
1688253366.033,103.027,-12.695,-18.555,-68.359,-237.305
1688253366.037,-28.320,-9.277,-29.785,-47.852,-42.480
1688253366.041,-169.922,1.953,-47.363,15.137,386.230
1688253366.044,-98.633,19.043,-35.156,-0.488,159.180
1688253366.048,90.332,0.000,-32.227,-57.129,-172.363
1688253366.052,107.422,-49.316,-36.133,-73.730,-176.270
1688253366.056,-43.457,-62.988,-16.602,-44.922,-158.203
1688253366.060,-179.199,-46.875,-15.625,11.230,-106.445
1688253366.075,-111.328,-37.598,-27.344,23.438,38.574
1688253366.079,66.406,-82.520,-30.273,-39.551,19.043
1688253366.083,118.164,-145.996,-18.066,-71.777,-22.461
1688253366.087,2.930,-111.816,-16.602,-63.965,-72.754
1688253366.091,-173.340,-63.477,-20.508,-8.789,-57.617
1688253366.095,-153.320,-25.879,-17.578,20.020,299.316
1688253366.099,57.129,27.832,-20.020,-16.113,524.414
1688253366.102,118.164,24.902,-25.879,-64.941,9.766
1688253366.106,21.973,-13.184,-29.785,-76.172,-324.219
1688253366.110,-127.930,-20.996,-26.367,-30.273,-78.125
1688253366.114,-169.922,-25.879,-15.137,2.930,53.711
1688253366.118,10.254,-64.941,-17.578,-24.414,-84.473
1688253366.121,130.859,-79.590,-28.320,-78.613,-187.012
1688253366.125,48.340,-58.105,-26.367,-78.125,-151.855
1688253366.129,-139.648,-121.582,-22.461,-29.785,-111.328
1688253366.133,-202.637,-142.090,-27.344,3.418,-51.270
1688253366.137,-7.812,-9.766,-27.344,-5.371,76.660
1688253366.141,110.840,14.160,-31.250,-71.777,25.391
1688253366.145,40.527,-38.086,-30.273,-85.938,-116.699
1688253366.148,-89.355,-3.418,-22.461,-7.812,-80.078
1688253366.152,-171.875,-66.895,-29.785,22.461,102.051
1688253366.156,-38.086,-90.820,-41.992,-31.250,349.609
1688253366.160,117.188,3.906,-36.621,-70.312,1.953
1688253366.164,69.824,0.000,-33.691,-66.406,-308.594
1688253366.165,-109.375,-81.055,-15.625,-15.137,-177.246
1688253366.169,-194.824,-149.414,3.906,41.992,-26.855
1688253366.173,-56.641,-75.195,-12.695,4.395,-32.715
1688253366.177,96.191,26.367,-27.344,-64.941,-157.715
1688253366.181,76.660,-19.531,-20.508,-71.289,-71.289
1688253366.185,-78.613,-108.887,-27.832,-42.480,53.223
1688253366.189,-185.547,-70.312,-23.438,11.719,108.887
1688253366.192,-47.363,15.625,12.207,25.879,61.035
1688253366.196,108.887,3.906,-1.465,-30.273,138.184
1688253366.200,82.031,-55.664,-38.574,-74.219,240.723
1688253366.204,-62.988,-94.727,-37.109,-62.012,-92.773
1688253366.208,-221.680,-105.957,-42.969,-14.648,-168.457
1688253366.211,-106.445,-38.574,-19.043,12.695,-40.527
1688253366.215,98.633,22.949,9.277,-33.203,-159.180
1688253366.219,85.938,8.789,-7.324,-75.195,-230.469
1688253366.223,-38.574,-50.293,-20.020,-39.062,-147.949
1688253366.227,-156.738,-89.355,-16.602,32.227,-40.527
1688253366.231,-109.863,-83.984,-20.020,39.062,-2.441
1688253366.235,49.805,-58.594,-23.438,-52.734,-53.711
1688253366.238,88.867,-30.762,-20.020,-100.098,-30.762
1688253366.242,-11.719,-59.570,-15.137,-65.430,38.574
1688253366.246,-187.012,-142.578,-18.066,-5.371,1.465
1688253366.250,-162.109,-104.004,-17.578,15.137,16.602
1688253366.254,48.828,-58.594,-24.414,-32.227,50.781
1688253366.255,116.211,-91.797,-11.719,-60.059,78.613
1688253366.259,33.691,4.883,5.371,-23.926,-152.832
1688253366.263,-120.605,83.984,-7.324,30.762,-124.512
1688253366.267,-150.879,56.641,-14.160,28.320,29.785
1688253366.271,18.066,-8.301,-2.441,-19.531,-22.461
1688253366.275,97.168,-88.379,5.371,-64.941,-175.293
1688253366.279,-6.348,-168.945,-0.977,-91.309,-261.230
1688253366.282,-184.570,-174.316,7.324,-45.898,113.281
1688253366.286,-216.309,-83.984,13.672,7.812,491.211
1688253366.290,-43.457,-32.227,0.000,-74.707,102.051
1688253366.294,3.418,-97.168,-21.973,-208.008,-227.051
1688253366.298,-100.586,-145.020,-18.555,-232.422,-184.570
1688253366.315,-258.301,-125.977,-15.625,-197.266,-48.340
1688253366.319,-360.840,-109.375,-29.297,-183.105,-39.551
1688253366.323,-252.441,-169.434,-41.016,-244.629,-81.055
1688253366.327,-125.000,-188.477,-54.199,-320.312,-75.684
1688253366.331,-148.438,-83.984,-43.457,-311.035,-206.543
1688253366.335,-270.508,-95.215,-16.602,-250.977,-153.320
1688253366.339,-340.820,-141.602,-41.504,-184.082,167.969
1688253366.342,-203.125,-61.035,-58.594,-195.312,398.438
1688253366.346,-82.031,-30.762,-47.363,-285.156,47.852
1688253366.350,-119.141,-33.203,-57.617,-325.195,-272.949
1688253366.354,-257.324,-63.477,-73.242,-276.855,-156.250
1688253366.358,-360.840,-93.750,-64.941,-207.031,26.855
1688253366.345,-207.031,-83.008,-53.711,-184.570,-20.508
1688253366.349,-10.742,-68.848,-71.777,-198.730,-201.660
1688253366.353,-4.395,-64.941,-75.684,-211.914,-148.926
1688253366.357,-138.672,-56.152,-46.875,-173.340,-70.312
1688253366.361,-276.855,-56.152,-46.875,-104.492,-48.340
1688253366.365,-156.738,-102.051,-57.129,-96.680,34.180
1688253366.369,38.574,-86.426,-59.082,-129.395,206.543
1688253366.372,46.387,-46.387,-62.012,-144.043,109.863
1688253366.376,-80.566,-49.316,-59.082,-109.375,-203.613
1688253366.380,-215.820,-64.453,-42.969,-51.270,-182.617
1688253366.384,-124.512,-128.906,-29.297,-23.438,239.746
1688253366.388,83.496,-166.504,-20.996,-39.062,331.055
1688253366.391,139.160,-88.867,2.441,-69.824,-211.914
1688253366.395,27.344,-56.152,-13.672,-63.477,-232.910
1688253366.399,-146.973,-64.941,-46.875,6.836,-3.906
1688253366.403,-104.004,-71.289,-44.434,41.992,-0.488
1688253366.407,118.652,-82.520,-26.855,6.348,-133.301
1688253366.411,166.016,-99.609,-41.016,-28.320,-143.066
1688253366.415,59.082,-128.418,-40.039,4.395,199.707
1688253366.418,-80.566,-98.145,-14.160,68.359,159.180
1688253366.422,-70.801,-45.898,-15.137,87.402,-44.434
1688253366.426,116.699,-55.176,-20.020,45.898,89.844
1688253366.430,196.289,-71.289,-11.230,3.418,50.781
1688253366.434,114.258,-83.008,-14.648,17.578,-222.656
1688253366.450,-48.340,-104.492,-15.625,63.477,-151.855
1688253366.454,-85.449,-83.008,-18.066,99.121,2.930
1688253366.458,90.820,-60.059,-33.691,76.660,-67.383
1688253366.462,190.430,-76.172,-37.109,18.555,-209.961
1688253366.466,103.027,-86.426,-33.691,-0.488,-241.699
1688253366.470,-63.965,-82.031,-24.902,62.012,167.969
1688253366.474,-106.445,-76.172,-5.371,104.004,340.820
1688253366.477,69.336,-69.336,-6.836,81.543,-55.176
1688253366.481,177.246,-109.375,-23.438,22.461,-202.637
1688253366.485,102.539,-136.719,-38.574,-24.902,-195.801
1688253366.489,-58.105,-107.422,-44.922,20.996,-157.715
1688253366.493,-134.277,-70.312,-21.973,81.543,-47.852
1688253366.495,42.969,-10.742,-9.766,76.172,-60.059
1688253366.499,180.664,11.230,-38.086,15.137,0.000
1688253366.503,127.441,-18.555,-37.109,-14.160,-77.148
1688253366.507,-13.184,-45.898,-24.902,39.551,-235.840
1688253366.511,-146.484,-81.055,-28.809,91.309,4.883
1688253366.515,-19.531,-98.633,-17.090,71.777,236.816
1688253366.519,163.086,-79.590,-23.926,20.508,60.059
1688253366.522,134.766,-53.223,-36.133,-7.324,-262.695
1688253366.526,-19.043,-70.801,-18.066,18.066,-123.047
1688253366.530,-138.672,-90.332,-7.324,78.613,334.473
1688253366.534,-31.738,-42.969,-7.812,83.984,203.125
1688253366.538,148.926,8.301,-3.906,17.578,-163.086
1688253366.539,145.996,-5.859,-16.113,5.371,-105.469
1688253366.543,-1.953,-81.055,-17.578,27.832,-12.207
1688253366.547,-137.695,-116.211,-17.578,40.527,-82.520
1688253366.551,-43.457,-97.656,-17.090,60.059,-111.328
1688253366.555,117.188,-92.285,-30.273,-1.953,-48.340
1688253366.559,107.422,-65.918,-56.152,-64.453,-92.773
1688253366.563,-14.648,-46.875,-44.922,-36.133,-141.602
1688253366.566,-160.645,-33.203,-26.367,25.879,-118.164
1688253366.570,-106.445,-41.016,-28.809,52.246,156.738
1688253366.574,88.379,-43.945,-27.832,6.836,286.133
1688253366.578,136.230,-14.648,-17.090,-40.039,-179.199
1688253366.582,27.832,-69.824,-12.695,-25.879,-297.363
1688253366.586,-127.930,-140.625,-2.930,43.457,-20.996
1688253366.590,-115.723,-125.977,7.812,58.105,62.500
1688253366.594,65.430,-63.965,10.254,0.000,-162.109
1688253366.598,131.348,-18.555,13.184,-40.527,-201.660
1688253366.602,23.926,-68.848,-6.348,-48.340,-69.336
1688253366.606,-142.090,-83.008,-45.410,-1.465,15.137
1688253366.610,-157.715,-12.207,-34.668,32.227,118.164
1688253366.613,36.621,-21.484,-20.996,1.465,113.770
1688253366.617,152.832,-32.715,-27.832,-36.621,96.680
1688253366.621,67.383,-25.391,-26.367,-34.668,-136.719
1688253366.625,-104.980,-57.617,-22.949,9.277,-208.008
1688253366.629,-174.805,-74.219,-20.508,39.062,20.996
1688253366.630,-10.742,-103.027,-26.855,4.883,-30.273
1688253366.634,120.605,-93.750,-17.090,-44.434,-230.469
1688253366.638,43.945,-51.758,-22.461,-51.758,-236.816
1688253366.642,-103.516,-17.090,-31.738,-11.230,13.184
1688253366.646,-173.340,-51.758,-40.527,20.508,205.566
1688253366.650,-18.555,-123.047,-40.039,-6.836,74.219
1688253366.654,124.512,-45.410,-30.762,-56.152,-154.297
1688253366.657,58.594,-5.371,-30.762,-68.848,42.969
1688253366.661,-105.957,-84.961,-20.020,-22.461,326.660
1688253366.665,-191.895,-107.910,-1.953,23.926,70.312
1688253366.669,-28.320,-68.848,-20.020,11.719,-113.281
1688253366.673,111.328,-85.449,-38.574,-47.363,-190.430
1688253366.676,67.383,-181.641,-26.855,-82.520,-282.715
1688253366.680,-59.082,-155.273,-38.086,-38.574,-223.145
1688253366.684,-172.363,2.930,-35.645,38.574,-13.672
1688253366.688,-66.895,21.973,-8.789,28.809,96.680
1688253366.692,102.051,-45.898,-12.207,-34.668,-69.824
1688253366.696,77.637,25.391,-26.855,-61.035,-152.344
1688253366.700,-69.336,45.410,-18.555,-44.434,-9.766
1688253366.703,-200.195,-116.699,-5.371,-8.301,332.031
1688253366.707,-113.770,-142.578,-18.555,-1.465,171.875
1688253366.711,86.426,-38.086,-26.855,-45.410,-217.773
1688253366.715,111.816,-135.742,-33.691,-73.242,-139.648
1688253366.719,-5.859,-221.191,-39.062,-32.227,52.246
1688253366.719,-152.832,-150.879,-26.855,11.230,-19.531
1688253366.723,-115.234,-210.938,-18.555,21.973,-55.176
1688253366.727,77.637,-209.473,-3.418,-20.020,-85.449
1688253366.731,115.234,-73.730,-9.766,-58.105,-229.492
1688253366.735,-25.879,-82.031,-34.180,-60.059,-180.664
1688253366.739,-173.340,-239.258,-33.203,-20.996,-20.996
1688253366.743,-138.184,-278.320,-22.949,7.812,327.148
1688253366.746,55.176,-159.180,-34.668,-36.133,554.199
1688253366.750,127.441,-90.820,-29.785,-79.590,-16.113
1688253366.754,-0.488,-163.574,-35.156,-71.777,-344.727
1688253366.758,-164.551,-215.332,-32.227,0.000,-108.398
1688253366.762,-141.113,-172.852,-4.395,45.898,20.508
1688253366.767,27.832,-160.156,-12.695,-15.625,-123.047
1688253366.771,88.379,-160.156,-45.898,-91.309,-188.965
1688253366.775,16.602,-155.273,-58.594,-78.125,-158.691
1688253366.779,-122.559,-170.898,-38.086,-0.977,-125.977
1688253366.783,-171.875,-202.148,-29.785,45.410,-51.758
1688253366.787,-16.602,-223.145,-56.152,-20.020,102.051
1688253366.791,90.332,-229.004,-45.410,-82.520,118.652
1688253366.794,33.203,-218.262,-5.859,-62.500,-169.434
1688253366.798,-123.535,-193.359,-19.043,-26.855,-226.562
1688253366.802,-197.754,-166.016,-48.828,-4.883,80.078
1688253366.806,-42.480,-155.273,-40.039,-30.273,207.520
1688253366.810,102.051,-239.746,-20.996,-76.660,-161.621
1688253366.824,77.637,-273.438,-40.039,-77.637,-304.688
1688253366.828,-76.172,-197.266,-41.016,-23.438,-44.434
1688253366.832,-195.312,-242.188,-13.184,35.156,110.840
1688253366.836,-26.367,-193.848,-16.602,17.578,-31.250
1688253366.840,139.648,-115.234,-41.992,-52.734,-187.012
1688253366.844,72.754,-150.879,-55.664,-84.961,41.016
1688253366.848,-87.891,-206.055,-44.434,-38.574,359.375
1688253366.851,-188.477,-214.844,-15.625,22.461,128.418
1688253366.855,-77.637,-173.340,8.301,-3.418,-62.012
1688253366.859,52.246,-196.777,-20.020,-77.637,-34.668
1688253366.863,74.707,-173.828,-24.902,-70.312,-146.973
1688253366.867,-29.297,-158.691,-14.160,-24.414,-268.555
1688253366.900,-163.574,-180.176,-14.648,28.809,-44.434
1688253366.904,-37.598,-104.004,-5.859,60.547,157.715
1688253366.908,122.070,-34.180,-8.789,-17.090,-104.492
1688253366.912,83.008,-58.594,3.906,-80.078,-343.750
1688253366.916,-37.598,-176.270,34.180,-35.156,-213.379
1688253366.920,-160.645,-261.719,24.414,8.301,56.641
1688253366.924,-118.164,-210.449,4.395,-9.277,119.141
1688253366.927,70.801,-165.039,-11.719,-47.852,-71.289
1688253366.931,118.164,-192.383,-24.902,-42.969,-146.973
1688253366.935,12.695,-237.793,-12.695,11.230,118.164
1688253366.939,-128.906,-253.418,0.977,16.113,99.121
1688253366.943,-106.934,-221.191,11.719,0.977,-39.551
1688253366.914,55.176,-136.230,17.578,-36.621,-104.980
1688253366.918,88.867,-144.043,-22.461,-73.242,-180.664
1688253366.922,13.672,-181.152,-37.109,-51.758,-204.590
1688253366.926,-148.926,-238.770,-16.113,-13.672,-71.289
1688253366.930,-166.016,-331.543,-18.066,9.766,381.836
1688253366.934,27.832,-287.598,-22.949,-38.574,393.066
1688253366.938,117.676,-229.004,-21.973,-83.496,-83.008
1688253366.941,16.113,-244.141,-16.113,-58.594,-188.477
1688253366.945,-169.922,-255.371,-20.020,-24.414,-60.059
1688253366.949,-191.406,-259.766,-12.207,9.766,30.762
1688253366.953,9.766,-264.160,-8.789,-6.836,-93.750
1688253366.957,133.301,-293.945,18.066,-45.898,-180.176
1688253366.961,51.758,-297.363,26.367,-53.711,-151.855
1688253366.965,-129.395,-278.320,-11.230,-21.484,-154.297
1688253366.969,-166.992,-276.367,-5.371,37.598,-131.836
1688253366.973,10.254,-250.977,0.488,2.441,-126.465
1688253366.977,90.332,-274.414,-30.273,-90.820,71.777
1688253366.981,20.020,-299.316,-29.297,-117.188,60.059
1688253366.985,-116.211,-285.645,-6.836,-49.316,-150.879
1688253366.988,-204.590,-277.832,-23.926,-2.930,-2.930
1688253366.992,-58.594,-228.027,-24.414,-34.668,313.965
1688253366.996,90.820,-141.602,-9.766,-84.473,34.180
1688253367.000,57.129,-136.719,-7.812,-102.539,-426.758
1688253367.004,-95.703,-159.180,-16.113,-62.500,-233.887
1688253367.005,-226.562,-163.574,-37.598,-10.742,-36.133
1688253367.009,-70.801,-153.809,-20.996,-10.254,-104.492
1688253367.013,108.887,-159.180,-8.301,-64.941,-206.543
1688253367.017,59.570,-192.383,-37.109,-85.938,-235.352
1688253367.021,-89.355,-143.066,-32.715,-48.828,-132.812
1688253367.025,-214.355,-103.027,-9.277,2.441,38.574
1688253367.029,-101.562,-125.000,-9.277,-4.395,42.969
1688253367.032,95.703,-157.227,-6.348,-42.480,141.602
1688253367.036,106.934,-134.766,9.766,-52.246,371.094
1688253367.040,-31.250,-98.633,0.977,-36.621,82.520
1688253367.044,-197.266,-138.184,-43.945,-15.137,-168.945
1688253367.048,-144.043,-168.457,-46.875,-8.789,-72.266
1688253367.066,60.547,-155.273,-14.160,-52.734,-147.949
1688253367.070,102.539,-101.562,-18.066,-97.168,-324.707
1688253367.074,-29.297,-69.824,-29.785,-59.082,-219.727
1688253367.078,-165.039,-103.027,-9.277,7.812,22.949
1688253367.082,-122.559,-37.598,-1.953,11.719,49.805
1688253367.086,46.875,-0.977,-27.832,-50.293,-85.449
1688253367.090,97.168,-66.406,-21.973,-79.590,-70.312
1688253367.093,-22.949,-122.559,-10.254,-48.828,170.898
1688253367.097,-173.340,-122.070,-17.090,-7.324,42.969
1688253367.101,-142.090,-143.066,-23.926,0.488,-143.555
1688253367.105,56.152,-126.465,-33.691,-56.152,-58.594
1688253367.109,127.930,-54.199,-41.504,-93.262,-91.797
1688253367.094,29.297,-30.762,-34.668,-53.711,-268.555
1688253367.098,-155.273,-52.246,-28.320,-5.371,-167.480
1688253367.102,-177.246,-58.594,-28.809,3.906,73.242
1688253367.106,24.902,-50.293,-12.207,-17.578,-20.996
1688253367.110,114.258,-93.262,-21.484,-56.152,-164.062
1688253367.114,25.391,-133.301,-34.180,-69.336,-75.684
1688253367.118,-139.648,-107.910,-25.391,-19.043,132.812
1688253367.121,-190.430,-118.652,-25.879,11.230,202.148
1688253367.125,-6.836,-130.859,-29.297,-26.367,26.855
1688253367.129,116.211,-82.520,-38.574,-75.684,-168.945
1688253367.133,45.898,-79.102,-51.270,-77.148,115.234
1688253367.137,-117.188,-98.145,-37.109,-11.230,395.508
1688253367.142,-188.965,-114.746,-21.484,17.578,115.234
1688253367.146,-6.348,-105.469,-31.250,-16.113,65.918
1688253367.150,145.508,-58.594,-21.484,-60.059,16.602
1688253367.154,61.523,-83.008,2.441,-71.289,-226.074
1688253367.158,-130.371,-193.359,-9.766,-45.410,-209.961
1688253367.162,-223.633,-208.496,-32.227,-2.441,79.590
1688253367.166,-78.613,-133.301,-30.762,-9.277,218.750
1688253367.169,89.844,-28.809,-29.297,-83.008,-45.898
1688253367.173,64.941,-9.277,-24.902,-93.750,-275.879
1688253367.177,-103.516,-72.754,-21.973,-44.922,-55.664
1688253367.181,-207.031,-28.809,-22.461,13.672,269.531
1688253367.185,-77.148,0.000,-11.230,8.789,84.473
1688253367.199,88.379,-53.711,-14.648,-52.734,-167.480
1688253367.203,62.988,-109.863,-39.062,-77.637,-175.781
1688253367.207,-73.730,-95.215,-41.504,-51.758,-157.227
1688253367.211,-191.406,-59.082,-20.996,-6.836,-42.480
1688253367.215,-93.750,-89.844,-22.949,-9.766,92.773
1688253367.219,107.422,-168.457,-24.902,-35.645,212.891
1688253367.223,111.816,-124.512,-1.953,-58.594,252.441
1688253367.226,-53.223,20.508,-1.465,-43.945,-55.176
1688253367.230,-206.543,-3.906,-31.738,-13.672,-156.738
1688253367.234,-149.902,-83.984,-54.688,-20.020,29.297
1688253367.238,61.523,-69.336,-28.809,-39.062,9.766
1688253367.242,110.352,-113.281,-9.277,-78.613,-187.988
1688253367.245,-14.160,-78.125,-7.324,-65.918,-180.176
1688253367.249,-159.668,-42.969,-6.348,7.812,-57.129
1688253367.253,-143.066,-82.520,-23.926,25.391,5.859
1688253367.257,39.062,-41.504,-32.227,-41.992,-124.512
1688253367.261,133.789,31.738,-16.113,-63.965,-172.852
1688253367.265,33.691,-16.602,-6.836,-41.016,-59.082
1688253367.269,-149.902,-92.285,5.859,-12.695,-3.906
1688253367.272,-150.879,-65.430,7.324,7.812,-28.809
1688253367.276,35.156,-75.195,-4.395,-21.973,-44.922
1688253367.280,130.371,-185.547,-6.836,-60.547,208.496
1688253367.284,39.551,-210.449,-5.859,-56.641,47.363
1688253367.288,-132.812,-80.566,-24.902,2.930,-205.078
1688253367.290,-168.457,-29.785,-40.039,27.344,-17.578
1688253367.294,-10.742,17.090,-25.391,-22.461,13.184
1688253367.298,84.473,21.973,-23.438,-74.707,-178.711
1688253367.302,27.344,-119.629,-30.273,-84.961,-255.859
1688253367.306,-105.469,-223.145,-9.766,-23.438,-41.504
1688253367.310,-173.340,-200.195,1.465,36.133,167.480
1688253367.314,-36.133,-106.445,-13.672,-18.066,181.641
1688253367.317,83.008,-76.172,-15.625,-78.125,-95.215
1688253367.321,39.062,-136.719,-31.250,-66.406,11.230
1688253367.325,-112.305,-149.414,-37.109,-12.695,406.738
1688253367.329,-194.336,-130.371,-17.090,23.926,127.930
1688253367.333,-34.180,-185.059,-17.578,-11.719,-127.441
1688253367.336,103.027,-154.297,-31.250,-79.590,-201.660
1688253367.340,73.730,-94.727,-15.625,-82.520,-299.316
1688253367.344,-67.871,-148.438,14.160,-23.926,-250.488
1688253367.348,-183.105,-151.855,-4.395,38.086,-85.938
1688253367.352,-51.270,-87.402,-29.297,15.625,32.227
1688253367.356,99.609,-49.805,-30.762,-67.383,-60.059
1688253367.360,42.480,-139.648,-27.344,-99.121,-142.090
1688253367.363,-78.613,-196.289,-18.066,-47.363,-30.762
1688253367.367,-184.570,-131.348,-14.648,16.602,246.094
1688253367.371,-102.539,-121.582,-25.391,-13.672,147.949
1688253367.375,87.402,-119.629,-38.574,-98.145,-195.801
1688253367.379,79.102,-77.637,-46.387,-114.746,-186.523
1688253367.380,-50.293,-76.660,-35.156,-55.176,-91.309
1688253367.384,-166.016,-180.176,-39.551,-9.766,-124.512
1688253367.388,-123.047,-205.566,-43.457,-7.812,-53.711
1688253367.392,52.246,-116.699,-22.949,-63.965,-66.895
1688253367.396,85.938,-56.152,-14.160,-99.121,-108.887
1688253367.400,-41.016,-82.031,-26.855,-75.195,-51.758
1688253367.404,-190.918,-160.645,-28.809,-27.344,-2.441
1688253367.407,-142.578,-183.594,-21.484,-5.859,273.926
1688253367.411,49.316,-150.879,-21.973,-50.781,420.898
1688253367.415,81.543,-110.840,-38.574,-108.887,-71.289
1688253367.419,-13.672,-104.492,-38.574,-99.121,-261.719
1688253367.423,-152.832,-138.184,-20.508,-20.020,-56.641
1688253367.427,-164.551,-177.246,-36.133,-0.977,6.836
1688253367.431,27.832,-133.301,-52.734,-58.594,-81.055
1688253367.435,116.211,-25.879,-30.273,-80.078,-144.043
1688253367.439,15.625,-51.758,-9.766,-55.664,-111.816
1688253367.443,-149.414,-124.023,-2.930,-21.973,-111.816
1688253367.447,-179.688,-125.000,1.465,-6.836,-47.363
1688253367.451,9.277,-127.930,-4.883,-43.945,50.293
1688253367.454,132.324,-149.414,-15.137,-79.590,125.000
1688253367.458,62.012,-124.512,-11.719,-66.895,-86.426
1688253367.462,-119.141,-71.289,-14.648,-22.949,-198.730
1688253367.466,-179.199,-122.070,-17.578,16.113,-25.391
1688253367.470,-17.578,-208.984,-21.484,-17.578,-27.344
1688253367.470,111.816,-169.922,-20.508,-65.430,-206.055
1688253367.474,63.477,-65.430,-24.902,-60.059,-274.414
1688253367.478,-89.355,-32.227,-29.297,-5.859,-98.145
1688253367.482,-165.527,-49.316,-16.113,51.270,38.574
1688253367.486,-34.180,-120.117,-20.020,5.859,11.230
1688253367.490,110.840,-140.137,0.488,-70.312,-123.047
1688253367.494,74.707,-155.273,6.348,-70.801,25.391
1688253367.497,-95.703,-168.945,-18.066,-28.320,424.805
1688253367.501,-194.336,-68.359,-11.719,30.273,257.324
1688253367.505,-58.594,-78.125,-7.812,16.113,-64.453
1688253367.509,105.469,-200.195,-13.184,-35.156,-147.949
1688253367.513,97.656,-151.367,-13.184,-34.668,-229.492
1688253367.516,-52.734,-3.906,-26.855,-33.203,-216.309
1688253367.520,-183.594,16.113,-24.414,-7.812,-39.551
1688253367.524,-78.613,-28.320,-17.090,-5.859,39.551
1688253367.528,98.633,-63.477,-30.762,-68.359,-127.930
1688253367.532,88.867,-200.684,-34.668,-88.867,-254.883
1688253367.536,-42.480,-228.027,-16.113,-43.457,-82.031
1688253367.540,-130.371,-92.773,11.719,21.973,266.602
1688253367.543,-88.379,-29.785,-4.395,27.832,218.750
1688253367.547,72.754,-13.184,-10.742,-31.250,-138.672
1688253367.551,112.305,-47.852,-10.742,-76.660,-193.848
1688253367.555,-28.809,-24.414,-25.391,-62.988,-12.695
1688253367.559,-199.219,-42.969,-30.762,-10.742,-26.855
1688253367.575,-137.695,-181.641,-37.109,19.531,8.301
1688253367.579,58.105,-235.352,-44.434,-18.066,-38.086
1688253367.583,115.723,-114.746,-10.742,-46.387,-187.988
1688253367.587,54.688,1.953,5.371,-29.297,-196.289
1688253367.591,-139.648,-7.324,-23.438,-8.789,-26.855
1688253367.595,-168.457,-15.625,-32.715,9.277,349.121
1688253367.599,19.531,-30.273,-34.180,-34.180,396.484
1688253367.602,99.609,-62.500,-25.391,-78.613,-43.457
1688253367.606,20.996,-109.863,-19.043,-68.359,-241.211
1688253367.610,-159.668,-116.211,-30.273,-28.809,130.859
1688253367.614,-170.410,-48.340,-30.273,13.184,286.621
1688253367.618,16.113,-73.242,-26.855,-9.277,-127.930
1688253367.620,104.004,-89.844,-33.203,-71.777,-275.879
1688253367.624,53.223,-36.621,-35.156,-60.547,-221.191
1688253367.628,-111.816,-51.758,-39.062,-18.066,-153.320
1688253367.632,-193.848,-119.141,-43.457,-16.113,-104.980
1688253367.636,-20.508,-133.301,-49.805,-37.109,-46.387
1688253367.640,112.305,-80.566,-43.457,-62.988,-27.832
1688253367.644,72.754,-88.379,-7.812,-41.992,-143.555
1688253367.647,-78.613,-167.480,-3.418,27.832,-194.336
1688253367.651,-177.246,-103.027,-33.691,46.875,30.762
1688253367.655,-32.715,20.020,-29.297,-10.254,276.367
1688253367.659,99.609,20.508,-23.926,-71.289,3.906
1688253367.663,54.199,-1.953,-40.039,-91.797,-298.340
1688253367.664,-93.262,-31.250,-34.180,-40.039,-32.715
1688253367.668,-174.805,-62.988,-25.879,22.461,265.625
1688253367.672,-35.156,-94.727,-32.715,1.465,31.250
1688253367.676,115.234,-87.402,-34.668,-43.457,-122.559
1688253367.680,83.984,-53.711,-29.297,-51.758,-94.238
1688253367.684,-80.078,-64.453,-29.785,-31.738,-48.340
1688253367.688,-179.199,-58.105,-32.227,24.414,101.562
1688253367.691,-69.336,-74.219,-35.156,8.789,56.641
1688253367.695,101.562,-135.742,-33.691,-66.406,96.680
1688253367.699,112.305,-103.516,-33.691,-79.102,179.199
1688253367.703,-27.344,-69.336,-41.992,-41.992,-101.562
1688253367.707,-161.133,-45.898,-52.246,24.414,-85.449
1688253367.712,-79.102,-11.230,-51.270,19.043,-31.738
1688253367.716,108.887,-63.965,-36.133,-48.828,-218.262
1688253367.720,132.324,-57.129,-30.273,-55.176,-277.832
1688253367.724,-2.930,-41.992,-43.945,-26.855,-166.504
