timestamps,TP9,AF7,AF8,TP10,Right AUX
1689802302.584,-4.395,-21.484,-41.016,-3.906,-176.270
1689802302.588,-2.930,-25.391,-37.109,4.883,-152.344
1689802302.592,1.953,-25.391,-32.715,3.906,-122.559
1689802302.596,2.441,-24.414,-38.086,-12.207,-135.254
1689802302.600,6.836,-28.809,-45.410,-18.555,-165.527
1689802302.604,9.766,-33.203,-42.969,-3.906,-57.129
1689802302.608,-1.953,-36.133,-50.293,10.254,112.305
1689802302.611,0.000,-35.645,-53.223,11.719,430.664
1689802302.615,0.488,-37.109,-43.945,-14.648,200.195
1689802302.619,-7.324,-36.133,-34.668,-28.809,-203.125
1689802302.623,-10.742,-35.645,-39.062,-8.789,-27.344
1689802302.627,-16.113,-45.898,-50.781,6.836,80.078
1689802302.629,-17.578,-50.781,-50.293,8.301,-77.148
1689802302.633,-12.207,-48.828,-43.457,-14.160,-119.629
1689802302.637,-7.324,-46.875,-40.527,-30.762,-56.152
1689802302.641,-17.090,-51.758,-42.969,-20.508,-56.152
1689802302.645,-26.855,-57.129,-39.062,-7.324,-116.211
1689802302.649,-20.508,-52.734,-42.969,-7.812,-86.426
1689802302.653,-12.695,-50.781,-46.875,-18.555,136.719
1689802302.656,-27.344,-54.199,-47.363,-36.621,128.418
1689802302.660,-34.668,-54.199,-47.363,-39.551,-145.508
1689802302.664,-22.461,-49.805,-41.504,-16.602,-77.637
1689802302.668,-17.578,-45.410,-48.828,-2.930,61.035
1689802302.672,-17.090,-46.875,-50.781,-22.949,-85.449
1689802302.674,-16.602,-41.992,-39.551,-39.551,-225.586
1689802302.678,-13.672,-36.133,-33.203,-27.832,-188.477
1689802302.682,-2.441,-36.621,-29.785,-0.977,-5.859
1689802302.686,2.930,-37.598,-29.785,10.742,-13.184
1689802302.690,-1.953,-35.645,-25.879,-5.371,-137.207
1689802302.694,-10.254,-30.273,-23.438,-21.484,20.508
1689802302.698,-10.254,-30.273,-21.973,-18.555,217.773
1689802302.701,3.418,-35.156,-25.391,3.418,24.414
1689802302.705,-1.465,-43.457,-24.414,15.625,-140.137
1689802302.709,-9.766,-45.410,-23.926,-0.977,-46.387
1689802302.713,2.930,-41.992,-37.109,-8.301,-13.672
1689802302.717,-0.977,-42.969,-39.551,4.883,-88.379
1689802302.733,-12.695,-44.922,-31.250,13.184,-66.895
1689802302.737,2.930,-44.434,-25.391,20.996,67.383
1689802302.741,-0.488,-44.434,-31.250,11.230,226.562
1689802302.745,-28.320,-40.039,-36.621,-35.156,-60.547
1689802302.749,-24.414,-34.180,-30.762,-39.551,-214.844
1689802302.753,-19.043,-39.062,-35.156,-11.230,45.898
1689802302.757,-11.719,-42.969,-31.250,12.207,102.539
1689802302.760,7.812,-35.645,-30.273,7.324,-41.992
1689802302.764,-5.371,-37.598,-41.992,-21.484,-153.320
1689802302.768,-26.855,-41.016,-34.180,-24.902,40.039
1689802302.772,-33.203,-35.156,-30.273,-13.672,17.578
1689802302.776,-25.391,-34.668,-31.738,-3.418,-158.691
1689802302.779,-20.996,-40.039,-33.691,-10.254,-100.586
1689802302.783,-24.902,-44.922,-28.320,-25.391,-62.012
1689802302.787,-20.996,-43.945,-18.555,-29.785,-98.145
1689802302.791,-12.695,-32.715,-19.531,-23.926,-147.461
1689802302.795,-2.930,-30.273,-28.809,2.930,-40.527
1689802302.799,5.371,-32.715,-37.109,16.113,223.633
1689802302.803,-1.465,-30.762,-39.551,-13.672,109.863
1689802302.806,-13.672,-28.809,-34.180,-42.969,-151.367
1689802302.810,-8.789,-28.809,-31.738,-14.160,-61.035
1689802302.814,-7.324,-33.203,-26.367,13.184,251.465
1689802302.818,-17.578,-33.691,-27.832,-8.301,80.566
1689802302.822,-20.996,-34.180,-33.691,-28.809,-121.582
1689802302.825,-14.160,-39.062,-28.809,-31.738,-69.336
1689802302.829,-5.859,-39.551,-25.391,-18.066,-0.977
1689802302.833,-14.160,-34.180,-27.832,0.000,-115.234
1689802302.837,-19.043,-33.203,-30.273,4.883,-147.461
1689802302.841,-12.207,-30.762,-28.320,-2.930,-48.340
1689802302.845,-13.672,-27.344,-31.738,-14.648,-22.949
1689802302.849,-12.695,-31.738,-31.250,-12.207,-59.082
1689802302.852,0.977,-31.738,-39.551,12.207,-113.281
1689802302.856,13.672,-25.391,-29.297,40.039,133.301
1689802302.860,6.348,-30.273,-11.719,14.648,208.984
1689802302.864,-4.395,-36.621,-18.066,-27.344,-156.250
1689802302.868,-23.438,-36.133,-18.555,-20.508,-195.312
1689802302.869,-28.809,-31.250,-22.949,-4.395,-51.270
1689802302.873,-11.230,-22.949,-30.762,2.441,-53.223
1689802302.877,-13.672,-25.879,-24.902,-7.812,-105.957
1689802302.881,-25.391,-29.785,-19.531,-26.855,-115.723
1689802302.885,-22.949,-31.250,-24.414,-27.344,-78.125
1689802302.889,-9.766,-35.156,-33.691,-3.418,-53.223
1689802302.893,1.465,-31.250,-37.598,7.812,-62.012
1689802302.896,20.996,-32.227,-37.598,8.301,-14.648
1689802302.900,35.645,-44.434,-30.762,20.508,273.926
1689802302.904,-5.371,-54.199,-19.531,-13.672,146.973
1689802302.908,-57.617,-49.805,-16.602,-42.969,-149.902
1689802302.912,-62.500,-48.340,-14.160,-33.203,82.520
1689802302.914,-92.285,-53.223,-17.090,-71.289,182.617
1689802302.918,-135.742,-57.129,-16.113,-124.023,-133.789
1689802302.922,-145.996,-56.641,-10.742,-137.207,-244.629
1689802302.926,-151.367,-56.152,-12.695,-138.184,-106.934
1689802302.930,-164.062,-57.129,-17.578,-143.555,-40.527
1689802302.934,-175.781,-57.129,-11.230,-165.039,-59.570
1689802302.938,-199.219,-57.129,-2.441,-208.984,-59.570
1689802302.941,-202.637,-57.129,-4.395,-219.238,95.703
1689802302.945,-182.129,-57.617,-18.066,-192.383,97.656
1689802302.949,-171.875,-55.176,-30.762,-176.758,-76.660
1689802302.953,-182.129,-49.316,-32.715,-190.918,-83.984
1689802302.957,-182.617,-57.617,-12.207,-211.914,-19.531
1689802302.959,-178.223,-56.152,-5.371,-212.402,-155.273
1689802302.963,-186.035,-52.734,-10.742,-194.824,-218.262
1689802302.967,-182.129,-54.199,10.742,-173.340,-117.188
1689802302.971,-172.852,-51.270,9.277,-167.969,-93.262
1689802302.975,-165.039,-57.129,-8.789,-170.898,-141.113
1689802302.979,-157.227,-62.500,-10.742,-174.316,-80.566
1689802302.983,-137.695,-64.941,-11.719,-158.691,46.875
1689802302.986,-117.676,-61.523,-12.207,-127.930,252.930
1689802302.990,-98.633,-52.246,-10.254,-114.746,102.051
1689802302.994,-79.590,-51.270,-13.672,-114.746,-128.418
1689802302.998,-85.449,-59.082,-24.902,-126.465,-109.863
1689802303.002,-85.938,-58.105,-30.762,-116.211,-12.207
1689802303.005,-65.430,-55.664,-32.715,-77.148,-47.363
1689802303.009,-52.246,-53.711,-28.320,-59.082,-103.516
1689802303.013,-41.016,-48.340,-20.996,-54.199,-0.977
1689802303.017,-44.922,-48.340,-25.879,-53.711,42.969
1689802303.021,-49.316,-46.387,-32.715,-68.359,-167.480
1689802303.025,-22.949,-38.574,-29.297,-41.504,-114.746
1689802303.029,2.930,-37.598,-26.855,-6.348,283.691
1689802303.032,4.883,-36.133,-31.250,-13.184,245.117
1689802303.036,-8.301,-34.180,-34.668,-34.180,-192.871
1689802303.040,-12.695,-41.504,-33.203,-34.668,-204.590
1689802303.044,-13.672,-48.828,-41.504,-12.695,-63.477
1689802303.048,-4.883,-45.898,-40.527,-5.859,-64.941
1689802303.051,3.906,-35.645,-44.922,-24.902,-139.160
1689802303.055,8.789,-40.527,-31.738,-43.457,-154.297
1689802303.059,-1.465,-45.410,-9.277,-43.457,-54.688
1689802303.063,-3.906,-45.898,-14.648,-23.438,-62.988
1689802303.067,-1.465,-47.363,-29.297,-3.418,-79.590
1689802303.071,1.953,-44.922,-30.762,2.441,61.035
1689802303.075,-0.977,-42.969,-31.738,-5.859,375.488
1689802303.078,-7.812,-40.039,-41.992,-15.137,177.734
1689802303.082,2.441,-42.969,-35.645,1.953,-140.137
1689802303.086,6.348,-41.016,-29.297,20.996,-77.148
1689802303.090,5.859,-29.785,-19.043,10.742,-44.922
1689802303.094,14.648,-23.438,-11.719,-2.930,-46.387
1689802303.109,-0.488,-22.949,-12.207,-19.043,-139.648
1689802303.113,4.395,-30.762,-10.254,-10.742,-53.223
1689802303.117,30.273,-32.715,-21.484,10.254,67.871
1689802303.121,21.484,-29.785,-20.996,1.953,-27.832
1689802303.125,12.207,-34.180,-10.742,-6.836,-117.676
1689802303.129,10.742,-40.527,-17.578,-7.812,100.586
1689802303.133,3.418,-40.039,-24.414,6.836,247.559
1689802303.136,13.184,-37.598,-22.461,24.902,26.367
1689802303.140,21.484,-41.016,-24.414,28.809,-78.125
1689802303.144,16.113,-34.668,-17.578,22.461,110.840
1689802303.148,10.254,-30.273,-17.578,-1.465,13.184
1689802303.152,8.789,-36.621,-25.879,-0.488,-240.234
1689802303.169,16.113,-43.945,-26.367,32.715,-147.461
1689802303.173,20.508,-41.992,-35.156,40.527,-50.293
1689802303.177,16.113,-37.109,-38.574,15.137,-100.586
1689802303.181,7.812,-41.016,-21.973,-6.348,-189.453
1689802303.185,-3.418,-42.480,-14.648,1.953,-146.484
1689802303.189,-2.441,-46.875,-21.484,19.043,77.637
1689802303.193,15.137,-47.852,-25.879,20.996,125.488
1689802303.196,25.879,-42.969,-31.250,13.184,1.465
1689802303.200,16.602,-39.551,-45.898,-1.465,31.250
1689802303.204,12.695,-44.922,-35.156,-2.441,273.926
1689802303.208,0.977,-51.758,-20.508,6.348,160.645
1689802303.212,10.742,-46.875,-19.531,18.066,-70.312
1689802303.199,31.738,-39.062,-10.742,20.508,8.789
1689802303.203,15.625,-43.457,-13.184,2.930,15.137
1689802303.207,-2.930,-50.293,-21.973,-9.766,-185.059
1689802303.211,0.488,-45.410,-17.578,14.648,-195.801
1689802303.215,21.484,-41.504,-20.996,34.180,-57.617
1689802303.219,16.602,-42.969,-24.902,20.996,-11.719
1689802303.223,0.000,-43.945,-25.391,-5.859,-128.418
1689802303.226,-5.371,-42.969,-29.785,-10.742,-167.480
1689802303.230,11.719,-41.016,-27.344,14.648,-5.859
1689802303.234,32.227,-34.180,-32.227,34.668,-3.906
1689802303.238,28.320,-35.156,-38.574,25.391,-17.578
1689802303.242,2.930,-37.109,-24.902,-6.348,-116.699
1689802303.274,-2.441,-40.039,-13.672,-4.883,145.996
1689802303.278,0.977,-50.293,-17.090,10.742,207.031
1689802303.282,-10.742,-40.039,-22.949,13.184,-167.969
1689802303.286,-2.930,-31.250,-21.973,10.742,-160.156
1689802303.290,-0.977,-34.668,-25.879,-8.789,-146.484
1689802303.294,-1.465,-33.691,-28.320,-9.277,-96.680
1689802303.298,17.578,-31.738,-32.227,19.043,-63.477
1689802303.301,43.945,-32.227,-35.156,69.336,-32.715
1689802303.305,47.363,-22.949,-23.926,77.637,251.953
1689802303.309,-16.113,-14.648,-14.648,-7.324,0.000
1689802303.313,-31.250,-19.531,-3.418,-41.992,-217.773
1689802303.317,-20.996,-23.438,-11.230,-22.949,87.891
1689802303.289,-42.480,-27.344,-20.508,-34.180,205.078
1689802303.293,-32.715,-26.855,-21.973,-21.973,-80.078
1689802303.297,-25.879,-24.414,-31.738,-33.691,-206.055
1689802303.301,-30.273,-23.438,-20.508,-54.688,-87.402
1689802303.305,-24.902,-18.066,-16.602,-29.785,-99.609
1689802303.309,-24.902,-21.484,-35.156,-2.441,-50.781
1689802303.313,-16.113,-23.438,-35.156,6.348,34.180
1689802303.316,-5.859,-28.320,-24.902,-8.789,-24.414
1689802303.320,-4.883,-34.668,-25.391,-29.785,-167.480
1689802303.324,-10.742,-34.668,-28.809,-4.883,-262.207
1689802303.328,0.488,-30.762,-34.180,27.344,-124.512
1689802303.332,15.625,-28.320,-32.715,26.367,41.016
1689802303.333,-1.953,-27.344,-27.832,-1.953,-28.320
1689802303.337,-19.043,-35.156,-26.367,-31.738,-132.324
1689802303.341,-25.391,-43.457,-13.184,-28.320,-89.844
1689802303.345,-13.672,-42.480,-18.066,2.930,304.688
1689802303.349,-7.324,-39.062,-21.484,14.160,278.809
1689802303.353,-4.395,-40.039,-14.160,-3.418,-50.781
1689802303.357,6.836,-38.574,-15.137,-12.207,-81.543
1689802303.360,-6.348,-37.109,-26.855,-0.977,153.809
1689802303.364,-13.672,-45.410,-38.574,5.371,45.898
1689802303.368,-4.883,-42.480,-24.902,15.137,-114.746
1689802303.372,-9.277,-43.457,-16.602,1.953,-40.527
1689802303.376,-8.789,-46.875,-16.602,-20.020,-75.195
1689802303.379,-26.367,-47.852,-22.461,-19.043,-188.477
1689802303.383,-22.949,-42.969,-19.043,5.371,-250.977
1689802303.387,10.254,-35.156,-15.137,30.762,-47.363
1689802303.391,2.441,-38.086,-29.785,12.695,0.488
1689802303.395,-19.043,-44.434,-48.340,-29.297,-194.824
1689802303.399,-19.043,-48.828,-37.598,-27.344,-143.066
1689802303.403,1.953,-44.434,-13.672,8.789,168.945
1689802303.406,15.625,-40.039,-16.602,33.691,294.434
1689802303.410,1.465,-39.062,-25.391,27.344,-24.902
1689802303.414,-7.812,-37.109,-17.090,-4.883,-90.332
1689802303.418,-3.906,-33.691,-13.672,-5.859,51.270
1689802303.422,-9.277,-35.156,-20.020,4.395,-71.777
1689802303.424,2.441,-35.645,-17.578,9.277,-135.254
1689802303.428,0.977,-33.203,-17.578,9.277,-75.684
1689802303.432,-22.461,-35.645,-31.738,-11.719,-66.406
1689802303.436,-27.832,-35.156,-29.297,-41.016,-103.516
1689802303.440,-19.043,-38.086,-15.137,-39.062,-233.398
1689802303.444,-14.648,-36.133,-17.090,-7.324,-52.734
1689802303.448,-11.719,-32.715,-41.016,-5.371,137.695
1689802303.451,-13.672,-39.551,-36.621,-31.250,-128.418
1689802303.455,-19.531,-36.133,-26.367,-28.320,-242.188
1689802303.459,-10.254,-30.273,-37.598,-13.672,-125.977
1689802303.463,0.000,-35.645,-28.320,4.883,112.305
1689802303.467,-0.977,-34.180,-10.254,1.465,46.875
1689802303.484,-20.020,-29.297,-10.742,-23.926,-156.738
1689802303.488,-21.484,-34.668,-6.348,-35.156,-119.141
1689802303.492,-12.695,-34.180,-2.930,-24.902,61.035
1689802303.496,-5.371,-31.250,-18.066,12.207,-91.309
1689802303.500,3.418,-38.086,-15.137,26.855,-184.082
1689802303.504,7.812,-35.156,-14.160,7.812,18.066
1689802303.508,14.648,-29.785,-16.602,-8.789,-51.758
1689802303.511,12.695,-33.203,-20.020,-7.324,-218.750
1689802303.515,19.531,-26.855,-31.738,21.484,-135.742
1689802303.519,28.809,-25.391,-27.832,38.086,217.285
1689802303.523,20.996,-34.668,-21.484,2.930,201.172
1689802303.527,29.297,-43.457,-9.766,-19.043,-195.312
1689802303.529,25.391,-37.109,-4.395,-6.348,-153.809
1689802303.533,0.977,-31.250,-23.926,2.441,50.781
1689802303.537,-5.371,-35.156,-26.855,0.977,-53.711
1689802303.541,1.465,-32.715,-14.160,2.441,-187.500
1689802303.545,6.836,-28.320,-19.531,-12.695,-147.461
1689802303.549,0.000,-27.344,-26.855,-21.973,19.043
1689802303.553,-5.371,-30.762,-32.227,-2.930,23.926
1689802303.556,-15.625,-33.691,-26.367,4.883,-86.914
1689802303.560,-15.625,-29.297,-18.555,-12.695,23.438
1689802303.564,-12.695,-34.668,-20.996,-38.086,264.648
1689802303.568,-25.391,-39.062,-26.367,-44.434,51.758
1689802303.572,-17.090,-36.133,-26.367,-18.066,-97.168
1689802303.573,8.789,-38.086,-19.531,3.418,119.141
1689802303.577,13.672,-33.691,-14.160,8.301,342.773
1689802303.581,1.465,-25.879,-18.066,-12.695,-19.531
1689802303.585,4.395,-34.180,-20.996,-23.438,-270.020
1689802303.589,19.043,-39.062,-14.648,-1.953,-158.691
1689802303.593,31.250,-31.250,-12.695,21.973,-60.059
1689802303.597,29.297,-27.832,-20.508,16.113,5.371
1689802303.600,22.461,-17.090,-41.504,2.930,-66.895
1689802303.604,10.742,-30.762,-35.156,-9.766,54.199
1689802303.608,5.371,-49.316,-15.137,-12.207,67.383
1689802303.612,-13.184,-41.016,-18.555,0.000,-157.227
1689802303.616,-13.672,-39.062,-18.555,1.465,-144.531
1689802303.619,8.301,-43.945,-13.184,-5.371,-114.746
1689802303.623,-15.625,-43.457,-10.254,-16.113,-209.473
1689802303.627,-32.715,-37.598,-10.742,-17.090,-218.750
1689802303.631,-13.184,-33.691,-14.648,6.836,-0.488
1689802303.635,-7.324,-33.203,-10.742,21.484,122.070
1689802303.639,-10.254,-36.133,-18.555,3.418,-18.066
1689802303.643,-14.648,-38.086,-26.855,-14.648,-141.113
1689802303.646,-13.672,-41.016,-19.531,-10.254,-131.836
1689802303.650,-10.254,-41.504,-24.414,3.418,6.348
1689802303.654,-8.789,-36.621,-30.762,-5.371,-63.965
1689802303.658,0.977,-33.691,-22.949,-13.672,-122.559
1689802303.662,3.418,-31.250,-17.578,-1.465,90.820
1689802303.664,0.000,-26.855,-8.789,17.090,315.918
1689802303.668,-10.742,-31.738,-21.484,15.137,44.434
1689802303.672,-5.859,-42.969,-28.320,23.926,-116.699
1689802303.676,-3.906,-39.062,-1.953,19.043,-47.852
1689802303.680,-12.695,-29.297,-2.441,-9.277,-162.598
1689802303.684,-10.742,-31.250,-17.090,-2.441,-162.109
1689802303.688,-11.719,-31.250,-19.043,19.043,-76.172
1689802303.691,4.395,-27.832,-21.484,32.227,259.766
1689802303.695,-6.836,-43.945,-34.180,8.789,373.535
1689802303.699,-28.320,-41.992,-25.879,-36.133,-126.465
1689802303.703,-39.062,-35.156,-20.020,-38.086,-285.156
1689802303.707,-32.227,-40.527,-30.273,-8.301,-152.344
1689802303.709,-20.508,-43.945,-17.578,7.812,-130.859
1689802303.713,-17.578,-41.992,-9.277,-4.883,-135.742
1689802303.717,-15.137,-33.203,-12.695,-22.461,-105.469
1689802303.721,-20.508,-40.039,-15.625,-23.926,-94.238
1689802303.725,-15.625,-49.805,-27.832,2.930,-83.496
1689802303.729,-1.953,-36.133,-27.832,20.020,6.348
1689802303.733,-14.648,-27.832,-7.812,-4.395,129.883
1689802303.736,-26.855,-31.738,4.395,-25.879,281.738
1689802303.740,-20.020,-34.668,-15.137,-38.086,79.590
1689802303.744,-15.137,-36.621,-31.738,-26.855,-153.320
1689802303.748,-9.766,-37.109,-38.574,0.000,56.152
1689802303.752,-2.930,-40.527,-37.109,0.488,253.418
1689802303.754,-9.766,-42.480,-24.414,-22.949,18.555
1689802303.758,-21.973,-40.039,-16.602,-28.320,-152.344
1689802303.762,-6.836,-36.621,-23.926,3.906,7.324
1689802303.766,-7.324,-40.527,-23.438,11.719,95.215
1689802303.770,-21.973,-48.340,-16.113,-9.766,-19.043
1689802303.774,-10.742,-46.875,-3.418,-21.484,-76.660
1689802303.778,-9.766,-47.363,-7.324,-19.531,180.176
1689802303.781,-13.672,-55.176,-21.484,-20.996,251.953
1689802303.785,-9.277,-50.293,-13.184,-3.906,-51.758
1689802303.789,-5.859,-49.316,-23.926,4.883,-91.797
1689802303.793,-4.395,-52.246,-41.016,-13.672,-2.930
1689802303.797,2.441,-42.969,-33.691,-20.996,10.742
1689802303.799,1.953,-37.598,-21.484,-13.672,-131.348
1689802303.803,-2.930,-45.410,-12.207,14.160,-88.379
1689802303.807,5.371,-37.109,-14.648,24.902,120.117
1689802303.811,7.812,-21.484,-37.109,0.488,8.789
1689802303.815,1.465,-24.414,-45.410,-21.484,-175.781
1689802303.819,9.277,-27.344,-42.480,-18.066,67.871
1689802303.823,12.207,-22.461,-33.203,11.230,366.699
1689802303.826,12.207,-22.949,-21.973,16.113,89.844
1689802303.830,8.301,-27.344,-14.648,7.812,-151.367
1689802303.834,-3.418,-28.320,-20.508,-16.602,-171.387
1689802303.838,-1.465,-28.809,-22.461,-25.879,-183.594
1689802303.842,2.441,-29.785,-23.438,-2.930,-118.164
1689802303.845,-1.465,-30.273,-27.344,4.883,-105.957
1689802303.849,-0.977,-23.926,-13.672,-4.883,52.246
1689802303.853,-2.441,-29.785,-0.977,-29.297,195.312
1689802303.857,-19.531,-36.621,-19.043,-43.457,-101.074
1689802303.861,-9.766,-30.762,-29.297,-17.090,-146.484
1689802303.865,-0.488,-28.809,-16.113,-4.883,27.344
1689802303.869,-7.812,-39.551,-4.395,-19.531,52.734
1689802303.872,-7.324,-49.805,-7.324,-22.949,-128.906
1689802303.876,-9.766,-37.109,-20.020,-16.602,-224.609
1689802303.880,-4.395,-27.344,-20.996,1.953,62.500
1689802303.884,-9.277,-34.180,-6.836,3.418,88.867
1689802303.888,-10.254,-38.574,-11.230,-17.578,-127.441
1689802303.904,-7.324,-34.180,-30.273,-24.414,-128.418
1689802303.908,-12.207,-37.109,-33.203,-15.137,-89.844
1689802303.912,-6.836,-42.480,-26.855,2.441,-93.750
1689802303.916,7.812,-36.621,-25.391,14.160,-58.105
1689802303.920,17.090,-32.227,-19.531,20.996,11.719
1689802303.924,5.371,-39.551,-15.137,5.859,222.168
1689802303.928,-26.367,-44.922,-20.508,-15.137,111.816
1689802303.931,-24.414,-43.945,-24.902,-6.836,-183.594
1689802303.935,4.883,-42.480,-19.531,8.789,-51.758
1689802303.939,10.254,-37.598,-7.324,15.137,185.059
1689802303.943,-7.812,-41.504,-11.719,-7.324,-4.883
1689802303.947,-4.883,-50.293,-20.508,-15.625,-186.523
1689802303.949,12.695,-42.480,-20.508,6.348,-91.797
1689802303.953,10.742,-31.738,-20.996,23.926,86.426
1689802303.957,1.953,-27.832,-32.715,14.160,-99.121
1689802303.961,-18.066,-32.715,-43.457,-24.902,-189.453
1689802303.965,-23.926,-37.598,-22.949,-30.762,-76.660
1689802303.969,-15.625,-41.504,-12.695,-10.254,-63.965
1689802303.973,-13.184,-43.457,-17.090,2.441,-20.508
1689802303.976,-6.836,-44.922,-29.785,4.883,24.902
1689802303.980,-17.578,-54.199,-40.039,-12.207,229.492
1689802303.984,-23.438,-57.129,-27.344,-34.180,283.691
1689802303.988,-18.066,-49.805,-24.414,-29.785,-132.324
1689802303.992,-11.230,-44.434,-31.738,-5.371,-173.828
1689802303.994,-17.090,-43.945,-25.391,-7.324,-33.691
1689802303.998,-28.809,-45.410,-21.484,-33.203,-116.211
1689802304.002,-21.484,-40.039,-20.996,-43.945,-177.734
1689802304.006,-10.254,-37.109,-18.555,-30.762,-143.066
1689802304.010,-2.441,-43.457,-14.648,-7.324,-33.691
1689802304.014,4.883,-32.227,-16.113,6.836,125.000
1689802304.018,-10.742,-25.879,-19.531,-9.766,43.945
1689802304.021,-31.738,-31.738,-13.184,-31.250,-71.777
1689802304.025,-21.973,-37.109,-16.602,-14.160,231.445
1689802304.029,-13.184,-37.109,-28.320,-2.441,102.051
1689802304.033,-4.395,-36.133,-35.645,-4.395,-157.227
1689802304.037,5.371,-37.109,-33.203,-9.277,29.785
1689802304.039,-17.090,-37.109,-19.531,-29.297,104.492
1689802304.043,-5.371,-35.156,-21.973,-43.457,-158.203
1689802304.047,12.695,-30.762,-27.832,-20.020,-192.383
1689802304.051,-20.508,-36.133,-16.602,9.277,-33.691
1689802304.055,-27.832,-54.199,-14.648,-4.395,-37.109
1689802304.059,-7.324,-48.340,-16.113,-22.461,-16.113
1689802304.063,-6.348,-39.062,-23.438,-30.273,-5.859
1689802304.066,-4.395,-46.875,-27.832,-19.043,159.180
1689802304.070,5.371,-52.246,-29.297,-4.883,207.031
1689802304.074,-8.301,-49.316,-33.691,-17.090,-104.492
1689802304.078,-29.297,-39.551,-33.203,-20.020,-141.113
1689802304.082,-16.113,-43.457,-49.805,-18.066,36.133
1689802304.084,-21.973,-45.410,-41.992,-14.160,-71.777
1689802304.088,-28.809,-39.551,-13.184,22.461,-143.555
1689802304.092,-8.301,-36.621,-5.371,26.855,-86.914
1689802304.096,-2.441,-34.668,-0.488,-15.137,-116.211
1689802304.100,-18.555,-37.109,0.000,-34.668,-186.035
1689802304.104,-30.273,-41.992,-4.883,-18.066,-114.746
1689802304.108,-13.184,-40.527,-4.883,11.230,90.332
1689802304.111,-1.465,-41.992,-11.230,13.184,312.500
1689802304.115,-19.043,-44.434,-30.273,-28.809,60.059
1689802304.119,-17.578,-36.621,-39.062,-46.875,-215.820
1689802304.123,-10.254,-32.715,-37.109,-24.902,-104.980
1689802304.127,-9.277,-31.738,-30.273,3.418,45.410
1689802304.145,2.441,-20.508,-25.391,19.043,-32.227
1689802304.149,-1.465,-20.020,-22.461,-5.371,-143.066
1689802304.153,-5.371,-33.203,-25.391,-23.926,43.457
1689802304.157,-10.742,-33.691,-49.805,-14.648,185.059
1689802304.161,-23.438,-27.344,-40.039,-4.883,-113.281
1689802304.165,-10.742,-32.715,-14.648,-3.418,-127.441
1689802304.169,-0.488,-35.156,-11.230,-15.625,189.941
1689802304.172,-22.461,-32.227,-10.254,-26.367,134.277
1689802304.176,-25.879,-35.645,-16.602,-27.344,-250.488
1689802304.180,-15.625,-38.574,-27.344,-9.766,-248.535
1689802304.184,-18.555,-35.645,-28.809,-4.395,-80.566
1689802304.188,-20.508,-41.504,-21.484,-26.855,-126.953
1689802304.174,-13.184,-42.480,-13.672,-33.203,-221.191
1689802304.178,-14.648,-34.180,-12.207,-24.414,-190.430
1689802304.182,-7.324,-35.156,-26.855,-7.324,-120.605
1689802304.186,-1.953,-34.180,-22.461,3.906,-75.195
1689802304.190,-10.742,-29.785,-20.996,-17.578,14.160
1689802304.194,0.000,-25.391,-36.621,-33.691,30.273
1689802304.198,-10.254,-24.902,-31.250,-27.344,86.914
1689802304.201,-23.438,-33.203,-21.484,-13.672,-18.066
1689802304.205,-22.461,-37.109,-20.508,-0.977,-121.582
1689802304.209,-17.090,-41.016,-26.855,-8.789,-14.648
1689802304.213,-12.207,-45.410,-26.367,-24.414,343.750
1689802304.217,-20.020,-34.668,-36.133,-39.062,236.328
1689802304.234,-24.902,-25.879,-44.922,-25.391,-108.398
1689802304.238,-16.113,-28.320,-42.480,-2.930,-14.160
1689802304.242,-20.020,-31.250,-30.762,-16.113,32.715
1689802304.246,-20.996,-28.809,-9.277,-36.133,-146.484
1689802304.250,-15.625,-31.250,-0.488,-30.273,-195.801
1689802304.254,-17.090,-40.039,-12.695,-3.418,5.371
1689802304.258,-12.207,-41.992,-31.738,5.371,103.027
1689802304.261,3.906,-45.410,-41.504,-1.953,-12.207
1689802304.265,9.277,-36.621,-31.738,-2.441,-127.441
1689802304.269,1.953,-24.414,-20.020,-7.812,78.613
1689802304.273,-4.883,-34.668,-26.855,-6.836,176.270
1689802304.277,-5.859,-39.551,-18.066,5.859,-116.699
1689802304.279,4.883,-32.715,-12.207,10.254,-155.762
1689802304.283,-5.371,-33.691,-20.996,-7.324,-134.766
1689802304.287,-7.324,-33.203,-17.578,-25.879,-208.496
1689802304.291,4.883,-27.832,-24.414,-7.812,-197.266
1689802304.295,-0.977,-29.297,-35.156,14.648,-97.168
1689802304.299,-3.906,-41.016,-18.555,9.277,73.730
1689802304.303,-2.930,-56.152,-5.859,-12.695,111.328
1689802304.306,-13.672,-41.504,-10.254,-30.762,-95.703
1689802304.310,-19.043,-32.227,-17.090,-14.160,-143.555
1689802304.314,-2.930,-35.645,-27.344,14.648,220.703
1689802304.318,-8.789,-35.645,-24.414,7.324,145.996
1689802304.322,-15.137,-44.922,-16.602,-3.418,-63.477
1689802304.324,-13.184,-44.922,-30.273,-7.324,-76.172
1689802304.328,-12.695,-44.434,-27.344,-4.395,-68.848
1689802304.332,-5.371,-45.410,-13.672,4.395,-131.348
1689802304.336,-0.977,-42.969,-18.066,7.812,-136.230
1689802304.340,-15.137,-49.316,-31.250,-8.789,-71.289
1689802304.344,-24.414,-49.316,-30.273,-29.297,-39.551
1689802304.348,-18.555,-45.410,-17.578,-18.555,-88.867
1689802304.351,-9.277,-55.176,-19.531,-1.465,-151.367
1689802304.355,2.930,-47.852,-26.855,17.578,134.766
1689802304.359,-7.812,-42.969,-36.621,-4.883,210.938
1689802304.363,-21.484,-47.852,-31.738,-31.250,-176.758
1689802304.367,-3.906,-39.062,-26.367,-3.906,-124.512
1689802304.369,6.348,-26.367,-14.648,19.531,104.980
1689802304.373,-0.977,-28.809,-9.277,10.742,-40.527
1689802304.377,-5.371,-36.621,-28.320,-14.648,-142.090
1689802304.381,-12.207,-38.086,-36.133,-40.039,-151.367
1689802304.385,-22.461,-47.363,-39.551,-33.691,-145.020
1689802304.389,-14.648,-43.457,-41.504,-1.465,-86.426
1689802304.393,-2.441,-36.133,-32.715,7.812,-32.715
1689802304.396,-13.184,-36.133,-18.066,-4.395,54.688
1689802304.400,-12.695,-40.527,-9.766,-22.461,237.305
1689802304.404,-10.742,-34.180,-18.555,-29.297,-19.043
1689802304.408,-8.789,-27.832,-19.531,-8.789,-184.082
1689802304.412,7.812,-27.344,-15.625,11.230,54.688
1689802304.415,10.742,-24.414,-23.438,16.113,104.980
1689802304.419,-19.043,-36.621,-30.273,-17.578,-122.070
1689802304.423,-19.043,-40.039,-31.738,-37.109,-166.992
1689802304.427,1.465,-38.574,-35.645,-10.742,-30.762
1689802304.431,20.020,-48.340,-35.645,29.785,-8.301
1689802304.435,24.414,-42.969,-37.598,35.156,-45.898
1689802304.439,-2.930,-25.879,-37.109,-12.695,-81.543
1689802304.442,-29.297,-24.902,-27.344,-30.762,100.098
1689802304.446,-16.602,-31.738,-31.250,-5.859,118.164
1689802304.450,3.906,-25.391,-42.480,11.230,-175.293
1689802304.454,6.836,-15.625,-44.434,9.277,-147.949
1689802304.458,-8.789,-19.043,-36.133,-16.113,-41.504
1689802304.459,-17.578,-28.809,-27.344,-35.156,-116.211
1689802304.463,6.348,-27.832,-29.297,-25.879,-242.676
1689802304.467,1.953,-16.602,-40.527,-16.602,-186.523
1689802304.471,-0.488,-16.113,-61.035,-16.113,-103.516
1689802304.475,10.742,-20.508,-63.965,-25.879,-85.449
1689802304.479,1.465,-23.438,-44.434,-36.621,-94.727
1689802304.483,-1.953,-21.973,-32.715,-28.320,-16.113
1689802304.486,8.301,-20.996,-14.160,0.977,308.105
1689802304.490,13.184,-24.414,-14.648,0.977,141.113
1689802304.494,8.301,-21.973,-22.949,-19.043,-174.805
1689802304.498,-3.418,-17.090,-18.066,-26.855,-130.859
1689802304.502,-14.160,-24.902,-35.645,-22.461,-18.066
1689802304.504,-8.301,-31.250,-43.457,0.488,-41.504
1689802304.508,-3.418,-30.273,-34.668,10.742,-58.594
1689802304.512,3.418,-35.156,-22.949,-3.418,40.527
1689802304.516,-9.277,-39.551,-23.438,-35.645,78.613
1689802304.520,-29.297,-40.039,-27.344,-42.969,-43.945
1689802304.524,-20.996,-45.410,-22.461,-13.184,-40.527
1689802304.528,2.441,-43.945,-34.668,8.301,329.102
1689802304.531,9.277,-38.574,-27.832,-3.418,534.668
1689802304.535,-5.859,-35.156,-24.414,-31.250,-54.688
1689802304.539,-20.020,-43.457,-18.555,-33.203,-290.039
1689802304.543,-8.301,-43.945,-10.742,-9.277,-86.914
1689802304.547,-3.418,-32.715,-17.578,1.953,-96.191
1689802304.549,-4.395,-25.391,-29.785,2.441,-122.070
1689802304.553,8.789,-19.531,-31.250,-0.488,-130.371
1689802304.557,3.418,-24.414,-39.062,-9.766,-118.652
1689802304.561,-6.348,-33.203,-35.645,1.465,-64.941
1689802304.565,13.672,-27.832,-20.020,13.672,-91.797
1689802304.569,14.160,-26.367,-14.648,9.766,33.203
1689802304.573,-4.883,-28.320,-16.113,-7.324,395.020
1689802304.576,-4.395,-26.367,-21.973,-26.367,90.820
1689802304.580,-5.859,-25.879,-31.250,-5.371,-209.961
1689802304.584,0.488,-26.367,-39.551,18.555,-13.672
1689802304.588,-4.883,-29.297,-43.945,12.207,166.504
1689802304.592,-15.625,-34.180,-42.969,-11.719,1.465
1689802304.609,-19.043,-31.250,-32.227,-31.738,-140.137
1689802304.613,-25.391,-31.250,-30.273,-15.137,-41.992
1689802304.617,-24.902,-37.598,-36.621,9.277,82.031
1689802304.621,-22.461,-31.738,-27.344,0.000,-52.734
1689802304.625,-6.836,-38.086,-28.320,-2.930,-127.930
1689802304.629,11.230,-48.340,-30.273,21.484,-58.105
1689802304.633,-13.184,-29.785,-24.414,9.766,-34.180
1689802304.636,-53.711,-14.648,-25.391,-25.879,-98.145
1689802304.640,-49.316,-27.344,-34.668,-41.504,-112.793
1689802304.644,-13.672,-32.227,-39.062,-38.574,76.660
1689802304.648,-36.621,-18.066,-43.457,-56.152,8.301
1689802304.652,-60.059,-17.578,-42.969,-70.312,-152.344
1689802304.642,-51.270,-20.996,-33.203,-66.406,11.230
1689802304.646,-39.062,-21.973,-36.621,-63.477,140.137
1689802304.650,-36.133,-21.973,-44.434,-70.801,-23.926
1689802304.654,-51.270,-22.461,-44.434,-83.496,-165.527
1689802304.658,-44.434,-29.297,-34.180,-73.242,-143.555
1689802304.662,-22.949,-29.785,-33.691,-41.992,-1.465
1689802304.666,-18.555,-28.320,-41.016,-29.297,50.293
1689802304.669,-18.066,-28.809,-34.668,-42.969,-182.617
1689802304.673,-12.695,-30.762,-29.785,-58.105,-169.434
1689802304.677,-26.855,-30.762,-30.273,-53.223,206.543
1689802304.681,-20.996,-21.973,-34.668,-31.738,41.016
1689802304.685,-0.488,-18.555,-36.133,-20.996,-126.465
1689802304.700,-8.789,-28.809,-33.203,-30.273,-42.969
1689802304.704,-15.625,-34.180,-33.203,-38.574,-70.801
1689802304.708,-14.648,-34.180,-27.832,-28.320,-86.426
1689802304.712,-20.996,-29.785,-13.672,-8.301,-146.973
1689802304.716,-3.906,-29.297,-11.230,9.766,50.781
1689802304.720,2.441,-36.133,-27.344,-5.371,398.438
1689802304.724,-12.695,-35.645,-34.180,-41.992,82.031
1689802304.727,-12.695,-29.785,-28.809,-35.645,-195.312
1689802304.731,-0.488,-31.738,-21.484,-5.859,72.754
1689802304.735,2.930,-35.156,-22.461,0.000,70.801
1689802304.739,-12.207,-37.109,-25.391,-16.113,-147.949
1689802304.743,-24.414,-36.133,-25.391,-37.598,-152.344
1689802304.744,-24.414,-41.016,-23.438,-39.551,-152.832
1689802304.748,-14.648,-44.922,-21.973,-15.625,-171.387
1689802304.752,-6.348,-36.621,-30.273,2.930,-114.746
1689802304.756,-0.977,-29.297,-31.738,-6.348,-64.941
1689802304.760,-2.441,-32.227,-34.668,-26.367,-27.344
1689802304.764,-13.672,-32.715,-33.203,-29.785,-25.391
1689802304.768,-20.020,-34.180,-26.855,-19.531,-106.934
1689802304.771,-11.230,-34.668,-24.902,-3.418,-38.086
1689802304.775,3.906,-30.273,-15.625,8.301,307.129
1689802304.779,-11.230,-33.691,-23.438,-20.020,118.652
1689802304.783,-17.090,-32.715,-29.297,-31.738,-215.332
1689802304.787,0.000,-28.809,-19.043,-6.348,11.719
1689802304.789,4.883,-30.762,-22.949,8.301,144.531
1689802304.793,10.742,-32.715,-36.133,-8.789,-101.074
1689802304.797,-7.324,-32.715,-27.832,-29.785,-202.148
1689802304.801,-16.113,-33.691,-28.320,-22.949,-138.672
1689802304.805,-14.160,-34.668,-25.879,-18.555,-122.070
1689802304.809,-19.531,-36.621,-11.719,-10.742,3.906
1689802304.813,-10.254,-33.691,-23.438,-0.488,35.645
1689802304.816,0.977,-35.156,-19.043,-7.324,203.125
1689802304.820,-2.930,-41.016,-1.953,-17.090,352.539
1689802304.824,-17.578,-42.969,-12.695,-19.531,-82.520
1689802304.828,-17.090,-47.363,-33.691,-13.672,-205.566
1689802304.832,18.066,-49.805,-36.133,2.930,-48.340
1689802304.834,46.387,-47.852,-30.273,22.461,-119.629
1689802304.838,13.184,-47.363,-26.367,-7.324,-188.477
1689802304.842,-25.391,-50.293,-11.719,-27.832,-203.613
1689802304.846,-12.207,-47.363,-5.859,11.230,-109.863
1689802304.850,14.648,-44.922,-8.789,39.062,-35.156
1689802304.854,0.977,-50.293,-10.742,25.879,-73.730
1689802304.858,-3.418,-50.293,0.977,13.672,40.527
1689802304.861,4.883,-50.781,-16.602,18.555,314.453
1689802304.865,15.625,-58.105,-34.180,40.039,43.945
1689802304.869,32.715,-55.176,-1.465,70.801,-191.406
1689802304.873,20.508,-56.152,7.324,61.523,21.484
1689802304.877,0.000,-60.547,-0.488,22.949,138.672
1689802304.878,-19.043,-60.547,-9.277,7.812,-122.070
1689802304.882,-21.484,-59.570,-5.859,23.926,-230.957
1689802304.886,-3.906,-56.152,0.488,43.457,-6.836
1689802304.890,4.883,-49.805,-10.742,41.504,20.996
1689802304.894,2.930,-46.387,-15.625,17.090,-143.555
1689802304.898,-4.883,-48.828,-12.207,8.301,-114.746
1689802304.902,-3.418,-49.316,-13.672,30.762,118.164
1689802304.905,0.488,-46.875,-15.625,37.598,214.355
1689802304.909,4.395,-45.898,-20.508,17.090,-52.246
1689802304.913,4.395,-46.387,-27.344,-4.395,-184.570
1689802304.917,2.441,-42.480,-22.461,-3.906,-166.016
1689802304.921,-3.906,-42.969,-21.484,19.531,-137.207
1689802304.939,-13.672,-48.828,-19.043,24.902,-48.828
1689802304.943,-9.277,-47.852,-11.719,15.625,-17.090
1689802304.947,-6.836,-41.504,-15.625,-2.930,49.316
1689802304.951,-15.137,-40.527,-20.996,-23.926,-67.871
1689802304.955,-20.020,-36.133,-10.742,-8.301,-182.617
1689802304.959,-7.324,-34.180,-13.672,16.602,-25.391
1689802304.963,5.371,-38.086,-31.250,18.066,279.297
1689802304.966,-1.953,-42.969,-24.902,-8.789,112.793
1689802304.970,-4.395,-44.434,-3.906,-14.648,-164.062
1689802304.974,8.789,-40.039,-2.930,6.836,-124.023
1689802304.978,12.207,-35.156,-17.090,33.691,25.879
1689802304.982,9.277,-36.621,-21.973,34.668,46.387
1689802304.984,7.324,-36.133,-23.926,-0.488,-90.820
1689802304.988,5.859,-33.691,-18.555,-14.160,-136.230
1689802304.992,-6.348,-36.621,-1.465,-4.395,-38.086
1689802304.996,-14.160,-42.480,-2.441,0.977,-25.879
1689802305.000,-8.301,-45.898,-12.207,5.371,-68.359
1689802305.004,-13.672,-41.016,-21.484,2.441,119.141
1689802305.008,-18.066,-33.691,-37.109,-11.230,174.316
1689802305.011,-33.203,-38.086,-28.320,-15.625,-27.832
1689802305.015,-18.555,-41.016,-7.324,6.348,-112.793
1689802305.019,16.113,-35.156,-3.418,23.926,135.254
1689802305.023,-0.977,-43.945,-19.043,-8.789,195.312
1689802305.027,-25.391,-48.340,-22.949,-38.086,-182.129
1689802305.029,-20.508,-44.434,-20.508,-30.273,-229.492
1689802305.033,-23.926,-47.363,-24.902,-14.648,-98.633
1689802305.037,-28.320,-47.363,-28.809,-3.418,-66.406
1689802305.041,-17.578,-44.434,-35.156,-9.766,-67.383
1689802305.045,-12.207,-45.410,-48.828,-24.414,-70.312
1689802305.049,-11.719,-48.340,-50.781,-33.203,-12.695
1689802305.053,8.789,-41.992,-39.062,0.488,47.363
1689802305.056,13.672,-38.574,-25.879,17.578,41.504
1689802305.060,-1.465,-41.504,-19.043,-10.742,34.180
1689802305.064,-0.977,-38.574,-12.207,-16.113,275.391
1689802305.068,-12.695,-35.645,-17.090,-20.508,110.840
1689802305.072,-14.160,-33.691,-35.645,-12.207,-50.293
1689802305.074,-3.418,-35.156,-28.320,9.766,41.504
1689802305.078,-18.555,-41.016,-8.789,-0.488,-31.738
1689802305.082,-39.062,-45.410,-3.906,-29.785,-168.457
1689802305.086,-35.156,-41.504,-4.395,-39.551,-229.980
1689802305.090,-28.320,-35.645,-18.555,-15.137,-72.266
1689802305.094,-19.531,-30.762,-43.457,5.371,159.668
1689802305.098,-6.348,-19.531,-44.922,6.836,82.520
1689802305.101,-26.855,-23.926,-39.551,-20.996,-93.750
1689802305.105,-37.598,-29.785,-26.367,-37.598,-46.387
1689802305.109,-25.391,-32.227,-28.809,-19.043,-110.352
1689802305.113,-14.648,-34.668,-27.832,4.395,-161.621
1689802305.117,-5.859,-27.344,-1.953,-1.953,-62.500
1689802305.119,-0.977,-27.344,1.953,-21.973,167.969
1689802305.123,-7.324,-30.273,-14.160,-41.016,118.164
1689802305.127,-16.113,-28.320,-26.855,-35.156,-148.438
1689802305.131,-28.809,-33.203,-15.625,-6.348,-60.547
1689802305.135,-20.020,-36.621,-21.973,1.465,-30.762
1689802305.139,-3.906,-32.227,-48.340,-13.184,-76.172
1689802305.143,-11.230,-34.668,-46.387,-24.414,-109.375
1689802305.146,-18.555,-38.574,-18.066,-18.066,-104.004
1689802305.150,-6.836,-40.527,1.465,-2.441,228.027
1689802305.154,-6.836,-36.133,-6.836,-0.488,126.465
1689802305.158,-13.672,-33.203,-15.625,-16.602,-134.277
1689802305.162,-4.395,-44.922,-18.066,-18.066,21.973
1689802305.179,-11.230,-41.016,-19.043,-12.695,209.961
1689802305.183,-23.438,-24.414,-31.738,-26.855,-69.824
1689802305.187,-2.930,-20.996,-41.016,-9.766,-156.738
1689802305.191,-6.348,-24.902,-27.832,-8.301,-87.402
1689802305.195,-19.531,-29.785,-18.555,-35.156,-185.547
1689802305.199,-7.324,-28.320,-17.578,-19.531,-84.473
1689802305.203,-0.977,-30.273,-27.344,6.348,15.137
1689802305.206,15.137,-34.180,-27.344,30.273,176.758
1689802305.210,20.508,-32.715,-22.461,24.902,170.410
1689802305.214,9.277,-32.715,-25.391,-12.695,-182.129
1689802305.218,7.812,-28.320,-28.809,-13.184,-239.258
1689802305.222,19.531,-27.832,-20.508,11.230,-102.539
1689802305.210,20.508,-34.180,-21.484,17.090,-20.020
1689802305.214,13.672,-30.762,-18.555,3.906,-44.434
1689802305.218,23.438,-28.320,-28.809,-8.789,-64.941
1689802305.222,22.461,-30.762,-38.574,-4.883,51.758
1689802305.226,7.324,-35.156,-11.230,6.836,-33.203
1689802305.230,18.066,-33.203,0.000,27.832,-35.645
1689802305.234,28.320,-30.273,-8.789,25.391,92.773
1689802305.237,5.859,-28.809,-24.414,-6.348,27.344
1689802305.241,-6.348,-28.320,-46.387,-14.160,-116.211
1689802305.245,-10.254,-27.832,-38.086,11.230,-207.031
1689802305.249,8.301,-22.461,-18.066,31.250,-54.199
1689802305.253,11.719,-30.762,-29.297,10.742,477.539
1689802305.254,-19.043,-34.668,-39.551,-33.203,171.875
1689802305.258,-32.227,-33.691,-30.762,-42.480,-314.941
1689802305.262,-39.062,-30.762,-20.020,-27.832,-126.465
1689802305.266,-36.133,-29.785,-23.438,-24.902,-1.465
1689802305.270,-41.992,-30.762,-32.715,-33.203,-118.652
1689802305.274,-55.664,-21.484,-37.109,-52.246,-194.336
1689802305.278,-58.594,-21.973,-27.832,-78.125,52.734
1689802305.281,-84.961,-23.438,-29.785,-83.008,259.766
1689802305.285,-107.422,-17.578,-41.992,-89.355,-106.445
1689802305.289,-105.469,-10.254,-30.273,-103.516,-225.586
1689802305.293,-105.469,-9.277,-26.367,-125.000,-125.000
1689802305.297,-122.070,-10.742,-41.504,-147.461,-208.008
1689802305.314,-133.789,-14.648,-47.852,-148.438,-222.656
1689802305.318,-129.395,-17.578,-36.133,-130.371,-144.531
1689802305.322,-114.258,-14.648,-26.367,-118.164,-87.891
1689802305.326,-116.699,-11.230,-25.879,-136.230,-121.582
1689802305.330,-120.605,-10.742,-20.996,-140.137,-188.965
1689802305.334,-104.980,-21.484,-20.020,-106.934,-34.668
1689802305.338,-90.820,-30.762,-26.855,-87.402,250.977
1689802305.341,-82.520,-28.809,-32.227,-86.914,160.645
1689802305.345,-79.102,-23.926,-37.598,-82.031,-83.984
1689802305.349,-63.965,-26.367,-21.484,-77.148,-115.234
1689802305.353,-45.410,-32.715,1.465,-58.105,99.609
1689802305.357,-46.875,-33.203,0.977,-24.414,9.277
1689802305.358,-25.391,-36.621,-7.324,3.418,-148.926
1689802305.362,2.930,-43.457,-9.766,3.906,-69.824
1689802305.366,14.160,-46.875,-4.395,6.836,41.016
1689802305.370,25.391,-34.668,-13.672,17.090,-125.000
1689802305.374,30.762,-33.203,-27.344,35.645,-138.184
1689802305.378,50.781,-33.691,-32.227,69.824,44.922
1689802305.382,56.641,-31.738,-27.832,59.570,43.457
1689802305.385,43.945,-39.062,-21.484,21.484,-83.496
1689802305.389,36.621,-40.039,-32.715,20.508,-106.934
1689802305.393,47.852,-41.016,-20.020,59.082,136.719
1689802305.397,46.387,-50.293,-12.695,68.848,358.887
1689802305.401,17.578,-49.805,-35.645,30.762,22.949
1689802305.404,0.977,-48.340,-41.992,7.324,-191.406
1689802305.408,1.465,-47.852,-41.992,1.465,-131.348
1689802305.412,6.348,-49.316,-24.414,18.555,-149.902
1689802305.416,10.254,-47.852,-5.371,43.945,-157.227
1689802305.420,22.949,-41.992,-12.207,46.875,-72.754
1689802305.424,24.414,-38.574,-12.695,25.391,33.203
1689802305.428,20.508,-37.109,-4.395,5.371,-27.344
1689802305.431,22.949,-35.156,-33.691,27.832,-104.004
1689802305.435,32.227,-32.227,-52.246,48.340,-11.719
1689802305.439,41.992,-31.738,-12.695,31.738,276.855
1689802305.443,10.742,-31.250,-4.883,0.000,94.238
1689802305.447,-18.066,-38.086,-22.949,-18.555,-171.875
1689802305.464,-0.977,-44.922,-22.461,4.395,-6.836
1689802305.468,8.789,-41.992,-23.438,38.086,244.141
1689802305.472,-7.812,-46.875,-27.832,23.438,-14.160
1689802305.476,3.906,-49.316,-24.902,8.301,-180.664
1689802305.480,4.395,-42.480,-24.902,10.742,-92.773
1689802305.484,0.000,-44.434,-32.715,5.371,-7.324
1689802305.488,18.066,-46.875,-20.996,16.602,-7.812
1689802305.491,18.555,-43.457,-15.137,17.090,-83.496
1689802305.495,11.719,-42.480,-11.719,2.930,90.820
1689802305.499,1.465,-48.828,-6.836,-15.137,78.125
1689802305.503,9.766,-42.480,-12.695,-13.184,-218.750
1689802305.507,11.719,-35.645,-22.949,3.906,-80.078
1689802305.494,7.812,-39.551,-27.344,6.348,43.457
1689802305.498,5.859,-43.457,-28.809,-11.230,-91.309
1689802305.502,-2.930,-37.109,-45.410,-26.855,-229.004
1689802305.506,-5.859,-37.109,-36.133,-20.020,-187.988
1689802305.510,-4.883,-40.527,-18.066,5.371,46.875
1689802305.514,-0.488,-43.457,-20.996,8.301,79.590
1689802305.518,12.695,-44.922,-20.508,-1.953,-16.602
1689802305.521,17.090,-40.039,-21.973,-10.254,-47.363
1689802305.525,-0.488,-41.992,-23.926,-10.742,-44.434
1689802305.529,8.789,-37.598,-29.785,12.207,-104.980
1689802305.533,15.625,-36.621,-28.320,21.973,-85.449
1689802305.537,11.719,-48.340,-14.648,3.418,68.848
1689802305.539,8.301,-47.852,-7.324,-8.301,339.844
1689802305.543,-12.695,-44.922,-19.043,-13.672,89.355
1689802305.547,-16.113,-48.340,-28.320,1.465,-179.199
1689802305.551,4.395,-47.363,-28.320,28.320,46.875
1689802305.555,14.648,-51.270,-19.531,20.508,8.789
1689802305.559,7.812,-50.781,-27.832,1.465,-143.066
1689802305.563,2.930,-45.410,-34.180,-10.742,-134.277
1689802305.566,-13.672,-50.293,-2.930,5.859,125.977
1689802305.570,-22.461,-55.664,-5.859,11.230,297.363
1689802305.574,-25.879,-54.688,-16.602,-14.160,-54.688
1689802305.578,-28.809,-52.246,-1.953,-17.090,-204.102
1689802305.582,-24.414,-50.781,-1.953,-26.367,-126.953
1689802305.583,-25.391,-52.734,-11.230,-26.855,-163.086
1689802305.587,-15.625,-53.711,-17.090,0.000,-155.762
1689802305.591,-10.742,-44.922,-14.160,9.277,-104.980
1689802305.595,-21.484,-44.922,-19.043,-18.066,-119.141
1689802305.599,-28.320,-53.711,-28.320,-29.297,-155.762
1689802305.603,-26.367,-53.223,-20.996,-9.766,-75.684
1689802305.607,-12.207,-44.922,-20.996,11.719,43.457
1689802305.610,-5.859,-44.434,-26.367,18.555,388.184
1689802305.614,-18.066,-49.316,-22.949,-6.348,233.398
1689802305.618,-20.996,-49.805,-22.949,-21.973,-211.426
1689802305.622,-8.789,-46.875,-26.855,-9.277,-192.383
1689802305.626,3.418,-40.527,-44.434,10.254,-35.645
1689802305.628,8.789,-35.156,-41.016,6.836,-81.055
1689802305.632,0.977,-44.434,-24.902,-15.137,-229.004
1689802305.636,13.184,-46.387,-14.648,-14.648,-102.539
1689802305.640,24.414,-36.133,-16.602,5.371,7.324
1689802305.644,6.348,-32.715,-20.996,1.465,-136.230
1689802305.648,-0.977,-36.133,-20.996,-9.766,18.555
1689802305.652,5.859,-39.551,-19.531,0.977,269.531
1689802305.655,0.488,-42.969,-34.180,0.977,169.434
1689802305.659,5.859,-36.133,-30.273,0.977,-98.633
1689802305.663,12.695,-31.250,-15.137,27.344,-72.754
1689802305.667,15.625,-37.109,-22.461,45.410,105.957
1689802305.671,14.160,-39.062,-26.855,26.855,-17.090
1689802305.674,19.531,-36.621,-15.137,19.531,-202.637
1689802305.678,19.043,-45.410,-14.160,19.043,-161.621
1689802305.682,15.625,-53.223,-26.367,33.691,-84.473
1689802305.686,26.855,-45.410,-36.133,45.898,-95.215
1689802305.690,35.156,-42.969,-31.250,20.020,-137.695
1689802305.694,23.926,-43.945,-32.227,-9.766,62.988
1689802305.698,5.859,-43.457,-33.691,-9.766,265.137
1689802305.701,-0.977,-47.852,-17.090,6.836,-8.789
1689802305.705,9.766,-46.387,-15.625,31.738,-169.434
1689802305.709,19.531,-44.434,-18.555,30.762,-76.172
1689802305.713,10.742,-48.828,-18.066,0.977,-50.781
1689802305.717,0.000,-51.758,-32.715,-5.371,-86.426
1689802305.720,7.812,-46.875,-39.062,14.160,-61.523
1689802305.724,29.785,-40.527,-28.320,31.250,84.473
1689802305.728,29.785,-41.016,-27.344,32.227,260.254
1689802305.732,3.418,-46.387,-19.531,-4.883,-56.641
1689802305.736,3.418,-43.945,-10.254,-15.137,-243.652
1689802305.740,20.508,-44.434,-5.859,13.672,-5.371
1689802305.744,13.184,-45.410,-12.695,29.297,46.387
1689802305.747,0.000,-41.992,-17.578,16.113,-73.730
1689802305.751,7.324,-39.551,-17.090,-0.488,-149.902
1689802305.755,6.836,-38.086,-13.672,-9.766,61.523
1689802305.759,-9.277,-39.551,-17.090,-2.930,98.633
1689802305.763,-2.441,-41.992,-26.855,17.578,-139.160
1689802305.779,3.906,-39.062,-20.508,12.207,-125.977
1689802305.783,5.371,-40.039,-19.531,3.418,-20.020
1689802305.787,0.488,-41.504,-21.973,-8.301,-79.590
1689802305.791,-9.277,-49.316,-14.160,-0.977,-147.461
1689802305.795,17.578,-53.223,-24.902,42.480,-60.059
1689802305.799,34.668,-39.551,-29.785,50.781,324.219
1689802305.803,-10.742,-31.738,-27.344,-13.672,145.508
1689802305.806,-46.875,-35.156,-33.691,-58.594,-250.000
1689802305.810,-40.527,-31.738,-33.691,-42.480,-122.070
1689802305.814,-22.949,-25.879,-37.109,-8.301,116.211
1689802305.818,-4.395,-15.625,-40.039,7.812,-10.254
1689802305.822,-1.465,-14.648,-38.574,-19.043,-94.727
1689802305.824,-9.277,-15.137,-35.156,-36.133,-57.129
1689802305.828,-1.953,-11.230,-38.086,-20.996,-15.137
1689802305.832,11.230,-4.883,-41.992,-4.395,-107.910
1689802305.836,19.043,-8.301,-43.945,-0.977,-117.676
1689802305.840,26.367,-19.043,-50.293,-8.301,64.941
1689802305.844,19.531,-17.090,-43.457,-18.555,64.453
1689802305.848,9.766,-20.508,-36.133,-18.555,-130.859
1689802305.851,5.859,-20.020,-40.039,-0.977,-198.730
1689802305.855,17.090,-11.230,-41.992,15.137,62.500
1689802305.859,12.695,-16.113,-43.457,-11.230,152.832
1689802305.863,-6.348,-15.137,-36.133,-41.992,-151.855
1689802305.867,-6.836,-19.043,-35.645,-29.297,-152.832
1689802305.869,-1.953,-26.855,-43.457,-5.371,-51.758
1689802305.873,2.441,-25.879,-35.156,-1.465,-73.242
1689802305.877,-10.742,-34.668,-36.133,-19.043,-114.746
1689802305.881,-24.902,-40.527,-40.039,-40.039,-81.055
1689802305.885,-16.602,-37.109,-30.273,-40.527,-76.660
1689802305.889,-18.066,-36.621,-31.738,-19.531,-20.508
1689802305.893,-8.301,-38.574,-30.762,-0.488,30.273
1689802305.896,3.906,-33.691,-31.738,2.441,46.387
1689802305.900,-4.883,-32.715,-39.551,-6.348,277.832
1689802305.904,-10.254,-38.574,-46.387,-24.902,125.977
1689802305.908,-11.230,-40.039,-49.316,-23.438,-176.758
1689802305.912,0.000,-39.062,-35.645,5.371,9.277
1689802305.914,2.441,-39.062,-36.133,0.488,151.855
1689802305.918,-13.672,-42.480,-37.598,-34.180,-114.258
1689802305.922,-15.137,-42.969,-23.438,-43.945,-239.258
1689802305.926,-0.977,-36.621,-10.742,-16.602,-145.508
1689802305.930,6.836,-37.109,-20.508,13.672,-77.637
1689802305.934,1.953,-36.133,-30.762,-0.488,-23.926
1689802305.938,-12.695,-35.156,-20.996,-31.250,-31.250
1689802305.941,-26.855,-41.504,-22.949,-34.668,-14.160
1689802305.945,-24.902,-39.062,-27.344,-20.020,-73.730
1689802305.949,-24.414,-38.574,-20.020,-9.766,-9.277
1689802305.953,-13.184,-38.574,-12.207,-11.230,-11.230
1689802305.957,2.930,-31.250,-9.766,-20.020,141.113
1689802305.958,-9.766,-33.203,-26.855,-33.691,171.875
1689802305.962,-22.461,-34.668,-25.391,-26.367,-107.422
1689802305.966,-16.602,-29.785,-18.555,-7.812,-112.305
1689802305.970,-8.789,-31.738,-23.438,-8.301,-56.152
1689802305.974,-10.742,-34.668,-10.742,-24.902,-84.473
1689802305.978,-18.066,-36.621,-23.438,-37.598,-114.746
1689802305.982,-25.879,-34.180,-68.359,-26.855,-52.734
1689802305.985,-20.020,-34.180,-67.871,-11.230,233.887
1689802305.989,-21.973,-40.527,-35.156,-6.836,93.750
1689802305.993,-25.879,-39.551,-12.695,-20.020,-172.852
1689802305.997,-15.625,-33.203,1.953,-34.180,-115.234
1689802306.001,-16.602,-31.738,-12.695,-20.020,-29.785
1689802306.004,-11.230,-34.668,-18.555,6.348,-1.465
1689802306.008,-3.906,-34.668,-7.324,11.719,-97.656
1689802306.012,1.953,-32.227,-19.531,-1.953,11.719
1689802306.016,-0.977,-32.715,-24.414,-16.113,113.770
1689802306.020,-14.160,-29.785,-25.879,-15.137,-147.949
1689802306.024,-14.160,-30.273,-37.598,10.254,-111.328
1689802306.028,-0.488,-37.109,-29.297,28.809,217.285
1689802306.031,-9.766,-42.480,-18.555,0.000,274.414
1689802306.035,-46.387,-47.363,-24.902,-43.945,-121.094
1689802306.039,-43.945,-51.758,-22.949,-38.574,-226.074
1689802306.043,-23.926,-55.176,-5.371,-15.625,-89.844
1689802306.047,-13.184,-52.734,9.277,-7.324,-49.805
1689802306.050,-5.859,-43.457,6.348,-7.812,-112.305
1689802306.054,-10.742,-45.410,-10.254,-19.043,-103.027
1689802306.058,-14.648,-49.316,-21.484,-24.414,79.102
1689802306.062,-10.254,-45.410,-24.414,-4.395,-35.645
1689802306.066,4.395,-40.039,-23.438,21.973,-134.766
1689802306.070,9.277,-35.645,-28.320,20.020,59.082
1689802306.074,-5.859,-45.898,-39.551,-4.883,315.918
1689802306.077,-22.949,-46.387,-32.227,-18.555,35.645
1689802306.081,-19.531,-40.527,-18.555,-7.812,-219.238
1689802306.085,-6.836,-45.898,-17.578,9.766,-87.891
1689802306.089,-2.441,-48.828,-29.297,2.441,-14.648
1689802306.093,-0.977,-45.898,-27.344,-20.020,-43.457
1689802306.124,-17.578,-41.992,-34.668,-25.391,-129.395
1689802306.128,-23.438,-44.434,-42.480,-15.137,-88.867
1689802306.132,-11.719,-41.992,-46.387,4.395,70.312
1689802306.136,-12.207,-40.527,-33.691,5.371,-34.180
1689802306.140,-7.324,-43.457,-21.973,1.465,-115.723
1689802306.144,-5.371,-38.086,-23.926,-8.789,135.742
1689802306.148,-15.625,-40.527,-12.695,-23.926,239.258
1689802306.151,-25.391,-47.852,-14.648,-22.461,-76.172
1689802306.155,-28.809,-45.410,-23.926,-20.020,-147.461
1689802306.159,-27.344,-45.898,-21.484,-26.367,9.766
1689802306.163,-32.715,-46.387,-20.508,-38.574,-80.566
1689802306.167,-29.785,-47.363,-23.438,-26.367,-217.285
1689802306.143,-8.789,-41.016,-21.484,11.230,-140.137
1689802306.147,11.719,-35.156,-25.391,19.531,-13.672
1689802306.151,12.207,-32.227,-35.156,0.488,-73.242
1689802306.155,0.977,-31.250,-31.250,-12.695,-136.719
1689802306.159,12.207,-35.156,-13.672,10.742,-145.996
1689802306.163,24.414,-32.715,0.488,36.621,-62.500
1689802306.167,2.441,-30.273,0.000,10.254,79.102
1689802306.170,-11.719,-29.785,-9.766,-25.879,36.621
1689802306.174,-11.230,-28.809,-20.996,-38.574,-90.332
1689802306.178,-24.414,-31.738,-26.855,-42.480,-127.930
1689802306.182,-13.184,-34.668,-33.203,-17.578,-154.785
1689802306.186,-6.348,-36.621,-41.016,-3.906,-127.441
1689802306.199,-9.766,-36.621,-31.250,-11.230,-41.992
1689802306.203,-9.766,-30.762,-25.879,-20.508,113.281
1689802306.207,-22.461,-27.832,-17.578,-30.273,-128.906
1689802306.211,-20.996,-28.809,-11.230,-16.602,-272.949
1689802306.215,6.348,-25.879,-8.789,21.973,-4.883
1689802306.219,17.090,-28.809,-13.184,27.832,465.820
1689802306.223,-4.395,-32.227,-31.738,-16.113,313.477
1689802306.226,-16.602,-34.180,-39.062,-42.969,-196.777
1689802306.230,-6.348,-36.133,-29.785,-7.812,-124.512
1689802306.234,-0.977,-39.062,-32.227,12.207,-66.406
1689802306.238,-5.371,-42.480,-30.762,-0.977,-215.332
1689802306.242,-8.789,-41.504,-22.461,-17.090,-237.793
1689802306.244,-14.648,-33.203,-17.090,-21.484,-46.387
1689802306.248,-16.113,-30.762,-20.020,-9.277,-111.816
1689802306.252,-6.348,-32.715,-28.809,7.324,-200.195
1689802306.256,7.324,-34.180,-27.344,7.324,-99.609
1689802306.260,11.230,-28.320,-32.227,-11.719,-17.090
1689802306.264,16.602,-21.484,-35.156,-17.090,-6.836
1689802306.268,18.066,-23.926,-35.645,4.395,-30.762
1689802306.271,16.602,-22.461,-7.324,26.855,40.527
1689802306.275,15.625,-18.555,9.277,29.785,312.012
1689802306.279,-9.277,-28.809,-9.277,-5.371,87.891
1689802306.283,-19.043,-36.621,-7.812,-34.180,-198.730
1689802306.287,-8.301,-31.250,-13.184,-27.344,84.961
1689802306.288,-6.348,-31.250,-16.113,-12.207,272.461
1689802306.292,-11.719,-33.203,-22.461,-9.766,-5.859
1689802306.296,-8.789,-33.203,-36.621,-30.762,-187.500
1689802306.300,-3.906,-34.180,-30.762,-39.062,-127.930
1689802306.304,-2.930,-37.109,-22.461,-14.160,-106.445
1689802306.308,30.762,-30.762,-20.996,24.414,-31.250
1689802306.312,25.879,-21.973,-18.555,20.508,-3.418
1689802306.315,-24.902,-26.367,-17.578,-21.973,69.336
1689802306.319,-56.641,-40.039,-29.785,-78.125,120.605
1689802306.323,-78.613,-47.363,-26.855,-98.145,-169.434
1689802306.327,-104.492,-45.898,-13.672,-84.961,-153.809
1689802306.331,-109.863,-44.434,-25.879,-83.008,-0.488
1689802306.335,-109.375,-41.992,-42.480,-111.328,-83.008
1689802306.339,-116.211,-48.340,-27.344,-160.156,-180.176
1689802306.343,-109.375,-47.852,-28.320,-145.508,-100.586
1689802306.347,-101.562,-40.039,-38.086,-109.375,133.789
1689802306.351,-89.844,-43.945,-27.832,-101.074,54.199
1689802306.355,-69.824,-44.434,-11.719,-104.004,-78.613
1689802306.359,-66.406,-39.062,-5.859,-105.957,57.129
1689802306.362,-65.430,-43.945,-16.602,-80.078,275.879
1689802306.366,-58.105,-48.828,-26.855,-53.711,54.688
1689802306.370,-49.316,-47.852,-30.273,-44.434,-159.180
1689802306.374,-42.969,-50.293,-18.066,-44.922,-13.672
1689802306.378,-41.504,-57.617,-10.742,-53.711,85.938
1689802306.379,-36.621,-54.199,-40.527,-51.270,-123.047
1689802306.383,-25.879,-48.828,-51.758,-20.508,-194.824
1689802306.387,-12.695,-49.316,-23.926,8.789,22.949
1689802306.391,-17.578,-48.340,-11.719,-8.301,56.152
1689802306.395,-32.227,-46.875,-18.066,-42.480,-58.105
1689802306.399,-41.504,-51.270,-23.438,-50.293,-90.332
1689802306.403,-29.297,-46.875,-15.137,-19.043,185.059
1689802306.406,-15.625,-40.527,-6.836,3.906,475.098
1689802306.410,-31.250,-49.805,-14.160,-25.879,36.621
1689802306.414,-33.691,-48.828,-28.809,-48.340,-216.797
1689802306.418,-26.367,-44.434,-28.809,-41.504,-145.020
1689802306.422,-26.855,-40.039,-21.973,-20.508,-170.898
1689802306.424,-17.090,-36.133,-22.949,-7.324,-144.043
1689802306.428,4.395,-34.180,-10.742,-1.953,-61.523
1689802306.432,-4.883,-35.156,-11.230,-16.602,-35.156
1689802306.436,-14.160,-40.527,-20.508,-32.227,-146.484
1689802306.440,-8.301,-40.039,-16.602,-17.578,-243.652
1689802306.444,-5.859,-34.668,-8.789,8.301,-48.828
1689802306.448,1.465,-34.668,-17.578,19.043,197.266
1689802306.451,3.418,-38.086,-43.457,-10.742,4.883
1689802306.455,2.441,-40.527,-46.387,-39.551,-207.031
1689802306.459,-10.254,-38.086,-28.320,-28.320,-189.453
1689802306.463,-4.395,-31.250,-23.438,3.906,228.516
1689802306.467,-4.883,-36.621,-46.875,-12.695,167.969
1689802306.483,-9.277,-38.574,-37.109,-29.785,-178.711
1689802306.487,-5.371,-39.551,-3.418,-28.320,-102.539
1689802306.491,-4.883,-41.992,-5.371,-25.879,20.508
1689802306.495,-13.672,-43.457,-17.090,-8.301,-63.477
1689802306.499,-3.906,-38.574,-21.973,7.324,-81.055
1689802306.503,5.371,-37.598,-20.020,2.930,41.504
1689802306.507,-7.324,-40.039,-16.602,-16.602,69.336
1689802306.510,-1.465,-40.527,-23.926,-22.461,-125.488
1689802306.514,1.465,-41.992,-31.738,-13.672,-173.828
1689802306.518,2.441,-39.551,-29.297,0.000,176.270
1689802306.522,-1.465,-35.645,-31.738,-14.160,228.027
1689802306.526,-16.113,-35.645,-27.832,-31.738,-143.555
1689802306.528,-5.371,-36.133,-27.344,-17.090,-184.082
1689802306.532,6.836,-35.156,-33.203,7.812,-14.160
1689802306.536,7.812,-32.227,-29.297,17.578,-56.152
1689802306.540,18.066,-22.461,-21.484,17.090,-143.555
1689802306.544,12.695,-26.855,-28.320,-4.395,-137.207
1689802306.548,-9.277,-34.180,-33.691,-26.855,-14.160
1689802306.552,-14.648,-35.645,-20.508,-6.836,82.520
1689802306.555,-10.254,-40.039,-24.414,11.230,32.715
1689802306.559,-16.602,-41.016,-38.086,-0.488,14.160
1689802306.563,-13.672,-37.109,-36.133,-4.395,265.625
1689802306.567,-20.996,-41.504,-30.762,-14.648,129.395
1689802306.571,-27.832,-44.922,-15.625,-5.859,-140.137
1689802306.573,-20.508,-42.480,-2.441,15.625,15.625
1689802306.577,-11.719,-41.016,-11.230,11.719,335.938
1689802306.581,-17.578,-42.969,-25.879,-22.949,27.832
1689802306.585,5.859,-44.434,-37.109,-11.230,-287.109
1689802306.589,36.133,-40.039,-43.457,31.738,-173.340
1689802306.593,-4.395,-35.156,-26.855,15.137,-92.285
1689802306.597,-31.250,-41.992,-8.789,-2.441,-48.340
1689802306.600,-32.715,-50.781,-12.695,-19.043,-124.023
1689802306.604,-32.715,-49.805,-6.836,-29.785,26.855
1689802306.608,-39.551,-54.199,2.930,-14.160,104.004
1689802306.612,-57.129,-62.988,-2.930,-3.906,-97.656
1689802306.616,-53.711,-66.895,-9.277,-13.184,-87.402
1689802306.618,-50.293,-69.824,-6.348,-31.738,-93.262
1689802306.622,-54.199,-62.500,-10.742,-32.715,-198.242
1689802306.626,-40.039,-55.664,-16.113,-9.277,-208.008
1689802306.630,-20.996,-61.523,-1.953,20.508,-55.176
1689802306.634,-6.836,-60.059,-3.418,20.020,67.383
1689802306.638,-12.207,-57.129,-9.766,0.977,9.766
1689802306.642,-33.691,-61.523,-18.066,-14.160,-128.906
1689802306.645,-26.367,-63.965,-20.020,-9.766,-61.035
1689802306.649,-25.879,-58.594,-6.348,15.625,275.391
1689802306.653,-38.574,-60.059,-5.371,6.836,151.367
1689802306.657,-38.574,-59.570,7.324,-15.625,-70.312
1689802306.661,-43.457,-56.152,10.254,-21.973,28.809
1689802306.664,-46.875,-55.176,-10.742,-26.855,28.320
1689802306.668,-40.527,-49.316,-32.715,-10.254,-82.031
1689802306.672,-32.227,-47.852,-26.855,6.836,-87.891
1689802306.676,-25.391,-53.223,-15.625,0.977,-91.797
1689802306.680,-35.156,-51.758,-16.113,-23.438,-157.227
1689802306.684,-34.180,-48.828,-0.488,-25.879,-84.473
1689802306.688,-25.879,-54.688,-27.344,1.953,22.949
1689802306.691,-9.277,-52.734,-38.086,12.207,285.156
1689802306.695,3.418,-42.480,-11.230,13.672,415.527
1689802306.699,-2.441,-38.574,2.441,1.953,-71.289
1689802306.703,-16.602,-45.410,-6.348,-20.020,-252.930
1689802306.707,-20.020,-48.828,-18.066,-8.789,-90.820
1689802306.710,1.465,-44.434,-16.602,3.906,-86.426
1689802306.714,5.371,-41.504,-20.020,-8.789,-79.102
1689802306.718,-12.207,-42.480,-19.043,-25.879,-116.699
1689802306.722,-18.066,-46.387,-20.020,-22.461,-125.977
1689802306.726,-8.789,-42.969,-24.902,1.465,-141.602
1689802306.730,-1.953,-41.016,-26.855,7.812,-75.195
1689802306.734,-2.441,-41.504,-25.879,-0.977,41.504
1689802306.737,-4.883,-41.016,-22.461,-9.277,274.414
1689802306.741,-24.414,-44.434,-41.016,-28.320,116.699
1689802306.745,-26.367,-39.062,-42.969,-22.949,-232.910
1689802306.749,-7.812,-33.691,-33.203,-2.441,-108.887
1689802306.753,-8.301,-47.852,-31.738,-5.859,89.844
1689802306.753,-15.625,-50.293,-23.438,-23.926,-72.266
1689802306.757,-17.090,-41.016,-13.672,-27.344,-226.074
1689802306.761,-9.766,-42.969,-14.648,-10.254,-53.711
1689802306.765,1.953,-43.457,-22.461,1.465,42.969
1689802306.769,0.977,-41.992,-33.691,-1.953,-45.410
1689802306.773,-3.418,-40.527,-29.297,-16.113,-62.988
1689802306.777,-5.859,-40.039,-27.832,-20.996,127.441
1689802306.780,-10.742,-42.480,-33.691,-7.812,319.336
1689802306.784,-17.090,-44.922,-30.762,-4.395,0.488
1689802306.788,4.395,-37.109,-24.414,-2.930,-184.082
1689802306.792,10.254,-39.062,-35.645,-11.230,-23.926
1689802306.796,-3.906,-42.969,-37.109,-30.762,-109.375
1689802306.799,-11.719,-34.180,-25.391,-18.555,-203.613
1689802306.803,-12.695,-39.062,-25.391,1.465,-80.566
1689802306.807,-7.324,-42.480,-26.855,4.395,121.582
1689802306.811,-10.742,-42.969,-30.762,-24.414,-19.043
1689802306.815,-14.160,-42.480,-24.414,-44.922,-228.027
1689802306.819,-25.879,-48.340,-16.113,-30.762,1.465
1689802306.823,-26.855,-54.688,-14.160,0.000,247.559
1689802306.826,-18.066,-50.293,-27.832,-2.930,25.879
1689802306.830,-17.090,-44.434,-25.391,-21.484,-124.023
1689802306.834,-22.949,-41.992,-20.996,-24.902,-114.746
1689802306.838,-28.320,-46.387,-23.926,-18.555,-37.109
1689802306.842,-27.344,-42.480,-14.648,1.953,-56.641
1689802306.845,-17.578,-34.180,-11.230,15.137,-136.719
1689802306.849,-9.766,-39.551,-10.742,0.000,-7.812
1689802306.853,-25.391,-47.363,-16.602,-20.996,140.137
1689802306.857,-35.156,-45.410,-20.020,-23.926,-113.770
1689802306.861,-21.973,-43.457,-28.809,-6.348,-204.590
1689802306.865,-6.836,-49.316,-48.340,-2.930,16.113
1689802306.869,-16.113,-47.852,-42.969,-25.879,98.633
1689802306.872,-38.574,-42.480,-30.273,-46.387,-79.590
1689802306.876,-38.086,-42.969,-14.160,-42.969,-184.082
1689802306.880,-23.438,-47.363,0.000,-22.949,27.344
1689802306.884,-23.926,-43.457,-18.555,-8.301,34.668
1689802306.888,-8.789,-37.109,-35.645,-4.883,-114.746
1689802306.903,21.973,-37.109,-26.855,-7.812,-125.488
1689802306.907,-1.465,-38.086,-20.508,-15.625,71.289
1689802306.911,-46.875,-36.621,-24.414,-30.762,38.086
1689802306.915,-25.879,-37.109,-25.879,-19.531,-62.988
1689802306.919,2.930,-42.969,-16.113,9.277,66.895
1689802306.923,5.859,-44.434,-12.695,11.719,269.043
1689802306.927,-4.883,-50.781,-23.438,1.465,26.855
1689802306.930,-20.020,-52.246,-23.926,2.441,-175.781
1689802306.934,-12.207,-51.270,-19.043,30.762,13.184
1689802306.938,2.930,-50.781,-17.578,43.945,205.078
1689802306.942,-6.348,-46.875,-18.555,15.625,-28.320
1689802306.946,-8.789,-46.875,-22.461,-9.766,-203.125
1689802306.948,12.207,-45.410,-25.879,5.371,-108.398
1689802306.952,6.836,-47.363,-29.297,28.809,20.020
1689802306.956,-5.371,-45.410,-22.949,19.531,-80.566
1689802306.960,-3.418,-41.016,-27.832,0.977,-188.477
1689802306.964,0.488,-39.062,-37.598,4.395,-154.297
1689802306.968,1.953,-42.480,-22.949,23.438,-98.633
1689802306.972,-3.418,-45.898,-7.324,27.832,-36.133
1689802306.975,0.488,-43.945,-20.996,23.926,-22.949
1689802306.979,0.977,-45.898,-20.020,10.742,141.602
1689802306.983,-8.301,-47.852,-11.230,-10.742,333.984
1689802306.987,-5.371,-42.480,-30.273,-14.160,18.555
1689802306.991,13.184,-39.551,-28.320,13.184,-123.047
1689802306.993,5.371,-47.852,-17.090,20.508,-36.133
1689802306.997,-6.348,-51.270,-23.926,-1.953,-150.391
1689802307.001,-5.859,-47.852,-38.086,-20.996,-220.215
1689802307.005,-6.348,-48.828,-37.109,-16.113,-153.809
1689802307.009,-10.254,-49.805,-22.949,0.488,-62.500
1689802307.013,-7.812,-50.781,-28.320,5.371,31.738
1689802307.017,3.906,-43.945,-33.691,-8.301,60.059
1689802307.020,8.301,-39.551,-26.855,-24.414,-49.805
1689802307.024,10.742,-40.527,-31.250,-10.742,310.547
1689802307.028,-0.977,-47.852,-26.855,4.395,324.707
1689802307.032,-7.812,-43.457,-9.277,11.719,-101.074
1689802307.036,-9.277,-35.156,-12.695,0.000,-31.250
1689802307.039,-23.438,-36.621,-20.508,-34.668,35.156
1689802307.043,-25.879,-34.180,-9.766,-43.457,-224.121
1689802307.047,-19.043,-33.691,-14.648,-21.973,-247.559
1689802307.051,-5.859,-32.715,-23.926,-10.742,-92.285
1689802307.055,8.301,-27.832,-22.461,-7.324,-141.602
1689802307.059,0.488,-33.203,-40.039,-18.555,-187.012
1689802307.063,-5.371,-41.992,-49.805,-27.832,-91.797
1689802307.066,3.906,-42.480,-34.668,7.812,101.074
1689802307.070,8.789,-35.156,-6.836,34.180,238.770
1689802307.074,9.277,-30.273,-11.230,13.184,-51.270
1689802307.078,2.930,-30.762,-24.902,-5.371,-117.676
1689802307.082,14.648,-30.762,-12.695,11.719,87.891
1689802307.084,10.742,-27.344,-16.602,19.531,-61.035
1689802307.088,-20.996,-32.715,-16.602,-14.160,-188.965
1689802307.092,-12.695,-36.621,-20.996,-18.555,-105.957
1689802307.096,6.836,-33.691,-27.344,-19.043,-99.609
1689802307.100,-9.766,-36.621,-34.180,-41.992,-173.340
1689802307.104,-15.625,-37.598,-48.828,-26.367,-158.203
1689802307.108,-9.766,-41.504,-27.344,3.906,0.977
1689802307.111,-4.883,-42.969,-9.766,12.207,283.691
1689802307.115,-16.602,-46.387,-18.555,-19.043,105.957
1689802307.119,-28.809,-49.316,-23.438,-41.016,-193.848
1689802307.123,-26.367,-46.875,-34.668,-24.414,-130.859
1689802307.127,-9.766,-38.574,-29.297,9.766,-14.160
1689802307.130,-1.953,-33.691,-18.555,16.113,-71.289
1689802307.134,-8.301,-33.691,-21.484,-6.836,-162.109
1689802307.138,-6.348,-34.668,-28.320,-19.531,-51.270
1689802307.142,-5.859,-36.133,-41.016,-7.812,97.168
1689802307.146,-7.324,-36.621,-26.855,25.391,-85.449
1689802307.150,1.953,-31.738,-5.371,40.527,-104.492
1689802307.154,-9.766,-30.762,-12.695,6.348,208.984
1689802307.157,-25.391,-36.133,-27.344,-23.438,251.465
1689802307.161,-36.133,-37.109,-24.414,-24.902,-155.762
1689802307.165,-31.250,-34.668,-24.414,-12.207,-168.945
1689802307.169,-8.789,-37.598,-32.715,-1.465,0.488
1689802307.173,-14.648,-44.434,-17.090,-14.160,-69.824
1689802307.174,-30.762,-38.574,-7.324,-24.414,-162.109
1689802307.178,-21.973,-36.133,-14.648,-25.391,-120.117
1689802307.182,0.000,-36.621,-20.020,-14.160,-16.113
1689802307.186,0.977,-31.738,-15.137,0.000,10.742
1689802307.190,-6.348,-32.227,-4.395,-16.113,-43.945
1689802307.194,-7.324,-37.109,-1.953,-36.621,35.645
1689802307.198,-19.531,-47.852,-14.648,-26.367,392.090
1689802307.201,-34.668,-50.293,-11.719,-15.137,239.746
1689802307.205,-27.344,-49.316,-3.906,-1.953,-128.906
1689802307.209,-19.531,-38.574,-13.184,0.977,-105.957
1689802307.213,-21.973,-27.344,-1.465,-16.113,-121.582
1689802307.217,-13.672,-25.391,21.973,-21.484,-161.133
1689802307.248,-5.859,-32.227,18.555,0.000,-185.059
1689802307.252,9.277,-33.203,21.484,19.531,-71.289
1689802307.256,8.789,-32.715,20.996,7.812,37.109
1689802307.260,-21.973,-35.645,26.367,-21.484,-131.348
1689802307.264,-25.391,-34.668,32.715,-27.832,-202.637
1689802307.268,-17.090,-40.527,20.508,-10.742,31.738
1689802307.272,-12.695,-50.781,21.973,-0.488,101.562
1689802307.275,-7.812,-49.316,37.598,-6.836,-26.855
1689802307.279,-13.672,-42.480,29.297,-29.297,-104.492
1689802307.283,-2.441,-41.992,15.137,-27.832,108.887
1689802307.287,-3.418,-44.434,9.277,-18.066,239.258
1689802307.291,-3.906,-40.039,0.488,-8.301,-91.797
1689802307.269,-5.371,-35.156,3.906,3.418,-169.922
1689802307.273,-9.277,-35.645,17.090,-9.766,-105.957
1689802307.277,-14.648,-36.133,22.949,-19.043,-184.082
1689802307.281,-15.625,-36.621,7.324,-18.555,-209.961
1689802307.285,-7.324,-36.621,-6.348,0.000,-50.781
1689802307.289,-0.488,-33.203,5.371,21.484,208.984
1689802307.293,-14.160,-34.180,-3.906,-9.277,68.359
1689802307.296,-30.762,-42.969,-9.766,-38.086,-187.012
1689802307.300,-32.227,-43.945,-0.488,-23.926,-131.348
1689802307.304,-18.555,-41.016,-0.977,2.930,44.434
1689802307.308,-0.488,-40.039,4.883,5.859,-6.836
1689802307.312,-4.883,-36.133,-2.441,-18.555,-20.020
1689802307.324,-8.789,-34.668,-13.672,-33.691,67.383
1689802307.328,-17.578,-37.109,-8.301,-20.508,110.840
1689802307.332,-34.180,-32.715,0.000,-22.949,-14.160
1689802307.336,-34.180,-32.227,7.324,-26.855,-100.098
1689802307.340,-21.973,-36.621,-1.465,-14.160,-11.719
1689802307.344,-18.555,-40.527,-21.973,-18.066,394.531
1689802307.348,-33.691,-40.039,-20.508,-37.598,479.980
1689802307.351,-35.645,-41.504,-9.277,-23.438,41.016
1689802307.355,-14.160,-36.133,-15.137,1.953,-62.988
1689802307.359,-8.789,-26.855,-18.066,-9.766,-68.359
1689802307.363,-11.230,-39.551,-19.043,-26.855,-213.379
1689802307.367,-27.344,-45.410,-13.672,-24.414,-112.305
1689802307.369,-32.715,-42.480,-10.742,-6.348,44.434
1689802307.373,-22.949,-42.480,-12.207,6.348,-64.453
1689802307.377,-16.113,-37.109,-13.184,-3.906,-175.781
1689802307.381,-13.672,-39.062,-25.879,-26.367,-168.457
1689802307.385,-23.438,-42.480,-20.996,-25.391,-125.977
1689802307.389,-27.344,-45.898,-14.648,-1.953,-43.945
1689802307.393,-27.832,-54.688,-39.062,8.789,-23.438
1689802307.396,-20.508,-54.199,-29.297,-1.465,-60.059
1689802307.400,-13.672,-46.387,-14.648,-25.391,172.363
1689802307.404,-39.062,-42.969,-10.254,-42.969,6.836
1689802307.408,-39.062,-36.621,-1.465,-22.949,-227.051
1689802307.412,-4.395,-32.227,0.977,14.160,3.418
1689802307.415,18.066,-33.203,-17.578,16.602,108.398
1689802307.419,12.207,-32.715,-43.945,-7.812,-64.453
1689802307.423,-8.789,-32.715,-35.156,-25.391,-166.992
1689802307.427,-7.324,-36.621,-19.043,-10.254,-65.430
1689802307.431,4.395,-31.250,-14.160,18.555,3.418
1689802307.435,-1.953,-22.949,-14.160,8.301,-38.086
1689802307.439,-4.883,-22.461,-24.902,-19.531,-73.242
1689802307.442,-9.277,-31.250,-41.016,-29.785,48.340
1689802307.446,-24.414,-39.551,-32.227,-35.156,145.508
1689802307.450,-37.109,-43.457,-26.367,-40.527,-82.031
1689802307.454,-41.016,-43.945,-26.367,-50.293,-119.141
1689802307.458,-49.805,-41.504,-11.719,-66.406,-48.340
1689802307.458,-62.500,-41.504,-14.160,-84.961,-153.809
1689802307.462,-68.848,-37.109,-23.926,-85.449,-202.148
1689802307.466,-69.336,-26.367,-24.902,-68.359,-112.305
1689802307.470,-80.566,-22.461,-20.996,-68.848,0.977
1689802307.474,-87.402,-23.438,-26.367,-94.727,24.414
1689802307.478,-84.961,-11.230,-35.156,-111.328,-131.836
1689802307.482,-82.031,-7.812,-29.297,-104.004,-113.281
1689802307.485,-76.172,-22.461,-34.668,-86.426,206.543
1689802307.489,-68.848,-20.508,-45.898,-83.008,163.574
1689802307.493,-80.566,-6.348,-26.855,-107.910,-152.832
1689802307.497,-90.820,-12.207,-14.160,-133.301,-177.734
1689802307.501,-84.961,-29.297,-14.648,-114.258,-81.055
1689802307.503,-76.660,-32.715,-29.297,-81.543,-135.254
1689802307.507,-54.688,-28.320,-31.738,-71.289,-193.359
1689802307.511,-52.734,-28.809,-24.414,-80.078,-57.617
1689802307.515,-62.988,-30.273,-29.297,-90.332,19.531
1689802307.519,-43.945,-33.203,-38.574,-70.801,-80.566
1689802307.523,-36.621,-40.527,-41.016,-46.875,-74.219
1689802307.527,-40.039,-43.945,-16.113,-34.668,175.781
1689802307.530,-24.902,-48.828,-0.488,-29.297,309.082
1689802307.534,-20.020,-47.852,-8.789,-34.180,-64.941
1689802307.538,-31.738,-49.316,-5.859,-38.086,-212.402
1689802307.542,-18.066,-51.270,-10.254,-10.742,-7.812
1689802307.546,10.254,-44.922,-25.879,14.648,-23.438
1689802307.549,20.020,-46.387,-39.062,5.859,-158.203
1689802307.553,16.113,-47.852,-34.668,2.441,-178.223
1689802307.557,16.602,-48.828,-21.484,7.812,-138.672
1689802307.561,24.902,-54.199,-19.531,17.578,-69.824
1689802307.565,27.344,-52.246,-12.207,34.668,-44.434
1689802307.569,39.062,-45.898,-0.488,37.598,112.793
1689802307.573,34.180,-49.316,-13.672,14.648,375.488
1689802307.576,16.113,-52.246,-28.809,-1.465,66.406
1689802307.580,15.137,-47.852,-26.855,23.926,-146.973
1689802307.584,21.973,-43.945,-30.273,40.039,32.715
1689802307.588,35.645,-35.645,-23.926,26.855,119.141
1689802307.592,25.391,-33.203,-21.973,-4.395,5.371
1689802307.594,1.953,-33.691,-20.508,-21.484,-170.898
1689802307.598,10.742,-30.762,-13.184,1.953,-125.977
1689802307.602,24.414,-27.832,-12.207,26.855,50.781
1689802307.606,38.086,-34.180,-23.926,25.879,-93.262
1689802307.610,49.805,-40.527,-22.461,15.625,-192.871
1689802307.614,24.414,-42.480,-12.695,5.371,11.719
1689802307.618,14.160,-42.480,-22.949,12.207,43.945
1689802307.621,35.156,-34.668,-30.273,42.969,-80.566
1689802307.625,36.133,-36.133,-39.551,39.551,-96.680
1689802307.629,27.344,-37.598,-32.227,23.438,74.219
1689802307.633,12.207,-49.316,-24.902,6.348,71.777
1689802307.637,-0.488,-53.223,-40.527,-8.301,-125.000
1689802307.654,6.836,-41.504,-32.715,16.113,-25.879
1689802307.658,14.160,-44.434,-16.113,27.344,135.742
1689802307.662,8.301,-48.340,-27.832,-6.348,-8.789
1689802307.666,-10.742,-42.969,-34.180,-29.297,-158.203
1689802307.670,-6.836,-40.039,-29.785,-12.207,-89.355
1689802307.674,8.301,-43.945,-40.039,13.672,110.840
1689802307.678,-3.906,-40.527,-29.785,30.762,79.590
1689802307.681,-3.418,-36.133,-12.207,22.949,-139.648
1689802307.685,10.254,-42.480,-27.344,2.441,-140.137
1689802307.689,1.953,-41.016,-48.340,9.766,84.961
1689802307.693,-4.883,-40.039,-48.828,32.715,-37.109
1689802307.697,5.859,-42.969,-28.320,52.734,-49.805
1689802307.700,6.348,-39.551,-12.695,29.297,11.230
1689802307.704,1.465,-29.297,-11.230,-10.742,9.766
1689802307.708,-8.789,-30.762,-20.020,-19.043,-85.449
1689802307.712,-8.789,-39.062,-29.785,-3.906,-239.746
1689802307.716,-5.859,-42.969,-31.250,10.742,-96.680
1689802307.720,-4.395,-47.363,-31.738,5.371,59.082
1689802307.724,-12.695,-43.945,-32.227,-11.230,-68.848
1689802307.727,-27.344,-40.039,-33.691,-33.203,-162.598
1689802307.731,-20.020,-46.875,-39.551,-11.230,72.266
1689802307.735,-14.160,-50.293,-39.551,12.207,213.867
1689802307.739,-26.855,-49.805,-34.668,-10.254,-42.480
1689802307.743,-22.949,-45.898,-36.621,-12.695,-121.094
1689802307.743,-17.578,-41.992,-24.902,-1.465,-118.164
1689802307.747,-6.348,-38.574,-11.719,9.277,-158.691
1689802307.751,1.953,-39.062,-12.695,21.484,-155.762
1689802307.755,-0.488,-42.480,-17.090,11.719,-126.953
1689802307.759,-0.488,-41.504,-25.879,-3.906,-30.273
1689802307.763,-8.789,-44.434,-21.484,-11.719,-13.672
1689802307.767,-14.160,-44.434,-18.555,-3.906,-31.250
1689802307.770,-1.465,-37.109,-16.602,20.508,-16.113
1689802307.774,-1.465,-41.992,-10.254,22.461,249.512
1689802307.778,-17.090,-44.434,-17.578,-8.789,142.578
1689802307.782,-17.090,-41.504,-33.691,-19.043,-245.117
1689802307.786,0.488,-44.434,-32.227,-0.977,-74.219
1689802307.789,3.906,-44.922,-26.855,9.766,103.516
1689802307.793,-2.441,-41.992,-43.457,11.230,-106.445
1689802307.797,-3.418,-32.227,-40.039,-1.953,-196.289
1689802307.801,-13.184,-35.156,-23.438,-20.020,-142.090
1689802307.805,-16.113,-42.969,-28.320,-22.949,-99.121
1689802307.809,-13.672,-43.945,-40.527,-2.441,-42.969
1689802307.813,-3.906,-38.086,-21.484,7.812,6.836
1689802307.816,0.000,-35.156,-7.812,-4.883,210.938
1689802307.820,-7.812,-45.898,-27.344,-28.809,415.039
1689802307.824,-21.484,-44.922,-33.691,-40.039,-0.488
1689802307.828,-22.461,-44.434,-27.344,-11.719,-141.113
1689802307.832,-13.672,-46.387,-24.902,15.625,10.742
1689802307.833,-11.230,-40.039,-25.391,4.883,-66.895
1689802307.837,-5.859,-32.227,-15.625,-20.508,-166.016
1689802307.841,2.930,-32.227,-18.555,-19.043,-141.602
1689802307.845,-7.812,-32.715,-32.227,2.441,-40.039
1689802307.849,-14.160,-29.297,-32.715,4.395,-38.086
1689802307.853,-4.883,-36.621,-16.602,-5.859,-21.973
1689802307.857,-5.371,-43.457,-3.418,-12.207,50.293
1689802307.860,-6.348,-38.086,-24.414,-15.625,217.773
1689802307.864,-3.906,-29.785,-49.316,0.000,78.613
1689802307.868,-6.836,-40.039,-23.926,8.789,-97.656
1689802307.872,-11.719,-40.527,-0.488,-3.418,12.695
1689802307.876,-14.648,-32.227,-15.625,-22.949,148.926
1689802307.878,-5.371,-27.832,-15.137,-32.227,-111.328
1689802307.882,2.930,-28.320,-8.789,-5.859,-247.559
1689802307.886,-0.488,-31.250,-22.949,9.766,-44.922
1689802307.890,-0.488,-29.785,-20.996,1.465,16.602
1689802307.894,1.465,-35.645,-14.648,-19.531,-146.973
1689802307.898,-10.254,-37.598,-20.508,-27.344,-203.125
1689802307.902,-8.301,-39.062,-16.602,-15.625,44.922
1689802307.905,-6.348,-49.805,-4.883,-0.977,267.578
1689802307.909,-20.020,-45.410,-20.020,-6.836,-53.711
1689802307.913,-23.438,-34.668,-29.785,-21.973,-192.383
1689802307.917,-20.508,-44.922,-26.367,-29.297,-88.867
1689802307.921,-16.113,-48.828,-39.551,-16.602,-63.477
1689802307.925,-9.277,-41.016,-34.668,7.812,-86.426
1689802307.929,11.719,-34.668,-13.184,11.230,-91.797
1689802307.933,12.207,-33.691,-3.418,0.000,71.289
1689802307.937,-4.883,-39.551,-17.090,-17.578,-70.312
1689802307.941,-14.648,-46.387,-46.875,-13.672,-226.562
1689802307.945,-18.555,-48.828,-41.016,17.578,-11.230
1689802307.949,-10.742,-47.363,-19.531,26.855,278.320
1689802307.952,-12.695,-43.457,-25.391,-2.930,31.250
1689802307.956,-12.695,-41.992,-13.672,-21.484,-222.656
1689802307.960,-10.254,-38.086,-9.277,-7.812,-148.926
1689802307.964,-13.672,-41.992,-35.156,13.672,-41.992
1689802307.968,-5.859,-46.387,-33.203,15.137,-0.488
1689802307.984,-7.812,-40.527,-32.227,-15.625,-82.031
1689802307.988,-17.578,-34.180,-28.809,-26.855,-84.473
1689802307.992,-11.719,-39.551,-25.391,-13.672,78.613
1689802307.996,-2.441,-40.039,-26.855,13.184,12.695
1689802308.000,12.207,-43.945,-33.203,40.039,-103.516
1689802308.004,21.973,-48.340,-29.297,29.297,139.160
1689802308.008,-10.254,-42.969,-24.414,-14.648,348.145
1689802308.011,-36.133,-41.504,-32.227,-33.691,-27.832
1689802308.015,-10.742,-45.898,-29.297,3.906,-154.297
1689802308.019,0.000,-47.363,-23.926,27.344,52.246
1689802308.023,-11.230,-56.152,-18.555,2.930,-37.598
1689802308.027,-13.672,-62.500,-10.742,-12.695,-196.777
1689802308.028,-11.719,-59.082,-17.090,-3.418,-201.660
1689802308.032,-8.301,-58.594,-16.602,26.855,-118.652
1689802308.036,-20.508,-58.594,-5.371,30.273,-43.945
1689802308.040,-7.324,-61.035,0.000,24.902,-98.633
1689802308.044,-5.371,-60.547,-4.395,16.113,-106.934
1689802308.048,-16.113,-52.734,-18.555,10.254,-16.113
1689802308.052,-3.418,-50.781,-15.137,28.809,-11.230
1689802308.055,-6.836,-71.289,-2.441,38.086,15.625
1689802308.059,10.742,-75.684,3.906,55.664,-18.555
1689802308.063,20.508,-49.805,-0.977,33.203,160.645
1689802308.067,-22.461,-40.039,-20.020,-29.785,67.871
1689802308.071,-28.809,-40.039,-32.227,-24.902,-86.914
1689802308.074,-17.578,-36.621,-30.273,-8.789,-26.367
1689802308.078,-19.531,-33.203,-39.062,-19.531,-35.645
1689802308.082,-23.926,-20.996,-46.387,-40.527,-115.723
1689802308.086,-35.645,-17.578,-42.480,-66.895,-213.867
1689802308.090,-33.203,-16.113,-42.480,-59.570,-71.777
1689802308.094,-26.855,-6.348,-42.969,-42.480,177.734
1689802308.098,-28.809,4.395,-38.086,-55.664,71.777
1689802308.101,-39.551,9.766,-42.480,-83.984,-61.523
1689802308.105,-41.992,2.441,-47.852,-87.891,83.008
1689802308.109,-39.551,5.859,-47.363,-70.801,294.434
1689802308.113,-49.805,13.672,-54.199,-73.730,27.832
1689802308.117,-33.203,14.160,-55.664,-66.406,-144.531
1689802308.118,-10.254,15.137,-53.223,-70.312,-133.789
1689802308.122,-6.348,12.695,-53.223,-87.891,-234.375
1689802308.126,-8.789,19.043,-59.082,-65.918,-241.699
1689802308.130,6.348,13.184,-62.988,-20.508,-114.746
1689802308.134,24.414,9.277,-57.617,-5.371,-8.301
1689802308.138,16.602,7.812,-58.105,-30.273,-15.137
1689802308.142,24.902,1.953,-72.266,-38.086,-58.105
1689802308.145,41.992,0.977,-72.266,-2.441,-96.191
1689802308.149,61.035,4.395,-58.105,41.504,183.594
1689802308.153,72.266,11.230,-52.734,39.551,156.250
1689802308.157,90.332,1.953,-50.781,37.109,-121.582
1689802308.161,109.863,3.906,-57.617,46.875,-44.434
1689802308.163,112.793,4.883,-51.758,62.500,218.262
1689802308.167,119.629,3.906,-47.363,94.727,19.531
1689802308.171,139.160,6.348,-48.828,115.723,-123.535
1689802308.175,134.766,4.883,-46.875,105.469,-1.953
1689802308.179,131.836,3.906,-44.434,87.402,-76.660
1689802308.183,120.117,1.953,-42.480,95.703,-143.066
1689802308.187,100.098,-3.906,-41.016,102.539,-101.562
1689802308.190,104.004,-8.789,-41.992,106.445,80.566
1689802308.194,107.910,-11.230,-48.828,97.168,147.461
1689802308.198,85.449,-9.277,-47.852,63.965,-131.348
1689802308.202,72.754,-11.719,-42.969,64.941,-200.195
1689802308.206,80.078,-27.832,-41.992,93.750,45.898
1689802308.208,80.566,-30.762,-41.992,97.656,129.883
1689802308.212,76.172,-24.414,-44.434,73.242,-83.008
1689802308.216,64.941,-25.391,-39.062,48.340,-140.625
1689802308.220,55.176,-21.973,-30.273,39.551,27.832
1689802308.224,55.176,-20.508,-25.391,49.805,-38.574
1689802308.228,51.270,-27.344,-17.578,63.965,-125.488
1689802308.232,42.969,-28.320,-17.578,58.594,55.176
1689802308.235,39.551,-37.598,-36.133,45.410,349.121
1689802308.239,32.227,-35.156,-44.922,29.297,72.754
1689802308.243,27.344,-25.879,-35.645,30.762,-196.289
1689802308.247,32.715,-32.715,-36.621,39.551,-87.891
1689802308.251,33.691,-34.668,-53.223,29.297,-31.738
1689802308.253,23.926,-34.180,-55.664,5.371,-154.785
1689802308.257,16.602,-33.203,-41.016,-3.418,-251.953
1689802308.261,28.320,-32.227,-31.250,15.137,-44.434
1689802308.265,35.156,-31.738,-20.996,25.391,134.766
1689802308.269,20.020,-32.715,-22.461,19.531,-73.242
1689802308.273,1.953,-38.086,-26.367,7.812,-96.680
1689802308.277,4.395,-36.621,-26.367,1.465,150.879
1689802308.280,0.488,-34.180,-33.691,10.254,236.816
1689802308.284,-11.230,-41.504,-39.551,29.297,-66.406
1689802308.288,-9.766,-51.270,-33.203,32.227,-103.516
1689802308.292,-12.695,-48.340,-34.180,6.836,-4.883
1689802308.296,-11.719,-39.062,-54.688,-10.742,-110.840
1689802308.299,-12.695,-38.086,-55.664,6.348,-208.984
1689802308.303,-4.883,-37.598,-25.391,34.180,-142.090
1689802308.307,9.766,-38.086,-5.859,20.020,-50.293
1689802308.311,3.906,-46.875,-9.766,-10.742,-75.195
1689802308.315,-13.672,-46.875,-11.719,-25.391,-158.203
1689802308.319,-9.277,-53.223,-15.625,-12.207,-65.918
1689802308.323,6.836,-56.152,-21.484,25.391,249.023
1689802308.326,1.953,-41.504,-30.273,30.762,186.035
1689802308.330,-12.207,-33.203,-27.832,5.859,-56.152
1689802308.334,-17.090,-28.809,-23.926,-6.836,-104.004
1689802308.338,-16.113,-38.086,-26.367,-2.441,236.816
1689802308.342,-16.602,-45.410,-29.297,4.395,237.793
1689802308.344,0.977,-30.273,-31.250,13.672,-68.359
1689802308.348,4.395,-24.414,-27.344,3.906,-53.223
1689802308.352,-15.137,-29.785,-25.879,-27.344,-10.254
1689802308.356,-31.738,-34.180,-38.086,-45.898,-191.406
1689802308.360,-26.855,-42.480,-36.133,-15.137,-167.969
1689802308.364,-0.977,-43.457,-26.367,17.578,72.266
1689802308.368,4.395,-39.551,-22.949,5.859,41.016
1689802308.371,3.418,-41.992,-23.926,1.953,-103.027
1689802308.375,2.441,-44.434,-29.785,1.953,-191.406
1689802308.379,-12.207,-39.551,-14.648,-3.906,49.805
1689802308.383,-21.484,-36.133,-11.230,-2.930,311.035
1689802308.387,-38.574,-30.762,-24.414,-31.738,-38.574
1689802308.403,-32.227,-26.367,-24.414,-49.805,-207.031
1689802308.407,-22.949,-32.715,-18.066,-34.668,-153.809
1689802308.411,-13.184,-34.180,-22.949,-7.812,-154.785
1689802308.415,-2.930,-36.621,-24.902,14.160,-139.648
1689802308.419,6.836,-32.227,-8.789,16.113,-100.586
1689802308.423,-1.953,-29.297,-7.324,-6.348,20.996
1689802308.427,-14.648,-35.156,-17.090,-27.832,48.340
1689802308.430,-19.043,-42.969,-29.785,-16.602,-99.609
1689802308.434,-11.230,-43.457,-29.785,12.695,-75.684
1689802308.438,-10.742,-43.457,-16.113,16.113,229.492
1689802308.442,-19.531,-49.805,-15.137,-14.160,97.656
1689802308.446,-14.160,-56.641,-25.391,-35.156,-180.664
1689802308.448,-14.160,-55.664,-25.879,-20.996,-105.957
1689802308.452,-22.949,-39.551,-24.414,2.441,228.027
1689802308.456,-20.996,-32.227,-30.762,-4.883,-27.832
1689802308.460,-12.207,-41.016,-38.086,-24.902,-309.082
1689802308.464,-13.672,-40.039,-36.133,-30.273,-270.508
1689802308.468,-11.230,-38.574,-19.531,-7.812,-201.172
1689802308.472,-2.441,-46.387,-22.949,11.230,-82.031
1689802308.475,-6.836,-48.828,-35.645,2.930,-134.277
1689802308.479,-8.789,-45.410,-17.578,-13.184,6.836
1689802308.483,-8.789,-38.086,-11.230,-23.926,209.473
1689802308.487,-2.441,-36.621,-22.949,-13.672,-78.613
1689802308.491,2.930,-46.875,-36.133,7.324,-121.094
1689802308.493,0.977,-51.270,-36.621,6.348,81.055
1689802308.497,13.184,-36.621,-25.879,-12.695,36.133
1689802308.501,-3.906,-46.387,-26.367,-27.344,-117.188
1689802308.505,-18.066,-51.758,-22.949,-18.555,-98.633
1689802308.509,0.977,-40.039,-26.855,2.441,98.145
1689802308.513,0.977,-37.109,-39.062,6.836,53.711
1689802308.517,-10.742,-37.598,-34.668,-2.441,-86.426
1689802308.520,-8.789,-37.598,-25.391,-21.484,-64.453
1689802308.524,0.000,-35.645,-16.113,-15.137,224.121
1689802308.528,-9.766,-36.133,-17.578,0.488,100.098
1689802308.532,-12.207,-36.621,-19.531,6.348,-128.906
1689802308.536,-4.395,-38.086,-20.996,-1.465,49.805
1689802308.539,-10.254,-38.086,-34.180,-34.668,106.934
1689802308.543,-18.555,-39.062,-34.180,-35.156,-150.879
1689802308.547,-22.949,-40.527,-25.879,-8.789,-202.637
1689802308.551,-19.531,-43.945,-24.414,7.812,7.324
1689802308.555,-15.625,-45.898,-30.762,6.348,41.992
1689802308.559,-20.996,-46.875,-32.227,-18.555,1.465
1689802308.563,-24.414,-43.945,-33.203,-32.227,-59.570
1689802308.566,-15.137,-41.504,-27.832,-8.301,68.848
1689802308.570,-9.277,-35.645,-20.996,7.324,200.684
1689802308.574,0.488,-32.715,-26.855,-11.230,-122.559
1689802308.578,5.371,-33.691,-31.250,-24.414,-228.516
1689802308.582,-17.578,-41.504,-32.715,-31.738,-110.840
1689802308.583,-17.090,-35.156,-22.461,-16.602,-86.914
1689802308.587,13.184,-31.250,-14.160,17.578,-99.121
1689802308.591,11.230,-46.875,-21.973,19.531,-65.430
1689802308.595,-15.137,-41.992,-25.391,-18.066,-39.551
1689802308.599,-29.785,-37.598,-22.461,-27.832,-126.465
1689802308.603,-24.414,-42.969,-34.180,-10.742,-82.031
1689802308.607,-18.066,-43.457,-28.320,2.441,136.719
1689802308.610,-11.230,-46.875,-9.277,11.230,489.746
1689802308.614,-15.137,-43.457,-21.484,-15.625,319.336
1689802308.618,-20.020,-41.016,-27.344,-37.109,-128.418
1689802308.622,-11.230,-37.109,-25.391,-25.879,-151.367
1689802308.626,-0.977,-32.227,-28.809,-0.488,-45.410
1689802308.628,-7.324,-38.086,-23.926,9.277,-72.754
1689802308.632,-7.324,-38.574,-26.855,-12.695,-123.047
1689802308.636,0.488,-32.227,-23.438,-28.809,-96.680
1689802308.640,-18.555,-36.133,-29.297,-21.973,-62.500
1689802308.644,-21.973,-42.480,-43.457,1.953,-67.383
1689802308.648,-15.137,-46.387,-26.367,14.160,-12.207
1689802308.652,-13.672,-61.523,-4.883,-6.836,129.883
1689802308.655,-19.531,-51.758,-0.977,-26.367,203.613
1689802308.659,-29.297,-30.273,-15.625,-23.438,-68.848
1689802308.663,-14.160,-20.996,-26.855,0.000,-202.148
1689802308.667,1.465,-22.949,-32.227,13.184,24.902
1689802308.671,-23.438,-35.645,-31.738,-1.953,106.934
1689802308.674,-22.949,-41.016,-27.832,-37.598,-135.254
1689802308.678,-16.113,-41.016,-20.508,-35.645,-169.434
1689802308.682,-29.785,-38.574,-20.020,-5.859,-52.246
1689802308.686,-11.719,-41.016,-32.227,0.000,-66.406
1689802308.690,-5.371,-39.062,-30.273,-10.254,-157.715
1689802308.694,-9.277,-34.668,-21.973,-27.832,-55.176
1689802308.698,-2.930,-44.922,-15.625,-23.926,281.738
1689802308.701,-12.695,-50.781,-17.578,-7.812,80.078
1689802308.705,-6.836,-43.457,-23.926,-4.883,-143.066
1689802308.709,5.859,-39.551,-31.738,-13.672,-83.496
1689802308.713,2.441,-41.504,-27.832,-30.762,-34.180
1689802308.717,-3.906,-47.363,-29.785,-31.250,-67.383
1689802308.719,-2.441,-42.969,-30.762,-9.277,-194.824
1689802308.723,-2.441,-36.133,-26.367,13.672,-85.449
1689802308.727,4.883,-34.180,-28.320,17.090,256.836
1689802308.731,-2.930,-28.320,-38.574,-16.602,30.762
1689802308.735,-25.391,-31.250,-37.598,-34.668,-214.355
1689802308.739,-21.973,-34.180,-27.832,-18.555,-26.367
1689802308.743,-19.043,-32.715,-27.832,-8.301,96.680
1689802308.746,-11.230,-31.738,-30.273,-13.672,-2.930
1689802308.750,-6.836,-35.645,-40.039,-23.926,-138.672
1689802308.754,-10.742,-28.320,-46.875,-23.438,-16.113
1689802308.758,-11.719,-33.691,-35.156,-4.395,41.016
1689802308.762,0.000,-51.270,-29.785,8.301,-124.023
1689802308.778,4.395,-33.691,-31.250,-0.488,-68.848
1689802308.782,-5.371,-18.555,-22.461,-17.578,31.250
1689802308.786,-11.230,-31.738,-16.113,-34.180,-145.996
1689802308.790,-18.066,-33.691,-28.320,-30.762,-230.469
1689802308.794,-7.324,-26.855,-32.227,-4.883,-66.406
1689802308.798,-3.906,-32.227,-21.973,-0.488,184.082
1689802308.802,-13.184,-36.133,-24.902,-28.809,80.566
1689802308.805,-18.555,-40.527,-31.250,-39.062,-191.406
1689802308.809,-31.250,-46.875,-31.738,-25.391,-153.809
1689802308.813,-31.738,-52.734,-31.250,-9.277,176.270
1689802308.817,-22.949,-51.270,-36.133,-11.719,39.062
1689802308.821,-14.160,-48.828,-46.387,-21.484,-145.508
1689802308.824,-8.301,-48.828,-48.828,-21.973,-88.379
1689802308.828,-1.953,-39.551,-33.691,-22.461,5.859
1689802308.832,13.672,-32.715,-30.762,16.602,-67.871
1689802308.836,21.973,-38.086,-24.902,45.898,-97.168
1689802308.840,-6.348,-47.852,-9.766,6.836,-13.672
1689802308.844,-44.434,-53.711,-21.484,-42.969,56.641
1689802308.848,-53.711,-51.270,-26.367,-49.316,-14.648
1689802308.851,-40.527,-48.828,-19.043,-14.160,-132.324
1689802308.855,-35.645,-52.734,-27.832,-4.883,101.562
1689802308.859,-43.457,-50.781,-28.809,-30.273,222.656
1689802308.863,-43.945,-43.945,-29.297,-55.176,-138.184
1689802308.867,-41.504,-50.293,-33.691,-44.434,-173.828
1689802308.869,-31.738,-53.223,-26.367,-19.531,-25.879
1689802308.873,-11.719,-45.410,-10.254,-15.137,-81.055
1689802308.877,-4.395,-41.992,-16.113,-11.719,-134.277
1689802308.881,-12.207,-37.109,-27.832,-20.996,-99.121
1689802308.885,-15.625,-39.062,-29.785,-26.855,-74.219
1689802308.889,-21.973,-39.062,-20.020,-8.789,-5.371
1689802308.893,-27.344,-35.645,-10.254,-1.465,44.434
1689802308.896,-12.207,-45.410,-10.742,-3.906,44.434
1689802308.900,-10.742,-55.664,-14.160,-11.230,254.395
1689802308.904,-23.926,-41.016,-12.695,-25.879,114.258
1689802308.908,-26.367,-35.156,-7.812,-20.508,-191.895
1689802308.912,-20.508,-42.969,-20.508,8.301,-52.734
1689802308.914,-15.137,-33.203,-17.578,12.207,23.926
1689802308.918,-14.160,-37.109,-11.719,-10.742,-167.969
1689802308.922,-9.766,-46.387,-19.043,-22.949,-259.277
1689802308.926,-3.906,-45.410,-10.742,-3.418,-139.160
1689802308.930,1.465,-40.527,-16.602,7.812,50.781
1689802308.934,8.301,-32.715,-28.809,3.418,38.574
1689802308.938,-6.348,-39.062,-27.344,-10.254,-62.988
1689802308.941,-15.625,-48.828,-26.367,-25.879,-1.953
1689802308.945,-9.277,-45.410,-25.879,-15.137,39.551
1689802308.949,-7.812,-35.645,-32.715,9.277,-39.551
1689802308.953,-4.395,-33.691,-46.387,16.113,-73.730
1689802308.957,-1.953,-39.551,-38.086,2.930,137.207
1689802308.961,-16.113,-45.898,-26.367,-17.578,133.301
1689802308.965,-24.414,-43.945,-18.066,-14.648,-114.746
1689802308.969,-13.672,-42.480,-11.230,9.766,-38.574
1689802308.973,-5.859,-41.504,-4.395,5.371,0.000
1689802308.977,-16.113,-44.434,-14.160,-19.043,-36.621
1689802308.981,-30.273,-51.270,-27.344,-35.645,-57.617
1689802308.985,-26.367,-53.223,-24.414,-25.391,-5.371
1689802308.988,-6.836,-60.059,-22.461,-0.977,280.273
1689802308.992,-4.395,-43.945,-33.203,-10.254,83.496
1689802308.996,-16.602,-36.621,-40.039,-26.855,-219.727
1689802309.000,-28.320,-46.387,-39.062,-40.527,-173.340
1689802309.004,-32.715,-49.316,-44.922,-41.504,-27.344
1689802309.003,-22.461,-45.410,-38.574,-21.484,35.645
1689802309.007,-23.438,-44.434,-35.156,-9.766,-49.316
1689802309.011,-24.414,-42.969,-40.039,-9.277,-68.848
1689802309.015,-26.855,-43.945,-29.297,-28.809,-65.430
1689802309.019,-20.508,-49.316,-16.602,-27.344,-169.434
1689802309.023,-13.184,-51.758,-17.578,1.953,-156.738
1689802309.027,9.766,-56.152,-16.113,20.020,122.070
1689802309.030,19.043,-55.176,-22.949,15.625,403.320
1689802309.034,-13.672,-44.922,-31.738,-17.578,30.762
1689802309.038,-25.391,-42.969,-26.855,-35.156,-259.277
1689802309.042,-28.809,-41.504,-22.461,-14.648,-41.016
1689802309.046,-20.020,-38.086,-23.438,3.906,-34.180
1689802309.050,-12.207,-33.203,-28.809,-9.766,-159.668
1689802309.054,-15.625,-31.250,-31.250,-30.273,-123.535
1689802309.058,-20.996,-32.715,-41.016,-41.016,51.270
1689802309.062,-26.855,-39.551,-40.527,-33.691,-24.902
1689802309.066,-15.625,-35.645,-19.531,-7.324,-154.785
1689802309.070,-3.906,-24.902,-11.719,1.465,-3.418
1689802309.074,-14.160,-32.715,-18.066,-19.531,281.250
1689802309.077,-21.484,-40.527,-26.855,-34.668,32.227
1689802309.081,-16.602,-32.227,-27.832,-15.625,-196.777
1689802309.085,-10.742,-29.297,-29.785,15.137,-95.215
1689802309.089,-12.695,-38.574,-33.203,8.301,-6.836
1689802309.093,-17.578,-47.363,-27.832,-19.531,42.480
1689802309.094,-30.762,-51.270,-28.809,-33.691,-102.539
1689802309.098,-27.344,-41.992,-23.926,-15.137,-74.707
1689802309.102,-5.859,-34.180,-17.578,10.254,131.348
1689802309.106,-12.695,-30.273,-16.113,1.465,51.270
1689802309.110,-16.113,-27.832,-20.508,-18.555,-29.297
1689802309.114,-3.418,-24.902,-27.832,-20.996,86.914
1689802309.118,-17.578,-31.738,-21.484,-0.488,358.887
1689802309.121,-27.344,-42.480,-27.344,6.348,20.020
1689802309.125,-9.277,-32.715,-33.691,2.930,-229.004
1689802309.129,5.371,-31.250,-25.391,-8.789,-114.258
1689802309.133,-0.488,-38.574,-23.438,-26.855,-198.242
1689802309.137,-4.883,-35.156,-36.621,-20.508,-235.352
1689802309.154,5.859,-36.133,-30.273,12.207,-125.977
1689802309.158,2.930,-40.039,-26.367,20.508,-38.086
1689802309.162,-2.930,-41.992,-35.156,-2.441,-69.824
1689802309.166,-6.836,-42.480,-20.996,-26.855,-156.250
1689802309.170,-10.742,-38.574,-15.137,-17.090,-115.234
1689802309.174,1.953,-34.668,-16.602,19.043,62.988
1689802309.178,12.695,-22.949,-12.207,34.180,32.227
1689802309.181,13.184,-22.461,-9.766,19.531,-61.523
1689802309.185,12.695,-46.875,-18.555,1.465,-125.977
1689802309.189,-1.953,-50.293,-27.344,5.371,155.273
1689802309.193,-6.836,-50.781,-26.855,7.812,108.887
1689802309.197,-0.977,-49.316,-24.902,10.254,-110.840
1689802309.198,-5.859,-31.250,-20.020,6.836,2.441
1689802309.202,-26.367,-41.016,-25.879,-20.508,37.598
1689802309.206,-37.598,-44.434,-28.320,-40.039,-149.902
1689802309.210,-23.926,-41.016,-32.227,-19.531,-166.504
1689802309.214,-3.418,-38.574,-41.016,3.418,-55.664
1689802309.218,5.371,-30.762,-30.273,-0.488,36.621
1689802309.222,-6.836,-36.133,-23.438,-32.227,23.438
1689802309.225,-15.625,-44.922,-26.855,-36.133,-197.266
1689802309.229,-10.742,-49.316,-23.926,-7.324,-5.371
1689802309.233,-17.578,-49.316,-22.949,7.324,427.734
1689802309.237,-26.855,-44.922,-46.387,-17.578,42.969
1689802309.241,-5.859,-49.805,-48.340,-19.531,-256.348
1689802309.243,-18.555,-60.547,-22.461,-15.137,-176.758
1689802309.247,-60.059,-56.152,-25.391,-32.715,-158.203
1689802309.251,-50.781,-50.293,-32.715,-31.250,-96.680
1689802309.255,-51.270,-57.129,-19.043,-41.992,-65.430
1689802309.259,-78.613,-61.035,-13.184,-67.383,-64.941
1689802309.263,-88.379,-60.547,-26.855,-81.543,-51.270
1689802309.267,-104.492,-66.406,-23.926,-84.961,-54.199
1689802309.270,-107.910,-62.500,-5.859,-82.520,20.020
1689802309.274,-108.398,-56.641,7.812,-87.402,301.270
1689802309.278,-139.648,-57.617,7.324,-125.977,118.164
1689802309.282,-161.133,-60.059,5.859,-156.738,-212.402
1689802309.286,-162.109,-63.477,7.324,-152.344,-70.801
1689802309.288,-178.711,-63.477,-7.324,-141.113,172.363
1689802309.292,-187.500,-64.941,-14.648,-153.320,-13.184
1689802309.296,-208.008,-65.918,3.418,-191.895,-194.336
1689802309.300,-210.938,-72.266,17.578,-209.473,-110.352
1689802309.304,-204.590,-81.055,20.020,-191.406,-26.855
1689802309.308,-211.426,-78.125,30.273,-176.270,-27.832
1689802309.312,-200.684,-75.195,27.344,-180.664,-40.039
1689802309.315,-186.035,-81.055,14.648,-187.988,76.660
1689802309.319,-183.594,-79.590,17.578,-187.012,109.375
1689802309.323,-200.195,-82.031,24.414,-190.918,-184.082
1689802309.327,-177.734,-92.285,20.020,-153.809,-204.590
1689802309.331,-157.227,-89.844,14.160,-127.441,-15.137
1689802309.335,-164.551,-84.961,15.625,-145.996,-29.297
1689802309.339,-151.367,-81.055,9.766,-152.832,-131.348
1689802309.343,-118.164,-87.402,-2.930,-119.141,-71.777
1689802309.347,-98.633,-86.914,-7.324,-69.824,83.496
1689802309.351,-90.820,-67.383,13.184,-52.734,33.691
1689802309.355,-61.035,-65.430,23.926,-47.363,-48.828
1689802309.359,-37.598,-73.242,2.441,-57.617,-88.867
1689802309.362,-42.969,-70.801,-7.324,-55.664,194.336
1689802309.366,-41.992,-75.195,-13.672,-30.273,114.258
1689802309.370,-11.230,-77.148,-12.207,-2.930,-130.371
1689802309.374,10.742,-66.895,-19.531,11.719,-48.828
1689802309.378,6.348,-65.430,-25.879,0.000,-6.836
1689802309.378,4.395,-73.242,-15.625,-4.395,-118.652
1689802309.382,11.230,-73.242,-12.695,23.926,-181.152
1689802309.386,19.531,-60.059,-15.625,45.410,-25.879
1689802309.390,20.508,-52.246,-26.367,28.320,123.047
1689802309.394,24.902,-52.246,-35.645,8.301,5.859
1689802309.398,20.020,-47.363,-27.832,6.348,-119.141
1689802309.402,25.391,-47.363,-37.598,23.926,72.266
1689802309.405,33.203,-45.898,-55.664,50.293,362.793
1689802309.409,26.367,-51.270,-26.855,31.738,40.039
1689802309.413,23.926,-54.688,-9.277,12.207,-232.422
1689802309.417,23.438,-46.875,-11.230,14.160,-168.945
1689802309.421,20.996,-46.875,-9.766,13.184,-169.922
1689802309.424,16.602,-42.480,-12.695,22.949,-157.715
1689802309.428,11.719,-44.434,-20.020,21.484,-104.004
1689802309.432,8.789,-47.852,-15.625,17.090,-67.871
1689802309.436,3.418,-38.086,-17.090,9.766,-145.020
1689802309.440,2.930,-37.598,-33.691,19.531,-185.059
1689802309.444,16.602,-39.551,-42.480,50.293,-28.809
1689802309.448,25.391,-35.156,-40.527,54.688,316.895
1689802309.451,25.391,-37.598,-26.855,35.645,154.785
1689802309.455,22.949,-43.457,-23.926,20.996,-143.066
1689802309.459,13.672,-44.922,-26.855,20.020,-107.422
1689802309.463,14.648,-43.457,-27.832,36.621,-3.418
1689802309.467,13.672,-45.898,-28.320,44.922,44.434
1689802309.469,21.973,-44.434,-24.902,29.785,-83.496
1689802309.473,23.438,-42.480,-21.484,11.230,-110.352
1689802309.477,9.277,-46.387,-22.949,21.484,204.102
1689802309.481,-2.441,-45.898,-30.762,29.785,47.363
1689802309.485,-2.930,-45.898,-32.227,23.926,-171.387
1689802309.489,1.465,-48.828,-29.785,9.766,-1.953
1689802309.493,-3.418,-48.828,-28.809,-10.254,67.871
1689802309.496,-19.531,-46.875,-18.066,-13.184,-80.078
1689802309.500,-19.043,-41.992,-13.672,9.277,-177.246
1689802309.504,-5.371,-41.504,-19.043,27.344,146.973
1689802309.508,-3.418,-42.969,-18.555,10.742,256.836
1689802309.512,-7.324,-41.504,-26.855,-15.625,-130.371
1689802309.528,-0.977,-37.598,-29.297,-7.324,-260.254
1689802309.532,17.578,-32.227,-14.648,22.461,-140.137
1689802309.536,18.555,-33.203,-21.484,31.738,-125.977
1689802309.540,-3.418,-38.086,-35.645,4.395,-139.160
1689802309.544,-6.348,-42.480,-24.414,-16.602,-173.340
1689802309.548,1.465,-41.992,-8.301,-7.324,-47.852
1689802309.552,-11.230,-40.527,-1.953,18.066,78.125
1689802309.555,-10.254,-33.203,-8.789,34.180,-22.461
1689802309.559,6.836,-23.438,-10.254,25.879,-60.059
1689802309.563,5.371,-25.879,-13.672,3.418,173.828
1689802309.567,-9.277,-34.180,-24.902,-15.137,55.176
1689802309.571,3.418,-40.527,-36.133,6.836,-115.723
1689802309.573,43.457,-47.363,-37.598,48.340,29.785
1689802309.577,24.414,-43.945,-27.832,42.480,269.043
1689802309.581,-43.945,-40.039,-26.367,-40.039,6.348
1689802309.585,-56.152,-43.457,-26.855,-61.035,-228.027
1689802309.589,-16.602,-48.828,-21.973,-5.859,-146.484
1689802309.593,-9.277,-46.387,-20.508,1.465,-31.738
1689802309.597,-37.109,-50.293,-24.902,-29.785,63.965
1689802309.600,-50.781,-51.758,-25.879,-51.270,-175.293
1689802309.604,-53.711,-54.199,-13.184,-55.664,-163.086
1689802309.608,-53.223,-54.688,-12.207,-39.062,1.465
1689802309.612,-41.504,-47.852,-32.715,-24.414,-153.809
1689802309.616,-26.855,-50.781,-29.785,-20.020,-154.297
1689802309.620,-28.320,-49.805,-17.578,-29.785,-25.391
1689802309.624,-35.645,-46.387,-22.949,-43.945,-115.723
1689802309.628,-39.062,-52.734,-24.414,-30.273,-249.023
1689802309.632,-38.574,-53.711,-22.461,-7.324,-149.414
1689802309.636,-17.090,-42.969,-22.461,3.418,66.895
1689802309.640,-3.906,-40.039,-31.250,-3.906,73.242
1689802309.644,-9.766,-45.410,-25.879,-33.203,-120.605
1689802309.647,-15.137,-48.828,-20.508,-32.227,-190.918
1689802309.651,-10.254,-43.945,-19.043,7.324,163.574
1689802309.655,-4.883,-43.945,-21.973,2.441,65.918
1689802309.659,-4.395,-46.387,-27.344,-25.391,-147.949
1689802309.663,-26.367,-44.434,-29.785,-33.203,38.086
1689802309.664,-28.809,-43.457,-24.902,-20.508,87.402
1689802309.668,-16.602,-36.621,-23.438,12.695,-132.324
1689802309.672,-4.883,-30.273,-10.742,30.273,-201.172
1689802309.676,4.395,-28.320,-12.207,10.742,-118.652
1689802309.680,0.977,-32.227,-35.645,-15.137,-107.422
1689802309.684,-13.672,-36.133,-26.367,-18.555,-105.957
1689802309.688,-27.344,-41.016,-17.090,-9.277,-31.250
1689802309.691,-12.695,-41.992,-15.625,1.465,178.711
1689802309.695,-13.184,-41.992,-7.324,-3.418,362.793
1689802309.699,-27.344,-40.039,-9.766,-34.180,-13.184
1689802309.703,-41.992,-41.016,-26.367,-45.898,-224.609
1689802309.707,-51.270,-47.363,-29.785,-24.902,-75.195
1689802309.724,-40.527,-51.270,-26.855,-14.648,-58.105
1689802309.728,-23.926,-44.434,-34.180,-25.391,-115.234
1689802309.732,-21.484,-37.109,-32.715,-37.109,-160.645
1689802309.736,-26.367,-37.109,-22.949,-39.551,-86.914
1689802309.740,-20.508,-30.273,-25.391,-20.020,-70.312
1689802309.744,-2.441,-24.902,-31.738,7.812,17.090
1689802309.748,10.742,-24.414,-33.203,10.254,161.133
1689802309.751,-5.859,-30.762,-33.691,-13.184,197.754
1689802309.755,-16.602,-33.203,-28.320,-26.367,-29.785
1689802309.759,-16.113,-34.180,-15.137,-12.695,-205.566
1689802309.763,-8.301,-32.227,-18.066,2.930,-12.207
1689802309.767,-0.977,-36.133,-23.926,7.324,459.473
1689802309.753,-7.324,-43.457,-26.367,-16.602,291.992
1689802309.757,-6.836,-38.574,-35.156,-34.180,-203.613
1689802309.761,-12.207,-36.621,-38.574,-16.113,-226.562
1689802309.765,-11.230,-39.551,-27.344,3.906,-125.488
1689802309.769,-9.766,-43.457,-34.668,-0.977,-125.977
1689802309.773,-17.578,-44.434,-41.992,-14.648,-68.848
1689802309.777,-25.391,-39.551,-28.320,-33.203,20.508
1689802309.780,-25.391,-39.062,-33.691,-37.598,-39.062
1689802309.784,-16.602,-35.156,-29.297,-16.113,-101.074
1689802309.788,-5.859,-28.809,-30.273,-8.789,-89.844
1689802309.792,0.488,-29.297,-31.250,-13.672,113.770
1689802309.796,-30.762,-41.504,-38.574,-34.180,291.992
1689802309.798,-41.016,-41.016,-40.527,-35.645,-62.500
1689802309.802,-14.160,-35.645,-16.113,-9.277,-152.344
1689802309.806,-10.254,-35.156,-4.395,-6.348,-11.230
1689802309.810,-10.254,-34.180,-13.184,-17.090,-104.980
1689802309.814,-0.977,-37.109,-20.020,-20.020,-219.238
1689802309.818,-4.395,-36.621,-37.109,-18.555,-99.121
1689802309.822,-7.324,-36.621,-40.039,2.441,276.367
1689802309.825,-0.977,-32.227,-21.484,6.348,95.215
1689802309.829,4.883,-36.133,-19.043,-17.578,-179.199
1689802309.833,4.883,-36.133,-26.855,-24.902,-146.973
1689802309.837,0.977,-25.391,-19.043,-6.836,-111.328
1689802309.841,0.488,-29.297,-22.461,7.324,-37.598
1689802309.845,2.930,-30.762,-35.156,15.625,-46.387
1689802309.849,1.953,-41.504,-24.414,0.000,-20.996
1689802309.853,-20.508,-54.199,-20.508,-30.273,206.543
1689802309.857,-28.809,-48.340,-25.879,-36.621,-37.598
1689802309.861,-5.371,-40.039,-21.973,-8.789,-246.582
1689802309.865,-8.789,-39.062,-15.625,2.930,23.926
1689802309.869,-17.578,-39.551,-39.062,-17.090,89.844
1689802309.872,-18.066,-34.668,-32.715,-26.367,-172.852
1689802309.876,-27.832,-25.391,-9.766,-20.020,-246.094
1689802309.880,-19.531,-20.020,-17.578,-0.977,-29.785
1689802309.884,-16.113,-29.297,-28.809,12.695,-30.273
1689802309.888,-8.301,-32.227,-35.156,6.836,-186.035
1689802309.904,-9.766,-31.738,-28.320,-16.113,-205.566
1689802309.908,-16.113,-34.180,-9.277,-13.184,-31.250
1689802309.912,-11.230,-31.250,-5.371,12.695,15.137
1689802309.916,-6.836,-34.668,-14.160,5.371,-50.293
1689802309.920,4.883,-40.039,-27.344,-9.766,-56.152
1689802309.924,11.230,-39.551,-34.180,-11.719,231.934
1689802309.928,3.418,-38.086,-20.996,-21.973,131.348
1689802309.931,-10.742,-37.598,-20.996,-24.414,-127.930
1689802309.935,-10.742,-40.527,-36.133,-0.977,8.789
1689802309.939,8.789,-37.109,-38.086,4.395,231.934
1689802309.943,11.230,-25.879,-35.645,-23.926,79.102
1689802309.947,-11.719,-32.715,-38.086,-41.016,-107.422
1689802309.948,-19.043,-37.109,-33.691,-30.273,-34.668
1689802309.952,-10.742,-38.086,-41.016,-11.719,125.488
1689802309.956,-22.461,-39.551,-41.992,-14.160,26.367
1689802309.960,-31.250,-33.203,-24.414,-30.762,-71.777
1689802309.964,-26.367,-30.273,-29.297,-36.133,-64.453
1689802309.968,-24.414,-34.180,-27.832,-24.902,-49.805
1689802309.972,-22.949,-43.457,-17.090,-11.719,5.371
1689802309.975,-15.625,-46.875,-20.996,-16.113,-41.992
1689802309.979,-6.836,-42.480,-20.996,-29.785,58.594
1689802309.983,-17.578,-33.691,-18.555,-27.344,327.637
1689802309.987,-36.621,-37.598,-36.133,-42.480,16.602
1689802309.991,-34.668,-37.109,-39.551,-35.645,-125.000
1689802309.993,-25.879,-30.762,-22.949,-5.859,2.930
1689802309.997,-19.531,-34.668,-20.508,-14.160,-61.523
1689802310.001,-11.719,-38.086,-34.180,-25.391,-159.180
1689802310.005,-11.719,-39.062,-34.180,-21.484,-156.250
1689802310.009,-12.695,-38.574,-16.113,4.395,-24.902
1689802310.013,-5.371,-46.387,-17.090,16.113,83.008
1689802310.017,-0.977,-44.434,-44.434,-10.742,13.672
1689802310.020,-13.672,-46.387,-39.551,-27.832,-16.113
1689802310.024,-18.555,-51.270,-17.578,-20.508,218.750
1689802310.028,-8.789,-42.969,-21.484,-3.418,167.480
1689802310.032,12.695,-38.086,-17.090,20.508,-91.309
1689802310.036,14.160,-45.410,-26.855,7.324,-56.641
1689802310.038,0.488,-44.434,-31.738,-17.090,51.270
1689802310.042,-8.301,-41.992,-28.320,-17.090,-137.695
1689802310.046,-10.742,-39.551,-24.414,6.348,-243.164
1689802310.050,10.742,-41.016,-33.203,20.508,-145.020
1689802310.054,21.973,-49.316,-39.062,24.414,-156.250
1689802310.058,0.488,-46.875,-13.184,0.000,-107.910
1689802310.062,-19.531,-39.062,-8.789,-23.926,-54.688
1689802310.065,-2.930,-41.016,-32.715,13.184,51.758
1689802310.069,24.902,-39.062,-37.109,31.738,202.637
1689802310.073,21.484,-37.598,-31.738,25.391,-39.551
1689802310.077,23.438,-37.109,-27.832,28.320,-108.887
1689802310.081,26.855,-34.668,-18.555,20.508,-9.766
1689802310.083,26.855,-32.715,-18.555,39.551,-109.863
1689802310.087,30.762,-35.156,-20.020,57.129,-152.344
1689802310.091,36.133,-34.668,-19.531,46.387,-73.242
1689802310.095,33.691,-33.203,-28.320,31.250,-33.203
1689802310.099,17.578,-33.203,-35.645,14.648,-99.121
1689802310.103,8.301,-34.180,-25.879,23.926,-94.727
1689802310.107,15.137,-37.109,-24.414,36.133,77.637
1689802310.110,28.320,-39.062,-32.715,35.156,300.781
1689802310.114,5.859,-41.504,-29.785,15.625,100.586
1689802310.118,-7.324,-41.016,-22.949,-8.789,-239.746
1689802310.122,-3.418,-43.945,-15.137,-0.977,-166.992
1689802310.126,4.395,-41.992,-13.184,22.461,59.082
1689802310.130,19.531,-41.016,-20.996,19.531,-11.230
1689802310.134,21.973,-36.621,-23.438,-1.465,-175.293
1689802310.138,6.348,-37.109,-28.320,-11.230,-131.836
1689802310.142,-12.695,-44.434,-31.738,-7.812,100.586
1689802310.146,-4.395,-32.715,-25.391,10.254,-31.250
1689802310.150,-4.883,-30.273,-21.484,11.230,-140.625
1689802310.154,-6.348,-34.668,-8.301,0.488,118.164
1689802310.157,6.348,-33.203,-1.953,-9.277,183.105
1689802310.161,-7.324,-36.621,-11.230,-11.719,-178.711
1689802310.165,1.953,-36.133,-9.277,20.020,-246.094
1689802310.169,17.578,-34.180,-17.090,40.527,-79.590
1689802310.173,14.648,-33.203,-39.062,18.555,-139.160
1689802310.188,1.953,-38.574,-23.926,-5.371,-241.699
1689802310.192,-9.277,-38.086,-9.766,-0.977,-201.660
1689802310.196,1.953,-32.715,-32.715,8.301,-112.305
1689802310.200,7.324,-31.250,-31.738,21.484,-76.172
1689802310.204,-10.254,-39.062,-17.578,3.418,-136.719
1689802310.208,-22.949,-43.945,-16.602,-29.297,-97.656
1689802310.212,-23.926,-35.156,-14.160,-19.043,307.617
1689802310.215,-31.738,-38.574,-13.672,-4.395,315.430
1689802310.219,-18.066,-46.387,-10.254,3.906,21.973
1689802310.223,-6.836,-41.504,-15.625,-8.789,24.414
1689802310.227,-20.508,-35.645,-36.621,-38.574,-10.742
1689802310.231,-23.926,-39.062,-36.621,-42.969,-75.195
1689802310.219,-20.508,-43.457,-32.715,-24.902,-137.695
1689802310.223,-17.578,-43.457,-49.805,-3.418,-30.762
1689802310.227,-23.438,-39.551,-33.691,-3.418,152.832
1689802310.231,-29.297,-40.039,-30.762,-22.949,-8.789
1689802310.235,-31.738,-40.039,-36.621,-35.156,-166.504
1689802310.239,-41.992,-47.852,-28.320,-25.879,-3.906
1689802310.243,-29.297,-50.293,-17.578,-3.906,139.160
1689802310.246,-10.742,-56.641,-19.531,-4.395,93.262
1689802310.250,-18.066,-51.758,-27.832,-24.414,-68.848
1689802310.254,-15.625,-43.457,-24.902,-21.973,51.270
1689802310.258,9.277,-44.434,-10.742,-5.371,359.863
1689802310.262,3.906,-34.668,-11.719,4.395,53.223
1689802310.278,-1.465,-32.715,-21.973,14.160,-145.996
1689802310.282,-3.418,-36.621,-19.043,-6.348,-78.125
1689802310.286,-11.230,-35.645,-18.066,-28.320,-159.668
1689802310.290,-10.742,-32.227,-33.203,-12.695,-177.734
1689802310.294,-9.766,-30.273,-36.133,9.277,-76.172
1689802310.298,-7.812,-40.527,-21.484,7.324,116.211
1689802310.302,-2.441,-39.551,-14.648,-13.672,93.750
1689802310.305,-1.953,-30.762,-23.926,-28.320,-158.203
1689802310.309,-0.977,-26.855,-20.020,-8.301,-181.641
1689802310.313,8.789,-27.344,-7.324,26.855,160.645
1689802310.317,0.977,-31.250,-11.719,20.508,138.672
1689802310.321,-3.418,-30.762,-19.043,-3.906,-42.480
1689802310.323,-15.137,-28.809,-14.160,-17.090,-81.055
1689802310.327,-22.949,-34.180,-15.137,-16.602,10.742
1689802310.331,-23.438,-39.551,-30.762,-9.766,-78.613
1689802310.335,-21.973,-36.621,-30.762,-1.465,-146.484
1689802310.339,-18.066,-33.203,-9.766,-11.719,-48.828
1689802310.343,-24.414,-38.574,-16.113,-37.598,-39.551
1689802310.347,-28.809,-43.945,-32.715,-27.832,2.930
1689802310.350,-21.973,-41.016,-19.531,-7.812,0.488
1689802310.354,-7.812,-38.574,-22.949,-6.348,79.590
1689802310.358,-6.836,-38.086,-46.387,-12.695,137.207
1689802310.362,-14.160,-37.598,-34.180,-33.203,-62.012
1689802310.366,-18.555,-42.480,-9.766,-34.668,-114.746
1689802310.368,-7.812,-39.551,-14.160,-7.324,77.637
1689802310.372,-0.977,-32.715,-37.109,-5.859,98.145
1689802310.376,-11.719,-34.668,-38.086,-19.043,-170.410
1689802310.380,-15.137,-34.180,-35.645,-14.160,-198.242
1689802310.384,-17.578,-33.203,-30.762,-18.555,-123.535
1689802310.388,-19.531,-45.410,-25.879,-19.531,-29.297
1689802310.392,-14.648,-45.898,-21.484,1.953,51.270
1689802310.395,-14.648,-42.480,-11.230,-0.977,46.387
1689802310.399,-22.461,-52.246,-11.230,-20.996,219.238
1689802310.403,-30.273,-50.781,-22.949,-33.691,29.785
1689802310.407,-29.785,-40.527,-28.320,-15.625,-247.559
1689802310.411,-20.020,-43.457,-29.785,10.254,19.531
1689802310.415,-11.230,-44.922,-33.203,-3.418,167.969
1689802310.419,-20.996,-44.922,-36.621,-35.645,-24.414
1689802310.423,-32.227,-47.852,-34.180,-46.387,-193.359
1689802310.427,-25.391,-42.480,-27.344,-20.508,-124.512
1689802310.431,-12.207,-48.340,-29.785,7.812,-9.766
1689802310.435,-3.906,-66.895,-18.555,11.230,19.531
1689802310.439,16.113,-56.641,-12.207,-1.465,-56.152
1689802310.442,12.695,-33.203,-29.785,-28.809,-55.176
1689802310.446,-11.719,-26.855,-36.133,-50.293,111.816
1689802310.450,-3.418,-24.414,-30.273,-32.227,-123.535
1689802310.454,16.113,-17.578,-43.945,-13.672,-194.824
1689802310.458,11.230,-17.578,-54.688,-25.879,-82.520
1689802310.458,4.395,-17.090,-47.363,-39.062,-154.785
1689802310.462,10.742,-9.277,-40.527,-21.973,-220.703
1689802310.466,31.250,-6.348,-31.738,22.949,-118.652
1689802310.470,37.109,-11.719,-27.344,43.945,46.387
1689802310.474,35.645,-12.207,-34.180,36.133,-43.945
1689802310.478,31.738,-11.719,-37.598,6.348,-155.762
1689802310.482,21.973,-19.531,-38.086,-1.953,-89.355
1689802310.485,30.273,-25.391,-35.645,22.461,243.652
1689802310.489,15.625,-22.461,-15.625,21.484,285.645
1689802310.493,-8.789,-26.367,-19.043,-4.883,-102.539
1689802310.497,-23.438,-37.598,-24.902,-28.809,-126.953
1689802310.501,-35.156,-41.016,-20.020,-25.879,-16.113
1689802310.503,-26.367,-38.086,-38.574,-10.742,-141.113
1689802310.507,-6.348,-38.086,-43.457,0.488,-175.781
1689802310.511,-2.441,-41.016,-41.992,1.465,-73.242
1689802310.515,-10.254,-35.156,-42.480,-13.184,-33.691
1689802310.519,-16.602,-32.715,-35.645,-23.926,-110.840
1689802310.523,-8.789,-40.527,-14.160,-6.836,-93.262
1689802310.527,11.719,-35.645,-2.441,17.090,103.516
1689802310.530,14.160,-30.273,-18.066,12.695,417.480
1689802310.534,8.301,-30.762,-36.133,-6.836,24.414
1689802310.538,8.789,-32.227,-40.527,-9.766,-264.648
1689802310.542,7.324,-33.691,-30.273,8.301,-42.480
1689802310.546,23.438,-27.832,-25.391,34.668,-5.371
1689802310.549,24.414,-32.227,-27.344,20.508,-134.766
1689802310.553,10.254,-40.039,-19.043,-7.812,-113.281
1689802310.557,11.719,-36.621,-14.648,-4.395,-35.645
1689802310.561,1.465,-36.133,-27.344,6.348,-127.441
1689802310.565,-8.301,-39.551,-34.180,15.137,-177.246
1689802310.569,-1.953,-36.133,-43.457,6.836,-31.738
1689802310.573,-6.348,-33.203,-37.109,-8.301,296.875
1689802310.576,-21.973,-40.039,-13.184,-28.809,100.586
1689802310.580,-29.297,-48.340,-11.719,-25.391,-139.648
1689802310.584,-26.855,-43.945,-22.461,-3.418,-10.742
1689802310.588,-21.973,-34.180,-18.555,-8.789,167.969
1689802310.592,-25.879,-29.297,-15.625,-18.066,72.754
1689802310.594,-27.832,-26.855,-18.555,-22.949,-175.781
1689802310.598,-23.438,-26.367,-24.414,-13.672,-137.207
1689802310.602,-18.066,-29.297,-20.996,5.859,84.961
1689802310.606,-23.438,-36.133,-11.719,-7.324,12.695
1689802310.610,-18.066,-36.133,-24.902,-34.180,-96.191
1689802310.614,-10.742,-39.062,-38.574,-39.551,-16.602
1689802310.618,-3.906,-36.133,-22.949,-27.344,5.371
1689802310.621,4.883,-25.879,-10.254,-6.348,-108.398
1689802310.625,3.418,-26.367,-11.719,9.766,-164.062
1689802310.629,3.906,-34.180,-12.695,5.859,-15.137
1689802310.633,7.812,-40.527,-18.555,-1.953,56.641
1689802310.637,4.395,-29.297,-24.414,-9.766,-78.613
1689802310.670,-14.648,-21.973,-33.203,-16.602,-119.629
1689802310.674,-20.996,-28.809,-31.250,-23.438,139.160
1689802310.678,-24.414,-29.297,-20.508,-42.969,146.484
1689802310.682,-41.504,-27.344,-37.598,-52.246,-147.461
1689802310.686,-54.199,-32.715,-44.434,-43.945,-183.594
1689802310.690,-52.734,-35.645,-43.945,-20.996,-6.836
1689802310.694,-38.086,-35.645,-44.434,-0.977,62.988
1689802310.697,-22.461,-36.621,-15.625,-22.949,-82.031
1689802310.701,-23.926,-34.180,-1.465,-47.363,-109.863
1689802310.705,-32.715,-35.645,-16.602,-37.598,137.207
1689802310.709,-17.090,-37.109,-31.738,-21.484,13.184
1689802310.713,2.441,-30.273,-23.438,-1.465,-55.664
1689802310.699,-9.277,-29.297,-21.973,-10.254,-5.859
1689802310.703,-18.066,-33.203,-35.645,-37.109,49.316
1689802310.707,-27.832,-35.156,-41.504,-50.293,-80.566
1689802310.711,-29.297,-36.621,-30.762,-36.133,-212.402
1689802310.715,1.953,-31.738,-16.113,-3.418,-44.434
1689802310.719,4.883,-26.855,-20.996,-9.277,93.750
1689802310.723,-21.484,-33.691,-24.902,-41.992,-70.801
1689802310.726,-18.066,-36.621,-27.344,-42.969,-187.012
1689802310.730,-5.859,-28.809,-28.320,-15.625,-37.598
1689802310.734,-4.883,-27.344,-28.809,1.465,6.836
1689802310.738,-7.812,-33.203,-30.273,2.441,-111.328
1689802310.742,-13.184,-33.203,-31.738,-12.207,-206.543
1689802310.743,-1.465,-31.250,-35.156,-16.113,43.945
1689802310.747,3.906,-35.645,-40.039,2.441,321.777
1689802310.751,-1.465,-35.645,-49.805,11.719,-10.254
1689802310.755,11.230,-34.668,-43.457,13.184,-69.336
1689802310.759,5.859,-41.016,-25.879,0.000,93.262
1689802310.763,-1.465,-37.109,-15.625,-18.066,-4.395
1689802310.767,-10.742,-41.504,-11.230,-17.090,-46.387
1689802310.770,-13.184,-46.875,-9.766,6.836,-1.465
1689802310.774,1.953,-38.574,-18.555,13.672,230.957
1689802310.778,-21.973,-38.086,-26.855,-24.414,81.543
1689802310.782,-33.691,-36.621,-29.785,-45.410,-237.793
1689802310.786,-20.020,-34.180,-31.250,-34.180,-172.852
1689802310.788,-17.090,-37.598,-26.855,-9.277,-83.984
1689802310.792,-13.672,-37.109,-26.367,0.000,-130.371
1689802310.796,-10.742,-29.297,-33.203,-31.250,-199.707
1689802310.800,-16.602,-31.250,-37.598,-59.082,-109.375
1689802310.804,-22.949,-35.645,-29.785,-48.340,-12.207
1689802310.808,-18.066,-40.039,-27.832,-24.414,-74.219
1689802310.812,-11.230,-54.688,-31.738,-1.465,-80.566
1689802310.815,1.465,-53.223,-28.809,20.020,133.789
1689802310.819,-2.930,-30.273,-22.949,6.836,351.074
1689802310.823,-39.062,-31.738,-33.691,-29.785,-29.297
1689802310.827,-19.531,-33.691,-37.598,-5.859,-213.867
1689802310.831,11.719,-26.855,-28.320,24.902,-35.645
1689802310.834,16.113,-26.855,-29.297,20.020,-72.266
1689802310.838,13.184,-14.648,-28.320,4.883,-185.547
1689802310.842,0.000,-17.090,-37.109,-8.301,-136.230
1689802310.846,10.742,-21.973,-54.688,2.441,-48.340
1689802310.850,12.695,-17.578,-50.781,15.625,-49.316
1689802310.854,7.812,-24.902,-47.363,14.648,11.719
1689802310.858,-1.465,-33.203,-48.340,0.488,63.965
1689802310.861,-9.766,-31.738,-26.855,-13.184,199.219
1689802310.865,0.977,-24.414,-24.902,-6.836,96.191
1689802310.869,0.488,-17.578,-34.180,-0.977,-139.160
1689802310.873,11.719,-17.090,-32.715,-6.836,-51.758
1689802310.877,19.043,-22.949,-31.250,-15.625,212.402
1689802310.878,-10.254,-27.344,-46.387,-28.320,-42.480
1689802310.882,-3.418,-26.855,-39.551,-11.230,-218.750
1689802310.886,12.695,-27.344,-16.113,11.230,-131.348
1689802310.890,4.883,-26.367,-23.926,0.000,-74.707
1689802310.894,-0.977,-20.996,-32.715,-19.531,-115.234
1689802310.898,-6.836,-19.531,-26.855,-20.996,-167.969
1689802310.902,-17.090,-26.855,-32.715,-6.836,83.984
1689802310.905,-10.742,-28.320,-35.156,14.648,370.605
1689802310.909,-8.301,-30.273,-37.598,-2.441,39.551
1689802310.913,-14.648,-33.691,-37.109,-27.832,-208.496
1689802310.917,-19.531,-39.551,-30.762,-27.832,-84.473
1689802310.921,-12.695,-40.527,-33.691,-6.348,-5.371
1689802310.926,-2.441,-35.645,-39.062,13.672,-89.355
1689802310.930,0.977,-38.574,-32.227,9.766,-71.777
1689802310.934,3.906,-36.621,-36.133,1.465,123.535
1689802310.938,-3.418,-33.691,-36.621,-9.277,-2.930
1689802310.942,-18.066,-38.086,-28.809,-12.695,-170.898
1689802310.946,-10.254,-39.062,-35.156,-1.465,46.387
1689802310.950,9.766,-36.133,-30.273,11.230,359.863
1689802310.953,-7.324,-37.109,-34.180,-13.672,47.852
1689802310.957,-18.066,-36.621,-34.668,-44.434,-274.902
1689802310.961,-19.043,-34.180,-29.785,-33.691,-166.504
1689802310.965,-25.391,-29.297,-31.250,-6.348,-61.035
1689802310.969,-18.066,-35.156,-36.133,-2.930,52.734
1689802310.970,-3.906,-32.715,-34.668,-12.695,-66.895
1689802310.974,1.953,-25.391,-31.250,-20.020,-82.031
1689802310.978,-9.277,-36.621,-39.551,-32.227,124.512
1689802310.982,-17.578,-36.133,-36.621,-28.809,-27.832
1689802310.986,-4.883,-27.832,-44.434,-10.742,-168.945
1689802310.990,0.488,-32.715,-47.852,-11.719,30.273
1689802310.994,1.953,-37.109,-34.668,-26.855,396.484
1689802310.997,-3.418,-40.527,-31.738,-34.180,144.043
1689802311.001,-7.812,-41.016,-38.086,-16.602,-152.832
1689802311.005,-2.930,-38.574,-43.945,2.441,-28.320
1689802311.009,-11.719,-44.434,-38.574,-13.672,-90.332
1689802311.013,-12.207,-50.293,-32.227,-34.180,-227.051
1689802311.028,-20.996,-48.828,-38.574,-28.809,-226.074
1689802311.032,-32.227,-46.387,-54.688,-14.160,-118.164
1689802311.036,-16.602,-46.387,-46.875,-9.277,-87.891
1689802311.040,-6.348,-41.016,-29.785,-12.695,-112.305
1689802311.044,-10.254,-33.203,-27.344,-21.484,5.859
1689802311.048,-10.254,-39.062,-28.809,-23.438,278.809
1689802311.052,-11.719,-41.992,-38.574,-7.812,298.340
1689802311.055,1.953,-34.180,-47.363,3.418,-70.312
1689802311.059,12.207,-35.645,-38.086,3.418,-139.648
1689802311.063,13.672,-41.504,-34.668,10.254,45.410
1689802311.067,13.184,-26.855,-62.012,-0.977,-84.473
1689802311.071,-17.578,-17.090,-60.059,-27.832,-126.465
1689802311.074,-34.180,-23.926,-38.574,-30.273,-35.645
1689802311.078,-6.348,-20.996,-40.039,-18.555,174.805
1689802311.082,-5.371,-18.066,-44.922,-37.598,-5.371
1689802311.086,-9.277,-19.531,-48.828,-43.457,-270.996
1689802311.090,1.953,-14.648,-58.594,-27.832,-187.500
1689802311.094,-0.488,-10.254,-68.848,-23.926,-8.789
1689802311.098,-3.418,-16.113,-59.082,-25.879,-14.160
1689802311.101,-9.277,-25.391,-44.922,-30.273,-113.281
1689802311.105,-3.418,-28.320,-56.641,-29.297,-65.918
1689802311.109,4.883,-23.438,-67.383,-14.648,-49.316
1689802311.113,0.000,-25.391,-55.176,-5.371,-149.902
1689802311.117,-2.930,-30.273,-41.504,-14.648,-174.316
1689802311.121,-9.277,-34.668,-39.062,-24.902,125.977
1689802311.125,-8.301,-36.133,-33.203,-40.527,257.324
1689802311.129,-15.625,-35.645,-25.879,-43.945,-119.141
1689802311.133,-27.832,-37.109,-13.672,-15.625,-164.062
1689802311.137,-30.273,-34.180,-11.719,5.371,-64.453
1689802311.141,-28.320,-36.621,-13.672,-21.973,-33.691
1689802311.145,-25.391,-32.227,-36.133,-45.898,-70.801
1689802311.148,-21.973,-28.320,-46.387,-31.738,-125.000
1689802311.152,-12.207,-28.320,-20.996,-3.418,208.496
1689802311.156,-10.742,-29.785,0.977,-3.906,301.270
