timestamps,TP9,AF7,AF8,TP10,Right AUX
1689274750.574,-22.461,-28.320,-26.367,16.113,-17.578
1689274750.578,-30.762,-27.832,-32.715,18.555,-59.082
1689274750.582,-29.297,-29.785,-32.227,24.414,-146.484
1689274750.586,-25.879,-29.297,-28.320,23.926,-73.242
1689274750.590,-26.367,-32.227,-23.926,19.043,125.000
1689274750.594,-26.367,-34.180,-25.391,14.648,100.586
1689274750.598,-47.363,-34.180,-24.414,24.414,-36.621
1689274750.601,-63.965,-36.133,-15.625,23.926,-10.742
1689274750.605,-55.176,-35.156,-20.508,10.742,176.758
1689274750.609,-41.016,-33.203,-31.738,21.973,28.809
1689274750.613,-32.227,-32.715,-27.832,22.461,-199.707
1689274750.617,-45.410,-33.203,-16.113,11.719,-93.262
1689274750.633,-41.992,-35.156,-18.555,17.578,-49.316
1689274750.637,-25.879,-35.156,-16.602,13.672,-144.531
1689274750.641,-20.996,-38.086,-17.090,2.930,-182.617
1689274750.645,-33.203,-42.480,-20.508,12.207,-90.820
1689274750.649,-41.016,-42.969,-15.625,11.719,-16.113
1689274750.653,-20.996,-40.039,-17.578,-9.277,-3.418
1689274750.657,-18.555,-36.133,-27.832,-17.090,11.719
1689274750.660,-39.551,-40.527,-28.320,-6.836,88.379
1689274750.664,-32.715,-40.039,-26.367,0.488,235.840
1689274750.668,-31.738,-33.691,-32.715,-19.531,-41.992
1689274750.672,-43.457,-30.762,-32.715,-4.395,-198.730
1689274750.676,-33.203,-27.344,-23.926,9.766,-104.980
1689274750.665,-13.672,-29.785,-20.508,9.766,-127.441
1689274750.669,-12.207,-26.855,-22.461,24.902,-135.742
1689274750.673,-33.203,-24.414,-23.926,2.930,26.855
1689274750.677,-31.738,-28.809,-22.461,-5.859,298.828
1689274750.681,-23.926,-25.391,-23.926,-9.277,159.180
1689274750.685,-27.344,-25.879,-25.879,-26.367,-92.773
1689274750.689,-23.926,-28.809,-26.367,-16.113,-26.367
1689274750.692,-28.809,-35.156,-22.461,-5.371,16.113
1689274750.696,-37.109,-37.109,-19.531,0.488,-98.145
1689274750.700,-31.738,-30.273,-24.414,15.137,-216.309
1689274750.704,-33.203,-27.344,-25.391,6.348,-178.223
1689274750.708,-31.738,-34.668,-26.855,-3.906,192.383
1689274750.710,-10.254,-37.598,-28.809,-6.836,87.402
1689274750.714,-10.742,-30.273,-28.320,-14.648,-154.785
1689274750.718,-27.832,-25.879,-28.809,-15.137,-86.914
1689274750.722,-30.762,-28.809,-22.461,-20.508,-131.348
1689274750.726,-33.691,-31.738,-12.695,-14.160,-85.449
1689274750.730,-35.645,-30.273,-20.020,-18.555,0.000
1689274750.734,-36.133,-30.762,-27.832,-32.715,135.742
1689274750.737,-39.062,-27.832,-25.391,-40.527,378.906
1689274750.741,-29.785,-24.414,-24.902,-30.762,52.734
1689274750.745,-19.043,-28.809,-26.855,-19.043,-229.004
1689274750.749,-28.320,-29.785,-31.250,-20.996,-88.867
1689274750.753,-33.203,-28.320,-33.203,-37.109,-100.586
1689274750.753,-26.367,-30.273,-28.320,-32.715,-188.477
1689274750.757,-24.902,-35.156,-25.879,-8.301,-168.945
1689274750.761,-31.250,-36.621,-22.461,-22.461,-37.109
1689274750.765,-27.344,-35.156,-25.391,-38.574,55.176
1689274750.769,-17.090,-31.738,-31.250,-19.531,-48.340
1689274750.773,-31.250,-32.227,-20.020,-14.648,-93.750
1689274750.777,-34.668,-34.180,-19.531,-27.832,209.961
1689274750.780,-21.973,-35.156,-29.297,-24.902,344.727
1689274750.784,-37.109,-34.668,-28.320,-26.855,-51.270
1689274750.788,-45.898,-36.133,-30.273,-22.949,-166.504
1689274750.792,-42.480,-33.203,-29.785,-16.602,-63.965
1689274750.796,-36.133,-22.949,-26.855,-25.391,-157.227
1689274750.801,-30.273,-22.949,-27.344,-31.738,-246.582
1689274750.805,-35.645,-34.180,-34.180,-42.969,-176.270
1689274750.809,-39.551,-31.250,-39.062,-40.039,-113.770
1689274750.813,-38.574,-30.762,-18.066,-31.250,-126.953
1689274750.817,-83.008,-33.691,-5.371,-73.242,-157.227
1689274750.821,-120.117,-24.414,-7.324,-115.234,20.996
1689274750.825,-122.070,-25.391,-11.230,-126.953,201.660
1689274750.828,-134.766,-16.602,-9.766,-154.297,3.906
1689274750.832,-186.035,-2.441,6.348,-204.102,-116.211
1689274750.836,-231.934,-2.441,28.809,-232.422,99.121
1689274750.840,-252.930,6.348,38.574,-265.625,186.035
1689274750.844,-254.395,6.836,40.527,-287.109,-86.426
1689274750.859,-267.578,11.230,38.574,-312.012,-123.535
1689274750.863,-299.805,29.785,39.062,-325.684,-76.660
1689274750.867,-310.059,0.977,27.344,-322.266,-152.344
1689274750.871,-296.387,-7.812,27.344,-317.871,-112.305
1689274750.875,-281.250,7.812,38.086,-300.293,-105.957
1689274750.879,-269.531,-9.277,37.598,-277.344,279.785
1689274750.883,-249.023,-9.277,21.484,-256.348,517.090
1689274750.886,-230.469,1.465,9.277,-274.902,-23.438
1689274750.890,-213.867,-5.859,14.648,-270.020,-291.992
1689274750.894,-185.547,-14.160,1.465,-228.027,-174.316
1689274750.898,-159.668,-22.461,-8.301,-196.289,-136.230
1689274750.902,-132.324,-37.109,-0.977,-197.754,-214.355
1689274750.903,-118.164,-29.297,0.488,-197.754,-141.113
1689274750.907,-115.723,-30.762,-6.348,-156.738,-16.602
1689274750.911,-91.797,-50.781,-19.531,-124.023,-147.949
1689274750.915,-75.195,-39.062,-12.695,-138.184,-178.223
1689274750.919,-57.129,-20.020,-7.812,-120.117,-107.422
1689274750.923,-44.922,-16.113,-20.508,-76.172,-45.410
1689274750.927,-29.785,-17.090,-25.879,-63.965,13.184
1689274750.930,-14.160,-23.438,-21.973,-53.223,-16.602
1689274750.934,0.000,-22.949,-21.484,-35.645,77.637
1689274750.938,17.090,-20.020,-24.414,-28.809,240.723
1689274750.942,29.785,-27.832,-28.809,-12.207,-20.508
1689274750.946,33.691,-30.762,-36.621,-1.465,-120.605
1689274750.949,39.062,-31.250,-32.715,-17.090,25.391
1689274750.953,62.012,-34.180,-36.133,-6.348,-24.902
1689274750.957,71.777,-29.785,-39.062,8.301,-14.160
1689274750.961,68.848,-24.902,-34.668,22.949,25.391
1689274750.965,72.754,-27.344,-36.621,35.645,213.867
1689274750.969,85.938,-28.809,-40.039,27.832,289.062
1689274750.973,89.355,-24.902,-41.016,24.414,34.180
1689274750.976,75.195,-22.461,-39.551,28.809,-85.449
1689274750.980,75.684,-18.555,-32.715,35.645,157.227
1689274750.984,69.824,-21.973,-26.367,37.109,54.199
1689274750.988,79.102,-23.438,-25.879,47.363,-205.566
1689274750.992,81.543,-18.066,-20.996,49.316,-140.137
1689274750.994,56.152,-15.137,-20.020,22.461,-115.723
1689274750.998,43.945,-13.184,-23.438,17.090,-185.059
1689274751.002,51.270,-15.625,-17.578,26.855,-196.777
1689274751.006,45.410,-17.578,-17.578,10.254,-124.023
1689274751.010,42.969,-24.902,-26.855,-10.742,-103.516
1689274751.014,52.246,-28.320,-25.391,7.324,-104.004
1689274751.018,44.434,-31.738,-22.461,19.043,-19.531
1689274751.021,35.156,-23.438,-20.508,6.348,208.496
1689274751.025,31.250,-16.113,-21.484,-12.695,391.113
1689274751.029,29.785,-20.508,-21.484,-23.926,-11.719
1689274751.033,23.926,-20.020,-19.043,0.977,-203.613
1689274751.037,27.832,-21.973,-20.996,2.441,-83.984
1689274751.039,33.203,-18.555,-25.391,-1.953,-165.527
1689274751.043,11.719,-20.996,-25.879,-4.395,-275.391
1689274751.047,3.418,-27.344,-22.461,-5.371,-154.297
1689274751.051,7.324,-29.297,-21.973,-1.953,164.551
1689274751.055,20.020,-32.227,-22.949,-12.695,36.133
1689274751.059,28.320,-26.855,-20.996,-11.230,-62.988
1689274751.063,23.926,-24.902,-19.531,-10.254,38.086
1689274751.066,15.625,-31.738,-20.996,-4.883,334.473
1689274751.070,-0.488,-32.227,-22.461,-3.906,392.578
1689274751.074,-7.324,-28.320,-26.367,-37.598,-71.777
1689274751.078,-19.043,-30.762,-28.809,-50.781,-245.605
1689274751.082,-21.973,-34.180,-25.879,-33.691,-194.824
1689274751.085,-8.789,-32.227,-31.250,-43.457,-193.848
1689274751.089,-10.742,-32.227,-38.086,-61.523,-177.734
1689274751.093,-15.625,-38.086,-34.668,-54.688,-141.602
1689274751.097,-14.648,-40.527,-34.180,-37.598,-141.113
1689274751.101,-17.578,-33.691,-30.762,-31.250,-128.906
1689274751.105,-29.297,-31.250,-32.227,-53.711,-61.035
1689274751.109,-21.973,-36.621,-37.109,-75.195,117.676
1689274751.112,-15.137,-35.156,-36.133,-56.641,284.668
1689274751.116,-31.250,-33.203,-36.133,-38.086,-19.043
1689274751.120,-41.016,-39.062,-36.133,-43.945,-182.129
1689274751.124,-34.180,-41.016,-38.574,-44.434,3.418
1689274751.128,-32.715,-39.062,-35.645,-47.852,-26.367
1689274751.128,-42.480,-38.086,-31.250,-53.711,-153.320
1689274751.132,-36.621,-37.598,-33.203,-42.969,-158.203
1689274751.136,-11.719,-37.598,-41.992,-24.902,-34.668
1689274751.140,-9.277,-32.715,-37.598,-32.227,29.297
1689274751.144,-34.668,-34.180,-32.227,-51.270,-24.902
1689274751.148,-35.156,-39.551,-32.715,-49.316,-1.953
1689274751.152,-30.762,-41.504,-29.785,-30.273,274.902
1689274751.155,-35.645,-39.551,-31.250,-11.230,252.441
1689274751.159,-37.598,-43.457,-31.250,-24.414,-120.605
1689274751.163,-35.645,-46.875,-33.203,-38.574,-174.316
1689274751.167,-28.320,-39.551,-39.551,-39.062,-130.371
1689274751.171,-17.578,-41.992,-42.969,-40.527,-144.531
1689274751.192,-5.859,-45.410,-42.969,-41.016,-117.188
1689274751.196,-30.273,-47.363,-35.156,-28.809,-110.840
1689274751.200,-37.109,-46.387,-37.598,-20.996,-48.828
1689274751.204,-10.254,-49.316,-42.480,-43.457,-88.867
1689274751.208,0.000,-51.270,-39.551,-66.406,-106.934
1689274751.212,-25.879,-46.875,-30.762,-38.086,34.668
1689274751.216,-28.809,-39.551,-31.250,-23.926,46.875
1689274751.219,-23.926,-37.598,-36.621,-35.156,-109.375
1689274751.223,-21.484,-41.992,-37.109,-40.039,-93.750
1689274751.227,-11.230,-33.691,-35.156,-33.203,60.547
1689274751.231,-22.461,-37.109,-37.109,-29.785,62.012
1689274751.235,-27.344,-54.199,-40.039,-25.391,-81.543
1689274751.234,-14.160,-45.898,-32.227,-21.973,-76.660
1689274751.238,-9.766,-22.949,-27.832,-33.691,-20.996
1689274751.242,-16.602,-20.996,-27.344,-32.715,-73.730
1689274751.246,-16.113,-23.438,-24.902,-27.344,-56.152
1689274751.250,-11.719,-26.855,-26.855,-30.273,42.480
1689274751.254,-18.066,-31.250,-30.762,-25.879,154.297
1689274751.258,-16.602,-25.879,-28.320,-16.113,88.867
1689274751.261,-8.301,-23.926,-26.855,-26.367,-83.008
1689274751.265,-20.996,-34.180,-28.320,-24.902,-147.461
1689274751.269,-28.320,-38.086,-29.297,-11.230,160.156
1689274751.273,-19.043,-34.180,-25.879,-2.930,388.672
1689274751.277,-8.301,-34.180,-22.949,-0.488,56.152
1689274751.279,-8.301,-35.645,-22.949,-3.906,-142.578
1689274751.283,-17.090,-30.273,-18.066,-25.391,-100.586
1689274751.287,-28.320,-21.484,-19.531,-33.691,-173.340
1689274751.291,-21.973,-20.996,-24.414,-13.184,-238.770
1689274751.295,-9.277,-23.926,-19.531,-9.766,-104.492
1689274751.299,-13.672,-23.926,-20.020,-28.320,38.574
1689274751.303,-17.090,-24.902,-21.973,-28.320,-20.996
1689274751.306,-17.090,-31.738,-19.043,-20.996,-72.266
1689274751.310,-21.484,-34.180,-23.438,-28.320,13.184
1689274751.314,-28.320,-30.762,-29.785,-30.762,315.430
1689274751.318,-27.344,-28.320,-28.320,-33.691,89.355
1689274751.322,-18.066,-27.832,-31.738,-36.133,-153.809
1689274751.323,-9.766,-30.273,-35.156,-24.902,-102.539
1689274751.327,-19.531,-34.668,-28.320,-20.508,-155.273
1689274751.331,-38.574,-36.133,-29.785,-43.457,-193.848
1689274751.335,-32.715,-34.180,-29.297,-52.734,-94.727
1689274751.339,-21.973,-33.691,-22.461,-32.227,86.426
1689274751.343,-18.066,-30.762,-26.367,-45.898,6.348
1689274751.347,-20.020,-28.320,-29.297,-40.527,-56.641
1689274751.350,-31.250,-28.809,-25.391,-9.277,-69.336
1689274751.354,-22.461,-34.180,-23.438,-5.859,228.027
1689274751.358,-13.672,-36.621,-20.020,-24.902,280.762
1689274751.362,-26.855,-29.785,-19.531,-26.367,-194.336
1689274751.366,-27.832,-26.855,-20.020,-26.855,-252.930
1689274751.369,-35.156,-30.762,-16.602,-26.855,-86.426
1689274751.373,-38.086,-32.715,-20.508,-31.250,-132.324
1689274751.377,-22.949,-26.855,-28.320,-44.922,-190.918
1689274751.381,-28.320,-23.438,-24.902,-46.387,-143.555
1689274751.385,-46.875,-24.902,-34.180,-26.367,-114.258
1689274751.389,-55.176,-25.879,-35.645,-34.668,-46.387
1689274751.393,-56.641,-25.391,-21.484,-61.035,-5.371
1689274751.396,-48.340,-26.855,-19.531,-54.688,44.434
1689274751.400,-34.668,-32.715,-25.391,-44.922,127.930
1689274751.404,-19.531,-31.738,-27.832,-11.719,-139.160
1689274751.408,-25.391,-32.227,-24.414,-8.789,-108.398
1689274751.412,-40.527,-32.715,-28.320,-32.715,66.406
1689274751.414,-36.621,-28.809,-31.738,-31.738,-49.805
1689274751.418,-35.156,-22.949,-31.738,-59.570,-183.105
1689274751.422,-31.738,-20.020,-32.227,-62.988,-90.820
1689274751.426,-28.320,-20.020,-33.691,-49.316,125.488
1689274751.430,-23.926,-23.926,-33.203,-32.715,53.711
1689274751.434,-25.391,-23.438,-32.715,-17.578,6.836
1689274751.438,-30.273,-26.855,-31.250,-36.621,68.359
1689274751.441,-31.738,-35.156,-33.203,-44.922,258.789
1689274751.445,-12.695,-26.367,-31.250,-43.457,197.754
1689274751.449,0.977,-20.020,-30.762,-41.504,-164.062
1689274751.453,-18.555,-24.902,-34.668,-37.109,-197.754
1689274751.457,-19.531,-27.832,-36.133,-51.758,-208.984
1689274751.461,-14.160,-25.391,-37.109,-37.109,-215.820
1689274751.465,-9.277,-19.043,-36.133,-16.113,-176.270
1689274751.469,-1.465,-23.438,-32.715,-19.531,-157.715
1689274751.473,-19.531,-29.785,-34.668,-14.648,-50.781
1689274751.477,-33.203,-28.320,-32.227,-30.273,-101.074
1689274751.481,-37.598,-29.297,-28.320,-52.246,-195.801
1689274751.485,-38.574,-21.973,-26.855,-42.969,39.551
1689274751.488,-49.805,-22.461,-30.762,-20.508,287.598
1689274751.492,-53.223,-28.320,-26.367,-13.672,-8.301
1689274751.496,-41.992,-28.320,-25.879,-36.133,-164.551
1689274751.500,-33.691,-27.344,-31.738,-46.875,-88.379
1689274751.504,-23.926,-22.949,-32.227,-45.410,-146.484
1689274751.504,-32.227,-20.996,-28.809,-43.457,-212.402
1689274751.508,-45.898,-33.203,-27.832,-41.504,-155.762
1689274751.512,-32.227,-35.156,-28.809,-39.551,-56.152
1689274751.516,-16.602,-25.879,-29.785,-31.738,-69.336
1689274751.520,-32.227,-27.832,-30.273,-33.691,-52.734
1689274751.524,-40.039,-30.762,-28.809,-33.203,20.996
1689274751.528,-48.340,-30.273,-28.320,-25.391,322.266
1689274751.531,-46.875,-29.297,-33.691,-21.973,465.332
1689274751.535,-41.992,-30.273,-32.715,-50.293,28.320
1689274751.539,-47.852,-36.621,-24.414,-57.617,-197.754
1689274751.543,-40.039,-34.668,-29.785,-40.527,-100.098
1689274751.547,-22.461,-33.691,-34.180,-31.738,-125.488
1689274751.550,-16.113,-41.016,-26.855,-21.973,-189.453
1689274751.554,-22.949,-36.133,-22.949,-19.531,-153.320
1689274751.558,-33.203,-22.461,-31.250,-37.109,-83.496
1689274751.562,-42.969,-16.602,-37.598,-49.316,-127.930
1689274751.566,-41.016,-20.996,-37.109,-47.852,-174.805
1689274751.570,-36.133,-26.855,-32.227,-38.574,-15.137
1689274751.574,-33.203,-25.879,-34.668,-46.387,98.633
1689274751.577,-28.809,-21.973,-35.645,-50.781,17.578
1689274751.581,-35.156,-26.367,-30.273,-50.293,-167.969
1689274751.585,-32.227,-31.250,-27.832,-25.879,-25.391
1689274751.589,-19.043,-27.344,-26.367,-16.113,191.406
1689274751.593,-31.738,-25.879,-26.367,-51.758,-100.098
1689274751.608,-40.527,-28.320,-26.367,-59.082,-205.078
1689274751.612,-26.367,-22.461,-24.414,-47.363,-70.801
1689274751.616,-34.180,-21.484,-29.785,-35.645,-75.195
1689274751.620,-26.855,-36.621,-29.785,-31.250,-82.520
1689274751.624,-26.855,-38.574,-24.902,-36.133,-144.531
1689274751.628,-34.668,-26.855,-26.367,-27.832,165.527
1689274751.632,-23.926,-24.414,-31.738,-34.180,353.027
1689274751.635,-21.484,-30.762,-32.227,-37.109,-45.898
1689274751.639,-29.297,-31.250,-31.250,-40.039,-111.328
1689274751.643,-30.273,-28.320,-33.203,-41.992,192.871
1689274751.647,-22.461,-28.320,-30.273,-32.227,77.637
1689274751.651,-30.762,-24.414,-24.414,-19.531,-157.715
1689274751.653,-34.668,-23.438,-22.461,-15.625,-136.719
1689274751.657,-26.855,-26.367,-24.414,-37.598,-58.594
1689274751.661,-36.621,-26.855,-26.855,-36.621,-72.754
1689274751.665,-36.621,-28.320,-30.273,-36.133,-112.793
1689274751.669,-21.484,-29.297,-30.762,-43.457,-109.375
1689274751.673,-29.297,-30.273,-27.832,-32.227,-25.391
1689274751.677,-33.691,-24.414,-27.344,-20.508,21.973
1689274751.680,-32.227,-25.879,-30.273,-39.551,-96.191
1689274751.684,-24.902,-28.809,-29.297,-28.320,12.695
1689274751.688,-28.809,-23.926,-29.785,-10.742,181.152
1689274751.692,-38.574,-22.949,-31.738,-32.227,0.000
1689274751.696,-25.391,-28.320,-25.391,-42.480,-27.344
1689274751.698,-21.973,-33.691,-23.438,-17.090,153.809
1689274751.702,-40.039,-32.227,-28.809,0.000,101.074
1689274751.706,-40.039,-32.715,-29.297,-21.973,-123.047
1689274751.710,-37.598,-29.785,-29.297,-23.926,-60.059
1689274751.714,-34.180,-20.508,-26.855,-28.809,180.664
1689274751.718,-21.484,-15.625,-27.832,-35.645,87.891
1689274751.722,-10.742,-15.625,-27.344,-17.578,-159.668
1689274751.725,-14.160,-16.113,-24.902,-10.742,-172.852
1689274751.729,-38.086,-18.066,-29.785,-13.672,83.496
1689274751.733,-49.805,-23.926,-27.344,-14.160,28.320
1689274751.737,-34.668,-21.484,-20.020,-32.227,-205.566
1689274751.741,-26.855,-19.043,-18.066,-47.363,-220.215
1689274751.746,-28.320,-23.926,-23.438,-24.414,-183.105
1689274751.750,-21.973,-23.438,-32.715,-26.855,-46.875
1689274751.754,-12.207,-16.113,-41.504,-26.367,-45.898
1689274751.758,-16.113,-13.184,-33.691,-25.879,-73.242
1689274751.762,-44.434,-20.508,-20.508,-43.457,-48.340
1689274751.766,-66.406,-27.344,-20.508,-34.668,-4.395
1689274751.770,-60.547,-30.273,-19.531,-25.879,10.742
1689274751.773,-41.992,-28.809,-18.066,-35.156,61.523
1689274751.777,-37.109,-29.297,-18.066,-48.828,193.359
1689274751.781,-35.156,-33.203,-19.043,-53.711,-105.957
1689274751.785,-44.922,-36.621,-18.555,-53.223,-247.070
1689274751.789,-58.594,-34.180,-20.508,-46.875,-130.371
1689274751.788,-58.105,-33.203,-26.855,-42.480,-142.090
1689274751.792,-56.152,-39.551,-27.832,-42.969,-200.684
1689274751.796,-49.316,-36.133,-25.879,-38.086,-153.809
1689274751.800,-42.969,-27.344,-22.461,-30.762,31.738
1689274751.804,-41.504,-27.832,-22.949,-31.738,45.898
1689274751.808,-34.668,-31.738,-29.785,-33.203,-99.609
1689274751.812,-34.180,-27.832,-30.762,-49.316,-82.520
1689274751.815,-24.902,-23.438,-24.902,-48.340,255.371
1689274751.819,-16.602,-26.367,-22.461,-32.227,366.699
1689274751.823,-32.227,-28.809,-22.949,-39.551,-71.289
1689274751.827,-38.086,-32.227,-23.438,-34.668,-215.332
1689274751.831,-24.902,-27.832,-24.902,-33.203,-94.727
1689274751.835,-21.484,-23.438,-28.320,-28.320,-118.652
1689274751.839,-30.273,-24.902,-30.762,-8.789,-115.234
1689274751.843,-41.504,-29.297,-32.227,-31.250,-98.633
1689274751.847,-33.203,-35.156,-35.156,-40.527,-104.492
1689274751.851,-18.555,-28.320,-34.180,-19.531,-125.488
1689274751.855,-25.879,-27.832,-31.738,-28.809,-97.656
1689274751.859,-22.949,-29.785,-32.227,-59.082,126.465
1689274751.862,-24.414,-25.879,-30.762,-45.410,325.195
1689274751.866,-35.645,-23.926,-24.414,-28.320,32.227
1689274751.870,-39.551,-23.438,-26.855,-40.039,-160.156
1689274751.874,-51.270,-26.855,-32.715,-40.039,-1.953
1689274751.878,-40.039,-26.855,-29.297,-32.227,-42.480
1689274751.878,-29.297,-23.926,-28.809,-30.273,-184.570
1689274751.882,-32.227,-25.391,-28.809,-28.320,-98.145
1689274751.886,-35.645,-27.344,-28.320,-21.484,4.883
1689274751.890,-31.250,-27.344,-25.391,-21.973,-26.855
1689274751.894,-30.762,-28.809,-25.391,-21.973,-108.887
1689274751.898,-37.109,-27.832,-27.344,-16.113,-110.352
1689274751.902,-29.785,-27.832,-25.391,-26.855,349.609
1689274751.905,-23.438,-26.367,-29.297,-32.715,496.582
1689274751.909,-37.109,-20.996,-30.762,-31.738,-21.484
1689274751.913,-47.852,-24.902,-28.320,-43.945,-128.418
1689274751.917,-43.945,-29.297,-28.809,-50.293,-11.230
1689274751.921,-38.086,-29.297,-30.762,-51.270,-123.535
1689274751.925,-44.434,-25.879,-33.203,-47.363,-192.871
1689274751.929,-50.293,-26.855,-31.250,-41.504,-164.062
1689274751.933,-38.574,-30.762,-29.297,-36.621,-140.625
1689274751.937,-27.832,-29.785,-30.273,-36.133,-166.992
1689274751.941,-39.062,-31.738,-28.320,-44.434,-192.383
1689274751.945,-35.645,-35.156,-26.367,-29.785,58.105
1689274751.949,-27.344,-32.227,-30.273,-20.996,194.336
1689274751.952,-31.250,-30.273,-28.809,-30.273,-65.430
1689274751.956,-39.551,-31.250,-29.297,-27.832,-223.145
1689274751.960,-46.387,-30.273,-26.855,-30.273,-86.914
1689274751.964,-41.016,-26.855,-19.043,-32.715,16.113
1689274751.968,-34.180,-24.902,-28.809,-55.176,-81.055
1689274751.983,-32.227,-24.902,-31.738,-56.641,-117.188
1689274751.987,-27.832,-25.879,-27.832,-37.598,-3.906
1689274751.991,-23.438,-23.438,-28.320,-38.574,-19.043
1689274751.995,-31.250,-25.879,-24.902,-41.992,-96.680
1689274751.999,-54.688,-29.785,-24.902,-31.738,-94.727
1689274752.003,-46.387,-22.461,-28.320,-24.414,286.133
1689274752.007,-35.645,-24.902,-33.691,-45.898,371.094
1689274752.010,-36.621,-29.785,-34.668,-55.176,-83.008
1689274752.014,-28.320,-22.949,-30.762,-36.621,-155.273
1689274752.018,-19.043,-20.508,-28.320,-26.855,-4.395
1689274752.022,-14.648,-20.508,-29.785,-41.992,-67.871
1689274752.026,-17.578,-20.020,-27.832,-48.340,-166.016
1689274752.028,-25.879,-23.926,-24.414,-48.828,-127.930
1689274752.032,-27.832,-23.926,-32.715,-38.086,59.082
1689274752.036,-20.020,-17.578,-28.320,-34.668,-39.551
1689274752.040,-24.414,-20.508,-18.066,-47.852,-198.730
1689274752.044,-36.133,-25.391,-26.855,-44.434,-54.688
1689274752.048,-43.945,-26.367,-27.832,-41.504,164.551
1689274752.052,-38.574,-26.855,-27.344,-37.598,10.254
1689274752.055,-30.762,-23.438,-30.273,-31.738,-142.578
1689274752.059,-37.598,-24.414,-25.879,-35.645,64.453
1689274752.063,-36.621,-25.391,-20.996,-24.414,218.262
1689274752.067,-21.484,-25.879,-23.438,-21.973,-62.012
1689274752.071,-17.090,-30.273,-24.414,-38.086,-147.461
1689274752.073,-35.645,-28.320,-24.902,-51.270,-56.152
1689274752.077,-30.762,-25.879,-29.297,-48.828,-79.102
1689274752.081,-20.020,-29.297,-29.297,-20.996,-130.859
1689274752.085,-28.320,-26.855,-26.855,-25.879,-4.883
1689274752.089,-27.344,-22.461,-27.344,-31.738,276.855
1689274752.093,-31.738,-25.391,-26.855,-28.320,182.129
1689274752.097,-33.203,-28.320,-20.508,-53.223,-66.895
1689274752.100,-28.320,-25.879,-20.996,-42.969,-135.254
1689274752.104,-29.785,-29.297,-30.762,-41.016,75.684
1689274752.108,-31.250,-29.297,-33.203,-55.176,23.926
1689274752.112,-31.738,-22.461,-29.785,-51.758,-207.520
1689274752.116,-20.020,-20.508,-28.809,-51.270,-160.156
1689274752.134,-17.578,-22.949,-28.320,-43.945,-108.887
1689274752.138,-29.785,-25.879,-23.926,-30.762,-138.672
1689274752.142,-33.203,-27.344,-24.902,-28.320,-121.582
1689274752.146,-29.785,-24.902,-27.344,-32.227,-69.336
1689274752.150,-24.414,-26.367,-27.344,-38.574,-106.445
1689274752.154,-18.066,-28.809,-25.879,-42.969,-14.160
1689274752.158,-34.180,-27.344,-22.461,-39.551,-23.926
1689274752.161,-41.992,-27.832,-21.484,-35.645,114.258
1689274752.165,-30.762,-29.297,-22.461,-29.297,441.895
1689274752.169,-22.461,-29.785,-25.391,-37.109,98.145
1689274752.173,-22.949,-29.785,-24.414,-33.203,-215.820
1689274752.177,-26.367,-28.809,-23.926,-16.602,-110.840
1689274752.163,-13.184,-26.367,-29.297,-15.137,-117.676
1689274752.167,-17.578,-23.926,-32.715,-28.809,-107.910
1689274752.171,-36.621,-25.391,-35.156,-43.945,-36.621
1689274752.175,-29.297,-24.902,-34.180,-43.457,95.215
1689274752.179,-29.297,-24.902,-31.250,-55.664,-17.090
1689274752.183,-27.344,-25.391,-27.344,-49.316,-85.449
1689274752.187,-33.203,-25.879,-25.879,-31.250,65.430
1689274752.190,-33.691,-26.855,-26.367,-22.461,67.871
1689274752.194,-26.367,-22.949,-27.344,-32.227,-93.750
1689274752.198,-35.156,-17.090,-30.273,-31.250,-100.098
1689274752.202,-24.902,-17.578,-30.762,-28.809,-109.863
1689274752.206,-11.719,-19.531,-27.344,-30.762,223.145
1689274752.211,-20.508,-20.020,-24.902,-37.598,343.750
1689274752.215,-27.344,-19.043,-21.973,-34.668,-118.652
1689274752.219,-24.902,-21.484,-14.160,-26.367,-241.211
1689274752.223,-37.598,-26.367,-17.090,-39.551,-195.312
1689274752.227,-45.410,-29.297,-25.879,-37.109,-172.852
1689274752.231,-30.273,-24.414,-28.809,-35.156,-147.949
1689274752.235,-20.996,-20.508,-28.809,-30.762,-47.363
1689274752.238,-19.043,-23.438,-32.715,-12.207,185.547
1689274752.242,-26.367,-30.762,-28.320,-24.414,-77.637
1689274752.246,-42.969,-34.180,-22.949,-33.691,-258.789
1689274752.250,-37.598,-23.438,-28.809,-38.086,-134.766
1689274752.254,-14.160,-16.602,-24.902,-31.738,-67.383
1689274752.254,-16.602,-19.531,-17.578,-34.180,-93.750
1689274752.258,-33.691,-20.020,-19.531,-49.805,-127.441
1689274752.262,-21.973,-21.484,-25.879,-39.062,26.855
1689274752.266,-33.691,-22.949,-32.227,-26.855,90.332
1689274752.270,-42.480,-24.414,-29.297,-39.062,-22.949
1689274752.274,-32.227,-26.367,-26.367,-49.805,16.113
1689274752.278,-14.648,-32.227,-27.832,-50.293,294.922
1689274752.281,-19.531,-37.598,-32.715,-56.152,432.617
1689274752.285,-35.156,-32.715,-31.738,-45.410,-26.367
1689274752.289,-44.922,-29.785,-29.297,-27.344,-222.656
1689274752.293,-50.781,-29.297,-29.297,-18.066,-110.840
1689274752.297,-39.062,-32.715,-27.344,-32.227,-166.992
1689274752.301,-35.645,-30.273,-25.391,-35.156,-208.496
1689274752.305,-42.969,-24.902,-28.809,-19.531,-128.418
1689274752.309,-41.504,-24.414,-32.715,-32.227,-48.340
1689274752.313,-45.898,-27.832,-34.180,-38.574,-99.609
1689274752.317,-42.969,-31.250,-32.715,-25.391,-196.289
1689274752.321,-26.367,-30.762,-29.785,-39.062,-49.805
1689274752.325,-32.715,-30.762,-33.691,-46.387,373.535
1689274752.328,-41.504,-34.180,-37.109,-27.832,85.938
1689274752.332,-26.367,-36.133,-28.320,-11.719,-216.797
1689274752.336,-21.484,-24.902,-27.832,-23.926,-99.121
1689274752.340,-57.129,-19.043,-41.016,-59.082,-149.414
1689274752.344,-70.801,-23.926,-37.598,-85.449,-198.242
1689274752.358,-69.824,-27.344,-29.297,-87.402,-166.016
1689274752.362,-95.703,-21.973,-27.832,-86.914,-90.332
1689274752.366,-100.586,-17.578,-25.879,-107.910,-59.082
1689274752.370,-89.844,-13.672,-23.438,-124.512,-48.340
1689274752.374,-104.004,-10.742,-25.391,-116.211,-55.664
1689274752.378,-110.352,-12.207,-24.902,-104.004,330.566
1689274752.382,-92.773,-18.066,-31.738,-99.121,539.551
1689274752.385,-84.473,-12.207,-38.574,-120.117,-48.828
1689274752.389,-88.379,-5.859,-36.621,-134.277,-265.137
1689274752.393,-72.754,-5.371,-33.691,-131.348,-21.484
1689274752.397,-72.266,-3.906,-35.156,-132.812,-102.539
1689274752.401,-59.082,-5.371,-33.203,-105.469,-200.684
1689274752.418,-60.059,-10.254,-36.133,-94.727,-118.164
1689274752.422,-62.012,-11.719,-38.574,-101.562,-83.984
1689274752.426,-29.785,-10.254,-40.039,-87.891,-137.695
1689274752.430,-30.762,-15.625,-41.016,-67.871,-149.414
1689274752.434,-18.066,-12.695,-34.180,-62.012,-96.680
1689274752.438,-8.301,-8.789,-34.180,-67.383,-46.387
1689274752.442,-6.836,-13.184,-27.832,-46.875,79.102
1689274752.445,2.930,-18.066,-27.344,-27.832,59.570
1689274752.449,-1.953,-19.531,-36.621,-30.273,89.844
1689274752.453,-13.672,-16.113,-27.344,-26.855,374.023
1689274752.457,-12.695,-21.973,-22.461,-41.016,86.426
1689274752.461,4.395,-31.250,-25.879,-72.266,-191.406
1689274752.448,21.973,-26.855,-19.043,-60.547,-50.293
1689274752.452,20.020,-19.043,-21.973,-37.598,-74.219
1689274752.456,12.207,-18.066,-28.320,-37.598,-135.742
1689274752.460,15.625,-20.508,-24.414,-27.344,-44.922
1689274752.464,27.832,-20.508,-23.438,-42.480,75.684
1689274752.468,22.949,-20.508,-25.391,-51.758,106.934
1689274752.472,9.766,-19.043,-20.020,-48.340,-14.648
1689274752.475,5.371,-19.531,-19.531,-72.266,-62.988
1689274752.479,20.020,-21.484,-23.926,-97.656,6.348
1689274752.483,36.133,-22.461,-22.949,-127.930,-99.609
1689274752.487,30.762,-30.762,-22.949,-138.672,-117.676
1689274752.491,28.320,-23.438,-30.273,-142.578,-33.691
1689274752.493,53.223,-8.789,-41.992,-131.836,270.020
1689274752.497,43.457,-9.277,-32.227,-122.070,175.293
1689274752.501,25.879,-6.348,-15.137,-128.906,-180.664
1689274752.505,40.039,-11.230,-9.277,-124.023,-168.945
1689274752.509,36.621,-20.996,-7.324,-139.648,-128.906
1689274752.513,36.133,-21.973,-14.648,-139.160,-110.840
1689274752.517,27.832,-14.160,-19.043,-119.141,-138.672
1689274752.520,38.574,-13.184,-12.695,-125.977,-35.645
1689274752.524,41.992,-10.742,-12.207,-130.859,181.152
1689274752.528,52.246,-6.836,-17.090,-159.668,-35.156
1689274752.532,73.242,-9.277,-19.531,-151.855,-168.457
1689274752.536,59.082,-3.906,-19.531,-135.254,-36.621
1689274752.539,56.152,-10.742,-24.414,-160.645,-0.488
1689274752.543,54.688,-16.602,-22.461,-114.258,-152.832
1689274752.547,80.566,-8.301,-22.461,-131.836,-146.973
1689274752.551,84.473,-7.812,-26.367,-140.625,206.543
1689274752.555,72.754,-15.625,-14.648,-93.262,242.676
1689274752.559,93.262,-19.043,-3.418,-88.867,-66.406
1689274752.563,74.707,-9.277,-14.648,-110.352,-70.801
1689274752.566,47.852,1.465,-22.949,-133.789,141.602
1689274752.570,51.270,4.395,-18.066,-115.723,57.129
1689274752.574,77.148,-2.441,-21.484,-119.629,-165.527
1689274752.578,118.652,-6.836,-20.996,-146.973,-191.406
1689274752.582,135.742,-0.488,-15.137,-137.207,-147.949
1689274752.586,173.340,2.930,-18.066,-118.652,-152.832
1689274752.590,199.219,1.465,-20.996,-121.582,-176.270
1689274752.594,183.105,0.488,-23.926,-155.273,-29.785
1689274752.598,189.941,-5.371,-32.715,-135.254,25.879
1689274752.602,196.777,-2.930,-28.809,-79.590,-88.379
1689274752.606,206.055,-0.488,-19.531,-136.230,-90.820
1689274752.610,198.242,-5.371,-15.137,-154.297,79.590
1689274752.613,186.523,-7.812,-10.742,-130.859,312.012
1689274752.617,180.176,-12.695,-20.996,-126.465,-37.598
1689274752.621,168.945,-4.395,-42.480,-114.258,-297.852
1689274752.625,138.672,5.371,-31.738,-109.375,-153.320
1689274752.629,120.605,0.977,-11.719,-124.512,-80.566
1689274752.628,134.277,1.953,-8.789,-142.578,-78.125
1689274752.632,142.578,0.977,-11.719,-121.582,-97.168
1689274752.636,123.535,8.789,-20.508,-116.699,-62.988
1689274752.640,122.559,10.742,-27.344,-113.770,-91.309
1689274752.644,125.977,6.348,-20.020,-96.680,-133.789
1689274752.648,112.793,5.859,-15.625,-120.117,-29.785
1689274752.652,116.211,6.348,-21.484,-117.676,342.285
1689274752.655,120.605,7.324,-30.762,-85.449,533.203
1689274752.659,122.559,-1.465,-26.367,-83.008,80.078
1689274752.663,122.070,5.859,-26.855,-110.840,-142.578
1689274752.667,126.465,14.648,-27.344,-103.516,-95.215
1689274752.671,130.371,15.625,-18.555,-140.137,-136.719
1689274752.675,143.555,14.160,-16.113,-141.113,-156.738
1689274752.679,129.395,7.324,-17.090,-94.238,-154.785
1689274752.683,143.555,10.254,-20.996,-104.980,-114.258
1689274752.687,153.320,13.672,-22.461,-124.023,-104.980
1689274752.691,134.766,14.160,-19.531,-109.863,-113.770
1689274752.695,126.953,19.531,-10.742,-96.191,10.742
1689274752.699,108.887,24.902,-10.254,-117.676,86.426
1689274752.702,127.930,23.926,-19.043,-137.695,18.555
1689274752.706,142.090,19.531,-12.207,-141.113,-102.051
1689274752.710,113.281,21.973,-9.766,-116.699,-30.762
1689274752.714,122.070,27.344,-17.578,-129.883,164.062
1689274752.718,108.887,20.508,-18.066,-127.441,-123.535
1689274752.733,109.375,14.160,-20.996,-126.465,-222.656
1689274752.737,118.652,9.766,-22.461,-129.883,-99.609
1689274752.741,122.070,8.301,-20.508,-110.840,-36.133
1689274752.745,119.141,10.254,-24.414,-126.465,1.465
1689274752.749,128.418,15.137,-29.785,-153.809,-65.918
1689274752.753,149.414,20.508,-30.762,-157.715,303.223
1689274752.757,134.277,23.438,-26.855,-144.043,411.133
1689274752.760,112.793,22.949,-16.113,-166.016,-91.309
1689274752.764,104.004,16.113,-10.742,-144.531,-231.445
1689274752.768,85.938,4.883,-7.812,-111.816,-28.809
1689274752.772,72.754,7.812,-15.137,-125.000,-30.273
1689274752.776,65.430,9.766,-22.949,-159.180,-203.125
1689274752.778,72.754,16.113,-30.762,-159.180,-177.246
1689274752.782,60.059,19.043,-33.203,-143.555,-33.203
1689274752.786,14.160,4.395,-9.277,-171.387,-135.254
1689274752.790,25.391,5.371,-4.883,-158.203,-204.590
1689274752.794,46.387,0.488,-18.066,-161.621,-102.051
1689274752.798,54.199,-15.625,-25.391,-132.324,29.297
1689274752.802,56.152,-21.484,-17.578,-90.820,-9.766
1689274752.805,68.359,-25.391,-15.625,-93.750,-156.250
1689274752.809,67.871,-28.320,-27.832,-79.590,-30.273
1689274752.813,80.078,-37.109,-23.438,-58.594,217.773
1689274752.817,90.332,-37.109,-18.066,-69.824,-9.766
1689274752.821,91.797,-36.133,-25.391,-67.383,-139.648
1689274752.823,97.656,-44.434,-20.020,-40.039,0.977
1689274752.827,93.262,-50.781,-9.277,-1.953,-103.027
1689274752.831,105.469,-41.504,-26.367,-20.996,-145.996
1689274752.835,78.125,-39.062,-37.598,-19.043,-46.875
1689274752.839,79.102,-56.641,-19.531,34.180,107.422
1689274752.843,97.656,-50.781,-17.090,35.156,105.957
1689274752.847,110.352,-38.574,-30.273,1.953,-93.262
1689274752.850,107.910,-34.180,-39.062,-4.395,-104.980
1689274752.854,99.121,-41.504,-33.691,31.250,177.246
1689274752.858,77.637,-37.598,-43.945,8.789,91.797
1689274752.862,42.969,-26.367,-50.781,-35.156,-184.570
1689274752.866,84.961,-24.902,-41.504,16.602,-182.617
1689274752.869,136.230,-30.762,-35.645,-15.137,-113.770
1689274752.873,81.055,-35.645,-24.414,-47.852,-89.844
1689274752.877,41.016,-44.434,-15.625,-19.043,-87.891
1689274752.881,59.082,-39.551,-34.180,-34.668,9.766
1689274752.885,62.500,-29.785,-46.387,6.348,-22.461
1689274752.889,84.961,-33.691,-37.109,26.855,-69.336
1689274752.893,93.262,-24.414,-40.039,20.996,-0.488
1689274752.896,65.918,-22.461,-41.016,30.273,-0.488
1689274752.900,59.082,-30.762,-23.438,29.297,-48.828
1689274752.904,62.012,-37.109,-10.254,34.180,-124.512
1689274752.908,30.273,-26.855,-19.531,-22.949,-106.934
1689274752.912,25.391,-14.160,-39.551,-70.801,112.305
1689274752.914,47.852,-22.461,-37.598,12.695,160.645
1689274752.918,56.641,-27.832,-30.273,-22.949,-147.461
1689274752.922,46.875,-24.414,-31.250,-56.641,-221.191
1689274752.926,20.020,-21.973,-33.691,17.090,8.789
1689274752.930,37.598,-19.531,-32.227,34.180,-2.930
1689274752.934,67.383,-15.137,-31.738,16.113,-43.457
1689274752.938,76.660,-8.789,-50.781,-10.742,-30.762
1689274752.941,54.688,-14.648,-43.945,-34.668,210.449
1689274752.945,59.570,-21.973,-20.996,3.906,358.887
1689274752.949,71.777,-20.508,-26.855,15.137,-29.785
1689274752.953,42.969,-30.762,-34.180,5.371,-142.090
1689274752.957,23.438,-30.762,-26.855,4.883,-78.125
1689274752.960,46.387,-11.719,-31.738,-39.062,-206.055
1689274752.964,71.289,-0.977,-43.945,6.348,-208.008
1689274752.968,59.082,-16.602,-30.273,33.691,-92.285
1689274752.972,51.758,-23.926,-35.645,-63.477,-66.406
1689274752.976,73.242,-12.207,-61.523,-41.016,-112.793
1689274752.980,75.195,-28.320,-46.387,22.461,-161.133
1689274752.984,35.156,-36.621,-20.020,18.555,52.246
1689274752.987,22.461,-39.062,-16.113,1.953,312.988
1689274752.991,37.109,-44.434,-24.414,12.695,22.461
1689274752.995,59.082,-33.691,-41.504,-31.738,-167.480
1689274752.999,58.105,-31.738,-38.574,-30.762,-0.488
1689274753.003,42.969,-45.410,-9.277,62.012,9.277
1689274753.004,51.270,-45.898,-13.672,52.734,-129.883
1689274753.008,90.820,-31.250,-29.785,38.086,-106.445
1689274753.012,77.637,-35.156,-21.484,45.898,-32.715
1689274753.016,43.945,-37.598,-22.949,56.641,-48.828
1689274753.020,60.547,-25.391,-35.156,31.738,-106.445
1689274753.024,76.172,-16.113,-49.316,-15.625,-33.203
1689274753.028,69.824,-22.949,-40.527,-21.484,374.512
1689274753.031,25.391,-32.715,-15.625,20.020,441.895
1689274753.035,-12.695,-35.645,-9.766,19.043,-71.289
1689274753.039,1.953,-41.016,-18.066,-42.969,-235.840
1689274753.043,33.691,-40.527,-29.785,-11.230,-80.078
1689274753.047,35.156,-34.180,-31.250,-1.953,-60.547
1689274753.050,28.809,-25.391,-35.645,-61.035,-174.316
1689274753.054,31.250,-26.855,-32.227,-13.672,-148.438
1689274753.058,11.719,-37.598,-26.855,1.465,-56.152
1689274753.062,20.996,-31.738,-27.832,34.180,-113.281
1689274753.066,59.082,-15.625,-41.504,33.203,-138.184
1689274753.070,38.574,-16.602,-49.805,5.371,-5.859
1689274753.074,-5.371,-36.621,-31.250,4.883,36.621
1689274753.077,-8.789,-40.527,-23.438,14.160,-132.812
1689274753.081,6.348,-32.227,-28.320,37.598,-173.828
1689274753.085,21.484,-38.086,-27.832,29.297,21.973
1689274753.089,61.035,-35.645,-32.227,41.016,61.523
1689274753.093,62.500,-28.809,-30.762,57.129,-190.430
1689274753.108,34.180,-34.668,-25.879,41.992,-174.316
1689274753.112,18.555,-28.809,-34.668,-39.062,84.473
1689274753.116,46.875,-20.508,-41.016,-36.133,59.570
1689274753.120,37.109,-33.691,-24.902,9.277,-25.391
1689274753.124,-22.461,-42.480,-13.672,0.977,-78.613
1689274753.128,2.441,-28.320,-26.855,-13.672,234.863
1689274753.132,42.969,-13.672,-50.781,-25.391,360.352
1689274753.135,39.062,-24.414,-33.691,11.719,-1.465
1689274753.139,31.250,-27.344,-22.949,2.441,-92.285
1689274753.143,44.434,-19.531,-44.922,-24.902,-12.695
1689274753.147,31.738,-39.551,-36.133,-55.176,-147.949
1689274753.151,30.273,-42.969,-24.414,-34.180,-233.398
1689274753.153,64.941,-25.391,-30.273,73.730,-74.707
1689274753.157,49.805,-21.484,-40.039,24.414,20.020
1689274753.161,1.465,-28.809,-32.715,-11.719,-85.449
1689274753.165,9.277,-27.832,-25.879,-16.113,-132.324
1689274753.169,29.785,-35.156,-32.227,-68.848,-73.730
1689274753.173,39.551,-35.645,-33.203,-18.555,65.918
1689274753.177,56.641,-26.855,-17.578,50.781,-6.348
1689274753.180,43.945,-28.809,-17.090,13.672,-151.855
1689274753.184,62.500,-25.879,-35.156,-15.137,-44.434
1689274753.188,77.148,-29.297,-24.902,16.602,179.199
1689274753.192,33.691,-29.785,-18.066,12.695,-41.504
1689274753.196,52.734,-21.484,-29.785,-38.574,-188.965
1689274753.198,73.242,-21.973,-32.227,-37.109,-84.473
1689274753.202,32.715,-22.461,-30.762,-0.977,-132.812
1689274753.206,11.719,-28.809,-29.785,-20.020,-174.805
1689274753.210,27.832,-32.227,-25.391,-20.020,-46.875
1689274753.214,38.086,-32.715,-17.090,24.902,146.973
1689274753.218,8.789,-36.621,-18.555,9.277,91.309
1689274753.222,21.484,-33.691,-38.086,4.883,-124.512
1689274753.225,53.711,-34.668,-39.062,-47.852,-67.871
1689274753.229,25.879,-41.504,-23.438,-43.945,196.777
1689274753.233,32.715,-34.180,-23.926,18.555,224.609
1689274753.237,63.477,-19.531,-43.945,-115.234,-118.164
1689274753.241,23.926,-21.484,-32.227,-95.703,-220.215
1689274753.259,8.301,-25.391,-8.789,28.809,-160.645
1689274753.263,22.461,-21.973,-17.578,-9.766,-169.922
1689274753.267,46.875,-19.043,-27.832,-9.277,-133.789
1689274753.271,67.383,-40.039,-19.043,-8.301,-75.195
1689274753.275,49.805,-37.598,-26.855,-35.156,-58.594
1689274753.279,32.715,-16.113,-38.086,-38.086,-85.449
1689274753.283,16.113,-25.391,-13.184,-2.441,-95.215
1689274753.286,-3.906,-40.039,-3.906,18.066,67.383
1689274753.290,17.090,-30.762,-15.137,-11.719,401.855
1689274753.294,21.484,-19.043,-24.414,-34.180,46.875
1689274753.298,4.395,-20.996,-38.574,-31.250,-183.594
1689274753.302,-6.348,-32.227,-33.691,-45.410,-3.906
1689274753.303,7.812,-30.273,-21.484,-33.691,-40.527
1689274753.307,2.441,-26.855,-12.695,13.672,-151.855
1689274753.311,-17.090,-28.320,-18.555,9.277,-96.680
1689274753.315,16.113,-15.625,-27.344,0.000,62.988
1689274753.319,22.949,-16.113,-19.043,-35.645,-104.004
1689274753.323,-0.977,-17.090,-26.855,-46.387,-101.074
1689274753.327,5.859,-11.719,-41.504,-30.762,57.617
1689274753.330,-6.348,-18.066,-36.621,-52.246,28.809
1689274753.334,-29.297,-22.949,-26.855,-54.199,-94.727
1689274753.338,-10.742,-20.996,-23.926,-20.020,-215.820
1689274753.342,24.902,-15.137,-34.668,-44.922,-120.605
1689274753.346,-0.488,-19.043,-38.574,-67.383,371.582
1689274753.335,-16.602,-24.414,-30.762,1.465,292.480
1689274753.339,-2.441,-20.508,-23.438,51.270,-146.484
1689274753.343,-36.133,-25.879,-23.926,-26.855,-190.430
1689274753.347,-39.062,-32.227,-32.227,-58.594,-93.750
1689274753.351,-5.859,-30.273,-32.715,-37.598,-132.324
1689274753.355,-8.301,-26.367,-21.484,-15.137,-86.914
1689274753.359,-0.488,-21.484,-32.227,-51.758,89.844
1689274753.362,19.043,-14.160,-44.434,-76.172,33.203
1689274753.366,9.277,-20.020,-25.879,6.348,-98.145
1689274753.370,-39.062,-34.668,-11.719,22.949,-132.812
1689274753.374,-41.504,-31.738,-18.066,-18.555,58.105
1689274753.378,4.395,-23.926,-31.250,-30.762,187.012
1689274753.379,11.719,-19.531,-33.203,-39.062,-74.219
1689274753.383,-6.348,-18.555,-22.949,-28.320,-52.246
1689274753.387,-12.695,-18.066,-14.648,-9.766,126.465
1689274753.391,-17.090,-19.531,-15.137,-32.715,81.543
1689274753.395,-25.879,-23.926,-19.043,-21.484,-123.047
1689274753.399,-36.133,-34.180,-19.531,-4.395,-105.957
1689274753.403,-26.855,-34.180,-28.809,-38.574,291.992
1689274753.406,-8.301,-32.227,-21.973,-29.785,349.121
1689274753.410,-4.883,-41.992,-3.418,-2.930,-127.930
1689274753.414,-21.484,-47.852,-8.789,-19.043,-229.492
1689274753.418,-40.527,-45.410,-9.277,-38.086,-166.992
1689274753.422,-16.113,-43.457,-5.859,-16.602,-230.469
1689274753.425,-19.043,-41.504,-5.371,-7.324,-204.590
1689274753.429,-27.832,-36.133,-0.488,0.000,-153.320
1689274753.433,-13.672,-40.527,2.930,23.926,-171.875
1689274753.437,-34.668,-47.363,-3.906,4.395,-161.621
1689274753.441,-41.016,-43.457,-8.789,-5.371,-217.285
1689274753.445,-29.297,-43.457,-7.324,-5.859,-26.855
1689274753.449,-23.926,-44.922,-8.301,-14.160,432.617
1689274753.452,-18.555,-40.039,-2.930,-22.949,85.938
1689274753.456,-24.414,-42.969,2.441,-14.160,-246.582
1689274753.460,-42.969,-45.410,-6.348,-0.977,-80.566
1689274753.464,-29.785,-44.434,-15.625,-24.414,-57.129
1689274753.468,-24.414,-43.457,-13.672,-46.875,-122.070
1689274753.483,-33.203,-36.621,-11.719,-42.969,-113.281
1689274753.487,-21.973,-37.598,-12.207,-20.996,-50.293
1689274753.491,-20.996,-34.668,-13.672,1.465,-59.082
1689274753.495,-27.344,-32.227,-17.090,-15.625,21.484
1689274753.499,-43.457,-37.598,-17.090,-31.250,9.766
1689274753.503,-37.598,-38.086,-17.578,-26.855,211.914
1689274753.507,-39.551,-31.738,-26.367,-26.367,341.797
1689274753.510,-46.875,-29.297,-23.926,-19.531,-15.137
1689274753.514,-38.574,-31.250,-21.484,-25.879,-115.234
1689274753.518,-32.715,-30.762,-24.902,-19.043,131.836
1689274753.522,-45.898,-32.227,-27.344,-39.551,8.789
1689274753.526,-61.523,-30.273,-25.879,-37.109,-242.188
1689274753.528,-53.711,-31.250,-22.949,-11.719,-185.547
1689274753.532,-46.875,-29.297,-19.043,-16.113,-114.258
1689274753.536,-41.504,-30.762,-17.090,-15.625,-92.773
1689274753.540,-38.086,-38.086,-19.531,-16.602,-125.488
1689274753.544,-42.480,-36.133,-18.066,-14.160,-142.090
1689274753.548,-41.504,-26.367,-19.531,-12.695,-51.758
1689274753.552,-58.594,-15.625,-23.438,-32.715,-18.555
1689274753.555,-72.754,-20.996,-22.949,-79.102,-94.727
1689274753.559,-49.316,-23.438,-19.531,-48.828,25.391
1689274753.563,-47.363,-20.508,-17.578,-5.859,388.184
1689274753.567,-38.574,-16.602,-15.625,-25.879,56.152
1689274753.571,-33.691,-13.672,-13.672,-3.418,-217.285
1689274753.573,-61.523,-18.066,-12.207,0.488,-21.484
1689274753.577,-67.383,-20.996,-18.555,-23.438,-89.844
1689274753.581,-61.523,-22.461,-20.508,-30.762,-158.691
1689274753.585,-79.590,-23.926,-16.602,-30.762,-47.852
1689274753.589,-91.309,-28.320,-20.996,-26.855,141.602
1689274753.593,-83.496,-26.367,-28.320,-66.895,145.508
1689274753.597,-72.266,-19.043,-27.832,-93.750,-86.426
1689274753.600,-77.148,-16.113,-22.461,-43.457,-141.113
1689274753.604,-83.984,-18.555,-24.414,-21.973,121.582
1689274753.608,-85.938,-20.508,-25.391,-97.168,34.180
1689274753.612,-73.242,-19.531,-15.137,-86.914,-212.891
1689274753.616,-70.312,-17.090,-23.438,-26.367,-80.566
1689274753.619,-75.195,-18.066,-26.367,-19.043,34.668
1689274753.623,-66.895,-23.438,-21.484,-18.555,-146.973
1689274753.627,-67.383,-19.531,-25.391,-21.484,-203.125
1689274753.631,-78.125,-20.508,-26.855,-40.039,-129.395
1689274753.635,-69.336,-24.902,-18.066,-2.441,-122.559
1689274753.639,-70.801,-23.438,-19.043,25.391,-111.328
1689274753.643,-83.008,-27.344,-24.414,-1.465,-89.844
1689274753.646,-56.152,-23.438,-24.414,-20.508,68.848
1689274753.650,-42.480,-18.555,-22.461,3.418,266.602
1689274753.654,-48.340,-18.066,-18.555,26.855,-48.828
1689274753.658,-43.457,-19.531,-20.996,-23.926,-187.012
1689274753.662,-44.922,-23.438,-25.879,-36.133,-52.734
1689274753.664,-47.852,-20.020,-23.438,-2.930,-52.246
1689274753.668,-48.828,-16.113,-24.414,-5.859,-92.285
1689274753.672,-54.199,-21.484,-25.879,0.000,-73.242
1689274753.676,-67.871,-30.273,-19.531,30.273,143.066
1689274753.680,-64.453,-27.344,-19.043,33.203,118.164
1689274753.684,-57.617,-20.020,-22.461,11.719,-68.848
1689274753.688,-54.688,-25.879,-21.973,10.254,-52.734
1689274753.691,-45.410,-39.551,-24.902,27.832,148.926
1689274753.695,-27.344,-41.016,-12.695,49.316,102.051
1689274753.699,-28.320,-22.461,-11.719,34.668,-284.668
1689274753.703,-64.453,-8.301,-33.203,19.043,-297.852
1689274753.707,-73.730,-17.090,-35.645,-9.766,-200.195
1689274753.710,-73.730,-14.648,-39.062,-34.668,-172.363
1689274753.714,-109.375,-5.859,-45.410,-97.656,-176.270
1689274753.718,-105.469,-8.301,-43.457,-63.965,-170.410
1689274753.722,-100.586,-5.859,-46.387,-20.508,-115.723
1689274753.726,-112.305,2.441,-47.363,-30.762,-56.152
1689274753.730,-119.629,3.418,-45.898,-21.484,-29.785
1689274753.734,-128.418,-2.930,-41.016,-64.941,46.387
1689274753.737,-125.000,-6.348,-46.387,-82.031,245.605
1689274753.741,-127.441,1.465,-51.758,-79.590,28.809
1689274753.745,-122.559,-6.348,-45.410,-107.422,-175.293
1689274753.749,-107.910,-15.137,-50.293,-100.586,-82.031
1689274753.753,-98.145,-0.977,-48.828,-40.527,-120.605
1689274753.753,-112.305,0.000,-40.039,-2.930,-199.219
1689274753.757,-102.539,-7.812,-39.062,-17.578,-202.148
1689274753.761,-94.238,-8.301,-37.109,-4.395,-77.637
1689274753.765,-97.168,-18.066,-33.203,4.883,38.574
1689274753.769,-98.145,-31.738,-32.715,-12.695,6.836
1689274753.773,-93.750,-27.344,-35.156,7.324,-23.438
1689274753.777,-72.266,-18.555,-36.133,41.504,297.852
1689274753.780,-66.406,-16.602,-35.156,8.301,474.121
1689274753.784,-75.684,-19.043,-31.250,9.277,-49.316
1689274753.788,-54.199,-18.555,-27.344,70.801,-196.777
1689274753.792,-47.852,-17.578,-27.832,41.504,170.410
1689274753.796,-82.031,-20.996,-26.367,37.598,10.742
1689274753.800,-81.055,-21.484,-23.926,69.336,-205.566
1689274753.804,-66.895,-19.531,-26.855,18.555,-89.844
1689274753.808,-68.359,-20.508,-28.809,20.508,-55.664
1689274753.812,-67.871,-26.367,-27.832,55.176,-110.840
1689274753.816,-72.754,-26.855,-28.809,26.367,-202.148
1689274753.820,-74.707,-30.273,-30.762,41.992,-30.762
1689274753.824,-65.430,-24.414,-28.320,52.734,218.750
1689274753.827,-62.988,-16.113,-25.879,18.555,-16.113
1689274753.831,-70.312,-18.555,-26.855,29.297,-257.324
1689274753.835,-69.824,-20.996,-30.762,28.320,-25.879
1689274753.839,-80.566,-16.602,-34.180,19.043,81.055
1689274753.843,-85.449,-20.020,-29.785,17.578,-186.035
1689274753.858,-64.941,-27.832,-19.043,32.715,-194.336
1689274753.862,-60.059,-26.855,-17.090,38.574,-30.273
1689274753.866,-75.195,-28.320,-19.531,-26.855,48.828
1689274753.870,-83.008,-26.367,-30.273,21.973,99.121
1689274753.874,-80.566,-19.531,-30.762,76.172,53.711
1689274753.878,-73.730,-21.484,-21.973,23.926,331.543
1689274753.882,-64.941,-19.043,-27.832,-39.551,403.320
1689274753.885,-66.406,-16.602,-32.715,-16.113,-75.195
1689274753.889,-74.707,-23.438,-21.973,35.156,-175.293
1689274753.893,-73.730,-23.926,-18.555,18.066,42.969
1689274753.897,-62.500,-20.508,-23.926,10.742,-9.766
1689274753.901,-65.430,-21.973,-22.461,23.926,-145.996
1689274753.905,-85.938,-22.949,-16.602,32.227,-120.117
1689274753.909,-91.309,-23.926,-9.766,35.645,-27.344
1689274753.913,-69.824,-22.461,-1.465,24.902,-62.500
1689274753.917,-48.340,-15.625,-10.742,34.180,-81.055
1689274753.921,-67.383,-29.297,-18.066,-16.602,-72.266
1689274753.925,-64.453,-39.062,-5.859,-17.090,12.207
1689274753.929,-64.453,-14.160,3.418,31.738,33.691
1689274753.932,-143.555,-7.324,3.418,-46.387,-126.465
1689274753.936,-163.574,-10.254,3.418,-60.547,-13.672
1689274753.940,-170.410,4.883,15.137,-99.609,255.371
1689274753.944,-240.723,9.277,27.344,-174.805,-46.387
1689274753.948,-268.066,-0.488,21.484,-193.848,-145.996
1689274753.949,-252.441,3.418,17.090,-195.312,-48.340
1689274753.953,-267.578,4.883,23.438,-208.496,-70.801
1689274753.957,-293.945,0.977,24.902,-224.609,-71.289
1689274753.961,-296.387,3.906,24.902,-206.543,-84.473
1689274753.965,-278.320,5.371,26.367,-212.891,73.242
1689274753.969,-276.367,1.465,21.973,-236.328,83.008
1689274753.973,-295.898,1.953,17.578,-237.305,44.922
1689274753.976,-307.617,-6.836,41.992,-262.207,11.230
1689274753.980,-269.043,-12.207,17.090,-195.312,189.941
1689274753.984,-214.844,-7.812,-15.625,-137.207,257.324
1689274753.988,-207.520,-13.184,-10.254,-151.367,-156.738
1689274753.992,-182.129,-20.996,-19.043,-147.949,-209.473
1689274753.994,-153.320,-28.320,-21.973,-109.863,-84.473
1689274753.998,-164.062,-34.668,-21.484,-66.895,-130.371
1689274754.002,-160.645,-38.574,-22.461,-88.867,-142.090
1689274754.006,-133.789,-45.410,-21.484,-86.914,-130.859
1689274754.010,-94.238,-49.805,-26.367,-59.082,-1.465
1689274754.014,-68.359,-43.945,-34.668,-6.836,105.469
1689274754.018,-82.520,-46.875,-39.551,5.371,1.465
1689274754.021,-82.520,-53.711,-38.086,-5.859,31.738
1689274754.025,-64.941,-52.734,-35.156,12.207,273.926
1689274754.029,-40.527,-50.781,-42.480,10.742,52.734
1689274754.033,-10.742,-45.898,-51.758,-6.348,-159.668
1689274754.037,-8.789,-40.039,-57.129,20.996,-134.766
1689274754.038,-11.719,-37.109,-59.082,69.824,-207.520
1689274754.042,-6.836,-45.898,-61.035,64.453,-259.277
1689274754.046,-8.301,-55.176,-57.617,39.062,-124.512
1689274754.050,-11.230,-51.758,-54.199,65.430,187.012
1689274754.054,10.254,-39.551,-59.570,84.961,36.133
1689274754.058,16.602,-36.621,-64.941,28.320,-95.703
1689274754.062,5.859,-43.945,-66.406,38.086,-68.848
1689274754.065,15.137,-45.898,-55.664,102.539,206.055
1689274754.069,9.766,-43.945,-50.293,126.465,370.117
1689274754.073,0.000,-40.527,-60.059,108.887,-57.617
1689274754.077,18.555,-30.273,-74.219,63.965,-205.566
1689274754.081,23.926,-25.879,-68.359,77.637,-81.055
1689274754.099,-5.859,-42.969,-48.828,78.125,-166.016
1689274754.103,-13.672,-50.293,-46.875,89.355,-217.285
1689274754.107,-2.441,-41.504,-42.969,129.883,-103.027
1689274754.111,0.000,-37.598,-41.504,103.027,-70.801
1689274754.115,6.348,-27.344,-46.387,62.988,-149.902
1689274754.119,7.324,-19.043,-51.270,94.238,-131.836
1689274754.123,-18.066,-32.715,-51.758,59.082,68.359
1689274754.126,-29.297,-45.410,-42.480,43.457,250.000
1689274754.130,-38.086,-44.922,-36.133,104.980,-85.938
1689274754.134,-43.945,-39.062,-35.645,85.449,-225.098
1689274754.138,-29.785,-32.227,-41.016,62.012,-14.160
1689274754.142,-4.883,-16.602,-51.270,51.270,-46.387
1689274754.128,6.348,-7.812,-61.523,24.414,-160.156
1689274754.132,-12.207,-15.137,-53.711,40.527,-152.832
1689274754.136,-46.387,-35.156,-24.414,82.520,-18.066
1689274754.140,-86.426,-44.922,-13.672,42.480,6.348
1689274754.144,-73.730,-35.156,-26.367,31.738,-86.914
1689274754.148,-70.801,-32.227,-34.668,71.289,48.828
1689274754.152,-76.660,-32.715,-41.992,62.500,294.434
1689274754.155,-55.664,-28.320,-43.457,51.758,93.262
1689274754.159,-57.617,-31.250,-39.551,40.527,-166.504
1689274754.163,-73.242,-36.133,-36.133,31.250,-134.277
1689274754.167,-89.844,-30.762,-36.133,15.137,170.898
1689274754.171,-81.055,-23.926,-43.457,-9.277,206.055
1689274754.176,-62.500,-19.531,-50.781,-58.105,-59.570
1689274754.180,-78.125,-23.926,-45.410,3.906,-106.934
1689274754.184,-95.215,-31.250,-32.715,76.172,-28.809
1689274754.188,-102.051,-41.016,-15.137,62.500,-99.609
1689274754.192,-103.027,-44.434,-15.137,26.367,-220.703
1689274754.196,-79.590,-38.574,-26.855,-6.348,-24.414
1689274754.200,-59.082,-34.180,-34.180,4.883,147.461
1689274754.203,-50.781,-23.438,-39.062,22.949,-91.797
1689274754.207,-71.777,-21.973,-26.855,-1.465,-151.855
1689274754.211,-84.473,-33.691,-17.090,-6.836,-26.367
1689274754.215,-61.035,-32.227,-30.273,23.438,-54.688
1689274754.219,-45.898,-25.879,-27.344,17.090,-191.895
1689274754.234,-56.641,-21.484,-23.926,21.484,-197.754
1689274754.238,-54.199,-20.996,-27.832,4.395,-66.406
1689274754.242,-65.918,-28.809,-28.809,-14.160,22.949
1689274754.246,-85.449,-32.715,-24.902,16.113,-9.766
1689274754.250,-81.055,-30.273,-26.855,12.207,-88.379
1689274754.254,-80.078,-31.738,-32.227,0.977,184.570
1689274754.258,-76.660,-28.809,-29.785,-3.418,560.059
1689274754.261,-81.543,-24.414,-29.297,-6.348,136.719
1689274754.265,-84.961,-27.344,-29.297,-9.766,-209.473
1689274754.269,-83.008,-30.273,-27.832,5.859,-128.906
1689274754.273,-73.242,-28.809,-30.273,0.000,-176.758
1689274754.277,-69.824,-29.297,-29.785,-19.043,-205.566
1689274754.278,-62.988,-32.227,-28.320,-0.977,-93.750
1689274754.282,-55.664,-34.180,-28.320,1.953,-50.781
1689274754.286,-81.055,-36.621,-26.855,-6.348,-165.527
1689274754.290,-81.055,-36.621,-30.762,-23.438,-188.477
1689274754.294,-73.242,-31.738,-34.180,-11.719,-30.762
1689274754.298,-71.777,-32.227,-31.738,-5.371,98.145
1689274754.302,-50.781,-33.203,-30.762,-35.645,18.555
1689274754.305,-42.480,-29.785,-30.762,-24.414,-83.496
1689274754.309,-62.500,-30.762,-30.762,5.859,18.066
1689274754.313,-74.219,-32.227,-31.738,-22.949,293.457
1689274754.317,-61.035,-27.832,-33.691,-69.336,40.039
1689274754.321,-53.711,-30.762,-34.180,-62.012,-167.480
1689274754.323,-67.383,-39.551,-31.738,-17.578,-81.055
1689274754.327,-93.750,-36.133,-30.762,-18.555,-131.836
1689274754.331,-98.145,-31.738,-34.668,-39.062,-92.773
1689274754.335,-106.934,-33.691,-33.691,-52.246,12.695
1689274754.339,-96.680,-35.156,-30.273,-31.250,165.527
1689274754.343,-96.680,-34.180,-27.832,-24.902,131.348
1689274754.347,-109.375,-36.133,-23.926,-64.941,-1.465
1689274754.350,-109.863,-41.016,-16.602,-115.723,-8.301
1689274754.354,-101.074,-38.086,-28.809,-62.500,195.801
1689274754.358,-87.891,-36.133,-37.109,16.113,228.027
1689274754.362,-77.148,-24.902,-28.809,-37.109,-189.941
1689274754.366,-64.453,-17.090,-32.715,-69.336,-283.691
1689274754.368,-89.355,-22.949,-29.297,-102.539,-174.805
1689274754.372,-98.633,-17.578,-31.738,-83.496,-175.293
1689274754.376,-76.660,-24.902,-29.785,-13.184,-179.688
1689274754.380,-85.938,-38.086,-22.949,-16.602,-116.211
1689274754.384,-131.348,-27.832,-19.043,-86.914,-110.840
1689274754.388,-104.980,-30.762,-21.484,-97.656,-32.227
1689274754.392,-35.645,-42.969,-25.391,-44.434,26.855
1689274754.395,-39.551,-36.133,-36.133,-20.996,55.664
1689274754.399,-72.754,-29.785,-24.902,17.090,212.402
1689274754.403,-80.566,-33.691,-20.996,31.738,1.953
1689274754.407,-25.879,-40.039,-23.926,30.273,-72.266
1689274754.411,-46.387,-24.902,-12.695,8.789,14.648
1689274754.413,-87.402,-11.230,-41.016,-0.977,-24.902
1689274754.417,-72.266,-25.879,-39.062,7.324,-182.617
1689274754.421,-77.637,-24.414,-30.762,-42.480,-154.785
1689274754.425,-83.984,-12.207,-34.668,-53.711,103.027
1689274754.429,-71.289,-6.348,-34.668,-30.762,23.438
1689274754.433,-66.895,-8.301,-34.668,-37.598,-103.027
1689274754.437,-80.566,-12.207,-41.504,-41.992,-56.641
1689274754.440,-95.703,-8.301,-42.969,-82.520,137.207
1689274754.444,-116.699,5.859,-39.551,-63.477,147.949
1689274754.448,-125.488,11.719,-37.598,-44.922,-125.000
1689274754.452,-111.816,-7.812,-38.574,-92.773,-166.992
1689274754.456,-110.840,-7.812,-45.410,-60.059,-135.254
1689274754.461,-130.371,6.836,-50.293,-58.105,-109.863
1689274754.465,-111.328,4.883,-50.781,-63.477,-144.043
1689274754.469,-88.379,-8.301,-40.039,-14.160,-122.559
1689274754.473,-58.594,-16.113,-32.715,-19.043,0.977
1689274754.477,-47.852,-16.113,-44.434,-49.805,-93.262
1689274754.481,-39.551,-27.832,-38.086,-41.016,-84.961
1689274754.485,-19.043,-33.691,-31.250,-0.488,127.930
1689274754.488,-43.945,-32.715,-33.203,15.625,285.645
1689274754.492,-57.617,-37.598,-27.832,-4.395,-24.414
1689274754.496,-50.293,-20.996,-29.785,-12.695,-225.586
1689274754.500,-55.176,0.977,-31.250,-15.625,-74.219
1689274754.504,-43.945,-16.113,-22.461,-2.930,-28.809
1689274754.503,-30.273,-22.949,-23.926,-3.418,-128.418
1689274754.507,-37.598,-15.625,-26.367,0.488,-127.441
1689274754.511,-43.457,-16.602,-26.855,8.301,-94.238
1689274754.515,-38.086,-20.508,-31.738,-2.930,-128.418
1689274754.519,-26.855,-25.879,-30.762,-4.883,-26.367
1689274754.523,-25.391,-24.414,-26.855,-14.160,-3.418
1689274754.527,-27.832,-20.020,-20.020,-7.324,293.457
1689274754.530,-23.926,-26.367,-20.020,6.348,533.691
1689274754.534,-17.578,-33.203,-21.484,12.207,74.707
1689274754.538,-21.484,-34.668,-17.578,8.789,-240.234
1689274754.542,-21.484,-30.762,-19.531,12.695,-198.242
1689274754.546,-20.996,-21.484,-26.367,-11.719,-173.340
1689274754.550,-27.832,-28.320,-22.461,-31.250,-141.602
1689274754.554,-18.555,-28.320,-18.066,-14.648,-140.137
1689274754.558,-8.301,-17.090,-26.855,-8.301,-133.301
1689274754.562,-31.250,-18.066,-30.762,-14.160,-120.117
1689274754.566,-42.480,-18.555,-22.461,-16.602,-127.930
1689274754.570,-30.762,-14.160,-20.508,-33.691,-48.828
1689274754.574,-44.922,-15.137,-25.391,-29.785,115.723
1689274754.577,-44.434,-18.066,-25.879,-16.113,52.246
1689274754.581,-48.828,-28.320,-23.926,-38.086,-149.902
1689274754.585,-58.594,-32.227,-26.855,-41.992,-57.617
1689274754.589,-56.641,-37.109,-26.855,-29.297,221.191
1689274754.593,-44.922,-36.133,-20.020,-50.781,-32.715
1689274754.608,-29.785,-23.926,-28.320,-50.781,-203.125
1689274754.612,-19.531,-19.043,-31.738,-43.945,-98.145
1689274754.616,-49.805,-15.625,-20.996,-51.270,-92.773
1689274754.620,-48.828,-18.555,-23.438,-43.457,-61.523
1689274754.624,-26.855,-26.367,-29.785,-44.922,-125.977
1689274754.628,-46.387,-28.320,-30.273,-24.414,136.719
1689274754.632,-59.570,-25.391,-30.273,-39.062,318.359
1689274754.635,-53.223,-38.086,-20.508,-107.422,-28.320
1689274754.639,-16.602,-36.133,-19.531,-5.371,-94.238
1689274754.643,-45.410,-18.066,-34.668,9.766,103.027
1689274754.647,-92.285,-18.066,-34.668,-43.457,-35.156
1689274754.651,-64.941,-18.066,-29.785,-31.250,-237.793
1689274754.653,-43.457,-16.602,-36.133,-46.387,-163.086
1689274754.657,-55.176,-18.066,-34.180,-45.898,-110.840
1689274754.661,-66.406,-18.555,-31.250,-49.316,-153.320
1689274754.665,-65.430,-23.438,-29.297,-29.297,-190.918
1689274754.669,-47.363,-23.438,-24.414,-16.113,-83.008
1689274754.673,-37.109,-16.602,-25.879,-24.414,73.242
1689274754.677,-44.922,-20.020,-30.762,-29.297,163.574
1689274754.680,-38.086,-21.973,-31.738,-38.086,-14.160
1689274754.684,-26.855,-16.113,-31.250,-19.531,-48.340
1689274754.688,-40.039,-21.484,-32.227,-18.066,248.047
1689274754.692,-33.691,-21.973,-30.273,-30.273,84.961
1689274754.696,-36.133,-26.855,-20.020,-36.621,-100.098
1689274754.698,-40.039,-30.762,-29.785,-23.438,0.488
1689274754.702,-49.805,-28.320,-41.992,-22.461,-34.180
1689274754.706,-59.082,-32.227,-33.203,-22.461,-132.812
1689274754.710,-48.340,-30.273,-29.785,-31.738,-20.508
1689274754.714,-48.828,-28.320,-29.785,-45.898,222.168
1689274754.718,-45.898,-27.344,-31.738,-35.645,209.961
1689274754.722,-31.250,-19.531,-35.156,-29.297,3.418
1689274754.725,-35.645,-16.113,-27.832,-21.484,-75.684
1689274754.729,-41.992,-20.508,-25.879,-9.766,120.605
1689274754.733,-46.387,-28.320,-22.949,-11.719,53.711
1689274754.737,-42.969,-29.785,-24.902,-16.602,-193.848
1689274754.741,-43.457,-28.809,-24.414,-15.625,-183.105
1689274754.745,-44.922,-29.785,-23.926,-48.340,-145.508
1689274754.749,-28.320,-31.250,-33.691,-56.641,-95.215
1689274754.753,-41.992,-32.227,-31.738,-77.637,-92.285
1689274754.757,-60.547,-34.180,-29.785,-101.074,-79.590
1689274754.761,-50.781,-33.203,-33.203,-16.602,-32.715
1689274754.765,-46.387,-26.855,-30.273,33.203,-108.398
1689274754.769,-51.270,-30.762,-24.902,18.555,-85.938
1689274754.772,-65.918,-36.133,-29.297,-22.949,29.785
1689274754.776,-70.312,-32.227,-34.668,-96.191,159.668
1689274754.780,-62.988,-32.715,-28.809,-61.523,-114.746
1689274754.784,-49.805,-36.133,-35.645,11.719,-239.258
1689274754.788,-12.695,-27.344,-50.781,-20.508,-107.910
1689274754.803,-10.742,-21.973,-36.133,-61.523,-134.766
1689274754.807,-68.359,-32.227,-17.578,-21.484,-163.086
1689274754.811,-89.355,-39.062,-18.066,-3.906,-104.980
1689274754.815,-69.824,-41.016,-18.555,-22.949,12.695
1689274754.819,-72.754,-41.992,-20.508,-16.602,-35.645
1689274754.823,-86.426,-43.945,-16.113,-10.742,-66.895
1689274754.827,-87.402,-47.852,-20.020,-51.758,5.859
1689274754.830,-89.355,-49.316,-21.484,-41.504,323.730
1689274754.834,-68.848,-50.293,-16.113,28.320,409.180
1689274754.838,-43.945,-50.293,-15.137,28.320,-23.438
1689274754.842,-62.012,-47.363,-21.484,18.066,-152.344
1689274754.846,-75.195,-41.992,-21.973,57.129,-80.566
1689274754.849,-61.523,-41.504,-17.578,72.754,-151.367
1689274754.853,-55.664,-45.410,-15.137,73.242,-183.105
1689274754.857,-68.359,-46.875,-17.090,62.012,-132.324
1689274754.861,-68.848,-44.922,-24.902,43.457,-81.055
1689274754.865,-65.918,-45.410,-29.297,41.992,-31.738
1689274754.869,-58.594,-40.039,-28.809,81.055,8.789
1689274754.873,-60.547,-31.738,-26.367,98.145,73.730
1689274754.876,-64.453,-35.156,-20.996,97.656,116.211
1689274754.880,-52.246,-32.715,-29.785,84.473,-44.434
1689274754.884,-58.105,-31.738,-28.809,51.270,-186.523
1689274754.888,-39.062,-34.180,-22.949,38.574,-42.480
1689274754.892,-41.992,-32.227,-25.879,79.102,308.594
1689274754.878,-68.848,-33.203,-16.113,79.102,42.969
1689274754.882,-64.453,-32.715,-18.555,59.082,-214.355
1689274754.886,-48.340,-28.809,-28.320,82.031,-42.969
1689274754.890,-49.316,-30.762,-24.414,106.445,-8.301
1689274754.894,-52.734,-33.691,-27.832,61.035,-137.207
1689274754.898,-54.199,-38.574,-28.320,68.359,-90.332
1689274754.902,-52.734,-41.504,-19.531,83.008,185.059
1689274754.905,-44.922,-36.133,-20.996,33.203,94.238
1689274754.909,-44.434,-33.203,-32.715,57.617,-57.129
1689274754.913,-46.875,-35.156,-25.391,102.539,-93.750
1689274754.917,-49.316,-35.645,-22.949,95.703,134.766
1689274754.921,-50.781,-37.109,-22.949,118.652,264.648
1689274754.925,-63.965,-40.039,-24.902,144.043,-104.980
1689274754.929,-65.918,-42.480,-21.973,106.445,-227.539
1689274754.933,-57.617,-41.504,-10.254,121.094,-141.602
1689274754.937,-41.504,-34.668,-34.180,145.996,-194.824
1689274754.941,-36.133,-29.785,-32.715,128.418,-233.398
1689274754.945,-41.016,-33.203,-19.043,140.625,14.160
1689274754.949,-47.363,-30.273,-31.250,136.719,142.090
1689274754.952,-60.547,-27.344,-33.691,119.629,-126.465
1689274754.956,-55.176,-31.738,-27.344,115.723,-208.496
1689274754.960,-51.270,-31.250,-26.367,128.418,-52.246
1689274754.964,-51.270,-32.715,-21.484,118.164,61.523
1689274754.968,-50.293,-36.133,-1.465,89.355,-33.203
1689274754.983,-34.180,-20.020,-31.738,66.895,-157.227
1689274754.987,-45.898,-23.926,-43.945,92.285,3.906
1689274754.991,-55.176,-31.250,-27.832,108.398,8.301
1689274754.995,-43.945,-27.832,-18.066,58.105,-102.051
1689274754.999,-42.969,-27.832,-27.832,81.543,-133.301
1689274755.003,-46.387,-29.785,-33.691,114.258,244.629
1689274755.007,-41.016,-30.273,-26.367,98.145,356.445
1689274755.010,-40.527,-28.320,-29.785,79.590,-123.535
1689274755.014,-42.480,-26.855,-24.414,81.055,-172.363
1689274755.018,-33.203,-27.344,-20.508,99.121,61.523
1689274755.022,-29.785,-26.367,-26.855,82.031,-81.543
1689274755.026,-44.434,-21.484,-27.832,62.500,-231.934
1689274755.028,-43.945,-16.602,-23.438,7.812,-123.535
1689274755.032,-38.574,-23.926,-25.391,-36.621,57.129
1689274755.036,-23.926,-32.227,-18.555,99.121,-17.578
1689274755.040,-0.488,-29.297,-17.578,159.668,-142.578
1689274755.044,-28.320,-16.602,-27.832,95.215,-94.238
1689274755.048,-53.711,-10.742,-32.715,64.453,38.086
1689274755.052,-36.133,-10.254,-28.320,64.453,34.668
1689274755.055,-24.414,-7.324,-24.414,68.848,-88.379
1689274755.059,-45.410,-8.789,-34.180,55.664,-52.246
1689274755.063,-54.199,-14.648,-42.480,38.574,197.754
1689274755.067,-53.223,-13.672,-40.527,22.461,-37.598
1689274755.071,-66.406,-10.742,-35.156,6.348,-203.613
1689274755.073,-63.965,-11.230,-39.551,12.207,-102.539
1689274755.077,-62.012,-12.695,-41.992,16.113,-139.160
1689274755.081,-53.711,-11.230,-42.969,27.344,-200.684
1689274755.085,-46.875,-9.277,-36.621,28.320,-134.277
1689274755.089,-32.715,-10.742,-32.227,-5.859,203.125
1689274755.093,-25.391,-17.090,-38.086,5.371,297.363
1689274755.097,-33.691,-20.508,-33.691,40.527,-20.020
1689274755.100,-35.645,-19.043,-28.320,50.781,-94.727
1689274755.104,-50.781,-29.297,-31.738,58.594,122.559
1689274755.108,-46.875,-30.762,-29.297,61.523,92.773
1689274755.112,-36.621,-27.832,-24.414,51.758,-145.508
1689274755.116,-30.273,-28.809,-25.879,40.039,-182.617
1689274755.120,-33.691,-25.391,-28.809,32.227,-122.559
1689274755.124,-42.480,-25.391,-29.297,32.227,-145.020
1689274755.128,-33.691,-21.973,-29.297,35.156,-149.414
1689274755.132,-23.926,-23.438,-28.809,32.227,-73.242
1689274755.136,-29.785,-28.809,-30.273,14.648,-48.828
1689274755.140,-29.297,-23.926,-25.391,18.555,-20.996
1689274755.144,-21.484,-22.461,-19.043,33.691,-43.457
1689274755.147,-26.367,-25.879,-22.949,19.531,14.160
1689274755.151,-47.363,-26.855,-30.273,18.555,341.309
1689274755.155,-49.316,-28.809,-25.879,30.762,115.234
1689274755.159,-40.039,-29.297,-21.973,21.973,-177.734
1689274755.163,-49.805,-29.297,-26.855,7.324,-115.723
1689274755.163,-45.898,-25.391,-27.832,20.996,-118.652
1689274755.167,-28.809,-19.043,-27.344,14.648,-163.086
1689274755.171,-22.461,-21.484,-26.855,-2.930,-89.355
1689274755.175,-20.508,-26.855,-27.832,-7.812,157.227
1689274755.179,-10.254,-26.855,-30.762,11.719,18.555
1689274755.183,-20.508,-26.855,-26.855,10.254,-38.086
1689274755.187,-38.086,-28.320,-23.438,-6.348,-36.621
1689274755.190,-40.527,-30.273,-19.043,-7.324,152.832
1689274755.194,-37.598,-26.855,-24.414,-8.789,419.434
1689274755.198,-43.945,-25.391,-22.949,-10.742,3.418
1689274755.202,-50.781,-28.320,-19.531,-12.207,-218.750
1689274755.206,-39.062,-25.391,-20.020,0.000,-30.762
1689274755.239,-32.715,-25.391,-21.484,-11.230,-98.633
1689274755.243,-30.273,-21.484,-24.414,-25.391,-208.008
1689274755.247,-28.320,-21.484,-20.996,-21.973,-224.609
1689274755.251,-20.020,-30.762,-19.531,-12.207,-162.109
1689274755.255,-43.457,-26.855,-27.344,-23.438,-75.195
1689274755.259,-70.312,-19.531,-36.133,-63.965,-65.918
1689274755.263,-58.594,-23.438,-35.156,-81.055,28.809
1689274755.266,-47.852,-23.926,-33.691,-88.867,290.527
1689274755.270,-38.086,-24.902,-33.691,-57.129,-3.906
1689274755.274,-28.809,-19.043,-28.809,-30.273,-229.492
1689274755.278,-39.062,-13.672,-24.902,-18.066,-50.781
1689274755.282,-41.992,-20.996,-22.461,-24.414,36.621
1689274755.253,-32.227,-24.414,-20.508,-51.758,-111.816
1689274755.257,-37.598,-22.949,-21.973,-46.875,-195.801
1689274755.261,-45.410,-23.438,-27.344,-48.828,-20.996
1689274755.265,-32.715,-23.926,-28.320,-64.453,38.574
1689274755.269,-24.902,-21.973,-24.414,-69.336,-104.004
1689274755.273,-31.738,-19.531,-24.414,-42.969,-98.633
1689274755.277,-43.457,-27.344,-29.785,-35.645,130.859
1689274755.280,-54.199,-29.785,-27.832,-67.383,18.066
1689274755.284,-43.945,-28.320,-24.414,-62.500,-187.012
1689274755.288,-20.996,-31.250,-28.809,-59.570,-89.355
1689274755.292,-26.855,-27.344,-30.273,-67.383,25.391
1689274755.296,-42.969,-26.367,-27.832,-77.637,-81.543
1689274755.301,-46.387,-25.879,-36.133,-81.055,-140.625
1689274755.305,-46.875,-27.344,-30.273,-75.195,-8.789
1689274755.309,-46.387,-24.902,-21.484,-83.984,358.398
1689274755.313,-44.434,-22.461,-23.926,-72.754,343.750
1689274755.317,-34.180,-25.391,-25.879,-39.551,-123.047
1689274755.321,-31.738,-24.414,-25.879,-43.945,-33.203
1689274755.325,-29.297,-26.855,-24.902,-50.293,163.086
1689274755.328,-28.809,-25.879,-24.414,-73.242,-69.824
1689274755.332,-28.320,-25.879,-24.414,-86.426,-221.191
1689274755.336,-22.461,-22.949,-23.438,-67.871,-142.090
1689274755.340,-31.738,-23.438,-27.344,-73.730,-77.148
1689274755.344,-23.926,-30.762,-31.250,-68.848,-166.992
1689274755.358,-13.184,-23.926,-25.879,-75.684,-156.738
1689274755.362,-22.461,-18.066,-22.949,-62.500,-85.449
1689274755.366,-35.156,-22.461,-20.996,-41.992,-124.023
1689274755.370,-32.227,-24.902,-19.531,-53.223,-118.164
1689274755.374,-32.227,-26.367,-20.508,-68.848,-90.332
1689274755.378,-36.621,-22.461,-18.555,-62.012,269.043
1689274755.382,-41.992,-21.484,-18.066,-43.457,571.777
1689274755.385,-32.227,-20.508,-19.531,-49.805,86.426
1689274755.389,-32.227,-16.113,-22.949,-61.523,-208.984
1689274755.393,-48.828,-18.555,-22.949,-58.594,-89.355
1689274755.397,-48.828,-20.020,-18.555,-54.199,-123.047
1689274755.401,-44.434,-21.973,-21.973,-58.105,-172.363
1689274755.403,-37.598,-21.973,-27.832,-57.617,-216.309
1689274755.407,-23.438,-26.855,-23.438,-75.684,-180.664
1689274755.411,-35.156,-28.320,-26.367,-59.570,-119.141
1689274755.415,-51.758,-28.320,-26.855,-49.316,-121.582
1689274755.419,-55.176,-24.902,-22.949,-77.148,-78.125
1689274755.423,-47.363,-20.508,-28.809,-65.430,71.777
1689274755.427,-30.273,-21.484,-30.762,-66.406,75.684
1689274755.430,-43.457,-22.949,-24.414,-74.707,-9.277
1689274755.434,-39.062,-29.297,-21.484,-62.500,19.531
1689274755.438,-27.832,-28.809,-26.367,-66.895,292.969
1689274755.442,-50.781,-20.508,-31.738,-77.637,77.637
1689274755.446,-43.945,-23.438,-24.902,-67.871,-163.574
1689274755.448,-40.039,-31.738,-20.508,-85.449,-89.355
1689274755.452,-47.852,-33.203,-20.020,-76.172,-148.438
1689274755.456,-59.082,-29.785,-26.367,-77.148,-134.766
1689274755.460,-60.547,-25.879,-31.738,-98.145,-33.691
1689274755.464,-38.086,-24.414,-28.320,-83.008,101.562
1689274755.468,-34.180,-22.949,-25.879,-63.477,119.629
1689274755.472,-39.062,-22.949,-21.484,-60.059,-77.148
1689274755.475,-25.879,-23.926,-20.508,-61.523,-136.230
1689274755.479,-32.715,-24.414,-20.996,-41.016,64.941
1689274755.483,-43.457,-23.438,-16.602,-23.926,29.297
1689274755.487,-43.945,-20.996,-22.461,-21.973,-204.590
1689274755.491,-44.434,-26.367,-27.832,-64.941,-156.738
1689274755.493,-42.480,-28.320,-24.902,-72.266,-21.484
1689274755.497,-38.086,-18.066,-28.320,-54.688,-98.633
1689274755.501,-26.367,-16.113,-31.738,-74.707,-230.957
1689274755.505,-28.320,-15.137,-22.461,-66.406,-139.648
1689274755.509,-39.062,-19.043,-21.973,-49.316,240.723
1689274755.513,-36.621,-23.926,-23.926,-54.688,243.164
1689274755.517,-22.461,-20.508,-21.973,-68.848,-53.711
1689274755.520,-28.809,-27.832,-22.461,-54.199,-43.945
1689274755.524,-35.156,-28.809,-19.531,-56.152,219.238
1689274755.528,-34.668,-23.926,-22.461,-59.082,-28.320
1689274755.532,-27.832,-27.832,-21.484,-60.059,-199.707
1689274755.536,-24.902,-27.832,-19.531,-53.711,-60.059
1689274755.538,-33.203,-27.832,-24.414,-42.480,-63.965
1689274755.542,-33.691,-27.832,-18.555,-48.340,-187.500
1689274755.546,-36.133,-29.785,-19.043,-54.688,-160.156
1689274755.550,-32.715,-28.320,-23.438,-46.875,123.535
1689274755.554,-35.156,-22.949,-25.391,-58.105,42.969
1689274755.558,-50.293,-31.250,-27.344,-65.430,-172.363
1689274755.562,-50.781,-43.945,-25.879,-71.777,-76.172
1689274755.565,-41.016,-38.574,-27.832,-69.824,202.637
1689274755.569,-50.293,-24.902,-24.414,-41.504,222.656
1689274755.573,-52.734,-19.531,-18.066,-38.574,-131.836
1689274755.577,-45.410,-22.461,-22.461,-34.668,-185.059
1689274755.581,-43.945,-26.855,-24.902,-35.156,-81.055
1689274755.586,-39.551,-27.344,-25.879,-53.711,-119.629
1689274755.590,-38.086,-29.297,-26.367,-72.266,-159.668
1689274755.594,-32.715,-24.902,-22.461,-64.941,-55.664
1689274755.598,-33.203,-20.020,-20.508,-20.020,4.395
1689274755.602,-44.922,-26.367,-26.367,-32.227,-131.836
1689274755.606,-46.875,-36.133,-29.297,-41.016,-141.602
1689274755.610,-46.875,-37.109,-26.367,-25.391,68.848
1689274755.613,-46.875,-32.715,-26.855,-14.160,240.234
1689274755.617,-42.480,-29.785,-25.879,-23.926,-49.316
1689274755.621,-39.551,-28.809,-20.020,-50.781,-209.961
1689274755.625,-35.645,-30.273,-23.926,-47.852,-101.074
1689274755.629,-37.598,-24.414,-31.250,-57.617,-98.633
1689274755.632,-48.828,-27.832,-25.391,-37.598,-125.977
1689274755.636,-44.434,-30.273,-22.949,-23.438,3.418
1689274755.640,-39.551,-32.715,-20.508,-38.086,47.852
1689274755.644,-54.199,-32.227,-21.484,-54.199,17.578
1689274755.648,-54.199,-32.227,-29.785,-58.105,-1.953
1689274755.652,-24.414,-28.320,-33.203,-47.852,237.305
1689274755.655,-26.855,-29.297,-30.273,-41.504,414.551
1689274755.659,-48.828,-27.832,-29.785,-55.176,14.648
1689274755.663,-49.316,-28.809,-34.180,-58.594,-199.707
1689274755.667,-38.574,-29.297,-34.668,-53.711,-170.410
1689274755.671,-36.133,-26.367,-29.785,-49.316,-229.980
1689274755.675,-30.273,-31.250,-29.297,-51.758,-218.750
1689274755.679,-26.855,-32.227,-27.344,-51.758,-167.480
1689274755.683,-36.621,-30.273,-27.344,-37.109,-107.422
1689274755.687,-41.016,-34.180,-29.297,-39.062,-115.234
1689274755.691,-43.457,-32.715,-26.855,-57.129,-141.602
1689274755.695,-44.922,-25.879,-23.926,-61.035,-15.137
1689274755.699,-46.875,-24.902,-21.484,-40.039,151.367
1689274755.702,-45.410,-26.367,-21.973,-27.832,54.688
1689274755.706,-31.250,-21.973,-21.973,-47.363,-156.250
1689274755.710,-25.391,-21.973,-21.973,-61.035,-61.035
1689274755.714,-31.250,-24.902,-23.438,-36.621,83.984
1689274755.718,-43.945,-34.180,-23.438,-56.152,-167.969
1689274755.748,-36.621,-38.574,-23.926,-82.520,-227.539
1689274755.752,-38.086,-29.297,-26.855,-56.152,-56.641
1689274755.756,-41.504,-20.508,-24.902,-50.293,-6.348
1689274755.760,-40.527,-20.020,-23.926,-59.082,-36.621
1689274755.764,-41.992,-20.996,-28.809,-67.871,-119.629
1689274755.768,-36.621,-19.043,-24.414,-59.570,247.070
1689274755.772,-38.574,-12.695,-26.855,-57.129,480.469
1689274755.775,-36.621,-15.137,-33.203,-77.148,-10.254
1689274755.779,-36.133,-21.973,-30.762,-72.754,-180.176
1689274755.783,-46.875,-23.438,-29.297,-68.359,-64.453
1689274755.787,-48.340,-23.926,-27.832,-77.148,-113.770
1689274755.791,-44.922,-27.344,-24.902,-63.477,-152.832
1689274755.779,-37.598,-26.855,-24.902,-58.594,-88.867
1689274755.783,-32.715,-29.297,-26.855,-73.730,-10.254
1689274755.787,-22.949,-25.879,-26.367,-72.754,-136.719
1689274755.791,-14.160,-17.578,-23.926,-72.266,-183.105
1689274755.795,-27.832,-22.461,-23.926,-66.406,-68.848
1689274755.799,-39.062,-27.832,-27.344,-70.801,17.090
1689274755.803,-34.668,-27.832,-28.320,-67.383,3.418
1689274755.806,-38.086,-31.738,-29.297,-78.613,-103.516
1689274755.810,-50.293,-28.809,-31.738,-79.590,-80.566
1689274755.814,-50.293,-27.344,-29.785,-43.457,-39.551
1689274755.818,-44.922,-33.691,-27.344,-59.570,-132.812
1689274755.822,-37.598,-29.785,-22.461,-68.359,-181.152
1689274755.823,-31.250,-28.320,-21.973,-62.500,13.672
1689274755.827,-37.109,-37.598,-24.902,-54.688,336.914
1689274755.831,-24.902,-32.715,-26.367,-53.711,35.645
1689274755.835,-30.273,-27.344,-26.367,-69.824,-95.703
1689274755.839,-46.387,-28.809,-26.855,-78.125,155.273
1689274755.843,-49.805,-27.832,-30.762,-96.680,144.043
1689274755.847,-44.434,-26.855,-31.250,-66.406,23.926
1689274755.850,-41.016,-24.414,-27.344,-52.734,-29.297
1689274755.854,-34.180,-25.391,-25.391,-66.895,150.391
1689274755.858,-33.691,-22.949,-23.438,-69.336,12.695
1689274755.862,-50.293,-21.484,-23.438,-87.402,-229.980
1689274755.866,-52.246,-25.391,-23.438,-100.098,-114.258
1689274755.870,-49.805,-24.414,-24.902,-75.195,105.957
1689274755.874,-50.293,-22.461,-25.879,-80.566,-13.672
1689274755.878,-42.480,-23.926,-26.855,-93.262,-101.562
1689274755.882,-46.875,-27.344,-26.855,-68.848,-114.258
1689274755.886,-36.133,-25.391,-23.926,-65.918,-61.035
1689274755.890,-42.480,-26.367,-20.020,-92.285,0.488
1689274755.894,-55.664,-28.809,-20.508,-74.707,-116.211
1689274755.897,-45.898,-22.461,-28.809,-59.570,-80.566
1689274755.901,-20.508,-19.043,-32.715,-39.062,245.605
1689274755.905,-5.859,-21.973,-27.344,-20.020,-17.090
1689274755.909,-37.109,-27.344,-20.020,-52.246,-223.633
1689274755.913,-55.176,-31.250,-15.137,-64.453,-92.285
1689274755.913,-37.109,-28.809,-12.695,-54.199,-120.605
1689274755.917,-47.363,-27.832,-9.766,-47.363,-172.852
1689274755.921,-58.594,-32.227,-8.789,-53.223,-163.086
1689274755.925,-40.527,-34.180,-6.348,-73.730,104.004
1689274755.929,-46.875,-40.039,-1.953,-48.828,98.633
1689274755.933,-67.383,-51.758,-6.836,-46.387,-68.359
1689274755.937,-73.730,-47.852,-4.395,-59.082,-81.543
1689274755.940,-70.312,-46.875,0.977,-24.902,219.238
1689274755.944,-62.988,-51.270,0.000,-16.113,389.160
1689274755.948,-72.754,-49.805,5.859,-43.945,7.812
1689274755.952,-82.520,-45.410,8.789,-42.480,-114.258
1689274755.956,-68.848,-44.434,5.371,-30.762,-105.957
1689274755.960,-63.965,-47.852,9.277,-43.945,-207.031
1689274755.964,-75.684,-46.875,8.789,-53.711,-205.566
1689274755.968,-68.848,-46.387,-1.465,-46.387,-105.469
1689274755.972,-62.012,-47.363,-5.859,-30.762,-19.531
1689274755.976,-45.410,-42.969,-7.324,-18.555,-105.957
1689274755.980,-37.598,-40.527,-5.859,-41.504,-91.309
1689274755.984,-49.805,-42.969,-12.695,-52.246,81.543
1689274755.987,-42.969,-41.504,-16.602,-21.973,353.516
1689274755.991,-36.133,-42.480,-15.625,-17.578,76.660
1689274755.995,-34.180,-43.457,-21.484,-43.457,-208.984
1689274755.999,-27.344,-43.457,-23.926,-47.363,-129.883
1689274756.003,-44.434,-42.480,-24.902,-50.781,-122.070
1689274756.003,-51.758,-42.969,-25.879,-38.086,-155.273
1689274756.007,-60.059,-43.457,-23.926,-27.344,-154.785
1689274756.011,-65.430,-41.992,-20.508,-42.480,-64.941
1689274756.015,-40.527,-41.016,-23.926,-46.875,-5.371
1689274756.019,-42.969,-38.574,-24.902,-47.852,-129.395
1689274756.023,-48.828,-36.621,-23.926,-58.105,-45.410
1689274756.027,-42.480,-36.133,-25.879,-61.035,332.520
1689274756.030,-58.105,-39.062,-28.320,-63.477,432.129
1689274756.034,-54.688,-29.785,-24.414,-65.430,-26.855
1689274756.038,-36.133,-24.902,-18.555,-47.363,-169.434
1689274756.042,-32.227,-23.438,-21.484,-34.180,21.484
1689274756.046,-38.086,-21.973,-23.438,-39.062,-101.074
1689274756.063,-36.133,-25.391,-24.414,-41.992,-204.590
1689274756.067,-35.645,-25.391,-21.973,-29.785,-155.762
1689274756.071,-33.691,-25.879,-18.066,-30.273,-105.957
1689274756.075,-30.762,-25.879,-17.578,-22.461,-88.379
1689274756.079,-33.691,-19.531,-22.949,-26.367,-122.070
1689274756.083,-29.785,-19.043,-27.344,-44.434,-32.715
1689274756.087,-30.273,-21.973,-27.344,-45.410,180.664
1689274756.090,-37.109,-20.020,-24.414,-41.016,18.066
1689274756.094,-32.227,-20.020,-20.996,-35.156,-196.777
1689274756.098,-28.809,-24.902,-21.973,-22.461,-75.684
1689274756.102,-29.785,-29.785,-23.438,-19.531,23.438
1689274756.106,-38.086,-26.855,-23.926,-44.434,-99.609
1689274756.108,-33.203,-21.484,-23.926,-55.176,-53.223
1689274756.112,-34.668,-25.391,-30.273,-53.223,68.359
1689274756.116,-37.598,-31.250,-30.273,-73.730,41.504
1689274756.120,-23.438,-26.367,-23.438,-83.984,3.906
1689274756.124,-20.996,-25.391,-21.484,-48.828,-60.547
1689274756.128,-36.133,-30.273,-26.855,-14.160,149.902
1689274756.132,-29.785,-27.832,-23.926,-27.344,187.012
1689274756.135,-18.555,-28.809,-24.414,-50.293,-135.742
1689274756.139,-39.551,-28.320,-31.250,-48.828,-173.340
1689274756.143,-48.340,-28.320,-32.227,-44.434,133.789
1689274756.147,-41.992,-29.785,-33.203,-43.457,105.469
1689274756.151,-36.133,-25.879,-31.738,-53.223,-205.566
1689274756.153,-27.344,-23.926,-28.809,-48.828,-171.387
1689274756.157,-34.668,-26.855,-26.855,-26.855,-97.656
1689274756.161,-40.527,-31.738,-25.879,-39.551,-137.695
1689274756.165,-30.762,-32.715,-27.344,-65.918,-145.996
1689274756.169,-24.414,-26.855,-31.250,-51.270,-104.980
1689274756.173,-24.902,-26.367,-27.344,-28.320,120.605
1689274756.177,-44.922,-29.297,-17.578,-50.781,83.008
1689274756.180,-64.941,-31.738,-20.508,-65.918,-190.430
1689274756.184,-47.363,-34.180,-18.066,-69.824,-141.602
1689274756.188,-50.781,-36.621,-16.602,-66.895,191.895
1689274756.192,-51.270,-38.574,-24.414,-49.805,4.395
1689274756.196,-52.734,-37.598,-17.578,-55.664,-141.602
1689274756.198,-53.711,-40.039,-17.578,-64.453,-29.297
1689274756.202,-37.598,-41.504,-18.555,-32.227,-114.258
1689274756.206,-38.086,-38.086,-17.090,-22.461,-198.242
1689274756.210,-37.109,-30.762,-17.578,-25.391,-67.871
1689274756.214,-42.969,-35.156,-20.996,-42.969,151.855
1689274756.218,-52.734,-38.086,-24.414,-42.969,73.730
1689274756.222,-46.875,-31.738,-28.320,-38.086,-74.707
1689274756.225,-54.199,-32.715,-30.273,-52.734,-94.727
1689274756.229,-50.781,-36.133,-26.855,-49.316,161.133
1689274756.233,-41.016,-35.156,-25.391,-45.898,295.898
1689274756.237,-40.039,-29.785,-31.250,-59.570,-57.617
1689274756.241,-34.668,-29.785,-33.203,-51.270,-185.547
1689274756.243,-40.039,-42.969,-28.320,-32.715,-135.742
1689274756.247,-36.133,-44.922,-27.832,-25.391,-125.000
1689274756.251,-25.391,-31.738,-25.391,-43.945,-87.891
1689274756.255,-32.227,-21.973,-25.879,-50.781,-82.520
1689274756.259,-34.180,-18.555,-25.391,-30.762,-92.285
1689274756.263,-17.578,-16.602,-24.414,-31.250,-21.484
1689274756.267,-14.648,-19.531,-21.973,-52.734,10.742
1689274756.270,-22.949,-25.879,-20.996,-53.711,100.098
1689274756.274,-28.320,-28.320,-20.996,-39.551,404.785
1689274756.278,-35.156,-27.832,-24.414,-30.273,76.172
1689274756.282,-26.855,-29.297,-23.438,-26.855,-232.910
1689274756.286,-39.551,-33.203,-27.344,-28.320,-58.594
1689274756.288,-51.270,-30.273,-29.297,-31.738,-71.777
1689274756.292,-38.574,-25.391,-29.785,-19.531,-122.559
1689274756.296,-35.156,-25.879,-30.762,-14.160,-143.066
1689274756.300,-42.969,-28.320,-29.297,-28.320,27.832
1689274756.304,-40.527,-34.668,-26.855,-41.016,24.902
1689274756.308,-43.945,-37.109,-27.832,-40.527,-79.590
1689274756.312,-38.086,-32.715,-26.855,-44.922,-47.852
1689274756.315,-22.461,-32.227,-27.344,-39.062,169.434
1689274756.319,-25.879,-35.156,-27.832,-54.688,191.895
1689274756.323,-22.461,-35.156,-32.715,-57.617,-170.410
1689274756.327,-24.902,-35.156,-38.574,-40.527,-52.246
1689274756.331,-28.320,-32.715,-33.691,-26.855,119.141
1689274756.335,-15.137,-29.297,-26.855,-20.508,-123.535
1689274756.339,-15.625,-29.785,-24.902,-31.250,-244.141
1689274756.343,-27.344,-30.762,-25.391,-47.852,-150.391
1689274756.347,-21.484,-28.320,-28.320,-69.824,-60.059
1689274756.351,-25.391,-22.461,-21.484,-67.871,-80.078
1689274756.355,-38.086,-22.949,-21.973,-60.059,-49.316
1689274756.359,-38.574,-21.484,-34.180,-46.387,62.012
1689274756.362,-37.109,-19.531,-30.762,-28.320,247.070
1689274756.366,-31.250,-23.438,-21.973,-22.949,31.738
1689274756.370,-33.691,-27.832,-21.484,-31.738,-170.410
1689274756.374,-36.621,-28.809,-26.855,-33.203,-152.344
1689274756.378,-33.691,-24.414,-31.250,-33.203,-158.203
1689274756.379,-45.898,-22.461,-32.227,-29.785,-95.703
1689274756.383,-45.410,-24.414,-33.203,-36.133,-96.680
1689274756.387,-31.738,-29.785,-33.691,-56.641,-9.277
1689274756.391,-41.504,-36.133,-29.297,-37.598,105.469
1689274756.395,-30.762,-35.645,-17.090,-3.906,-62.012
1689274756.399,-8.301,-31.738,-16.113,11.230,-133.301
1689274756.403,-25.879,-25.879,-21.973,-28.809,229.980
1689274756.406,-28.809,-18.066,-24.902,-35.156,425.781
1689274756.410,-23.926,-15.625,-32.227,-42.480,-18.555
1689274756.414,-35.156,-20.508,-33.691,-53.711,-225.586
1689274756.418,-38.086,-22.461,-33.203,-42.969,-144.531
1689274756.422,-38.574,-22.949,-31.250,-55.664,-171.875
1689274756.425,-29.785,-24.414,-31.250,-38.086,-180.664
1689274756.429,-21.973,-27.832,-33.691,6.836,-140.625
1689274756.433,-18.555,-26.367,-26.855,-10.254,-140.625
1689274756.437,-30.273,-25.879,-29.785,-42.480,-125.977
1689274756.441,-45.410,-29.785,-33.691,-49.316,-133.301
1689274756.445,-44.922,-29.785,-30.762,-34.180,34.668
1689274756.449,-31.738,-25.879,-35.645,-41.016,480.469
1689274756.452,-28.809,-23.438,-39.551,-53.223,177.734
1689274756.456,-24.902,-27.832,-41.992,-39.551,-215.332
1689274756.460,-15.137,-26.367,-39.062,-41.992,-79.102
1689274756.464,-20.996,-18.555,-35.645,-36.621,-31.250
1689274756.468,-37.598,-21.973,-34.668,-26.855,-151.367
1689274756.483,-24.414,-32.227,-36.133,-36.133,-183.105
1689274756.487,-27.344,-29.785,-30.762,-24.414,-125.977
1689274756.491,-41.504,-27.832,-26.855,-49.316,-121.582
1689274756.495,-39.551,-28.809,-28.320,-63.965,-110.840
1689274756.499,-39.062,-23.438,-24.414,-11.230,-73.242
1689274756.503,-40.527,-25.879,-28.809,0.000,291.016
1689274756.507,-39.551,-26.855,-30.762,-2.930,423.828
1689274756.510,-22.949,-20.508,-26.855,-20.020,-65.918
1689274756.514,-28.809,-20.508,-27.344,-70.801,-169.922
1689274756.518,-30.273,-22.949,-25.879,-51.758,117.676
1689274756.522,-30.273,-28.320,-28.320,-23.926,-37.109
1689274756.526,-38.086,-23.926,-31.250,-28.809,-266.113
1689274756.528,-51.270,-21.484,-27.344,-16.113,-170.898
1689274756.532,-58.594,-24.902,-23.438,-30.273,-86.426
1689274756.536,-29.297,-28.809,-27.832,-38.086,-112.793
1689274756.540,-29.785,-31.250,-26.855,-23.438,-148.438
1689274756.544,-49.805,-33.691,-22.949,-23.926,-95.215
1689274756.548,-19.043,-39.062,-17.090,-9.277,-18.066
1689274756.552,1.465,-34.668,-12.695,14.648,41.504
1689274756.555,-34.180,-20.996,-23.926,-38.574,-43.457
1689274756.559,-48.340,-16.113,-33.691,-62.012,15.137
1689274756.563,-35.156,-22.461,-30.762,-33.691,351.074
1689274756.567,-34.668,-30.762,-34.668,-47.363,144.043
1689274756.571,-31.250,-29.297,-41.992,-59.570,-135.742
1689274756.574,-37.598,-19.531,-37.109,-56.152,-97.656
1689274756.578,-51.758,-14.160,-33.203,-47.363,-134.766
1689274756.582,-56.152,-16.602,-40.527,-39.062,-156.738
1689274756.586,-49.805,-32.227,-38.086,-33.691,-101.562
1689274756.590,-35.645,-34.180,-32.715,-38.574,76.660
1689274756.594,-44.434,-32.715,-30.273,-79.102,75.195
1689274756.598,-66.406,-37.598,-32.227,-90.820,-106.445
1689274756.601,-63.965,-22.949,-37.109,-78.613,-133.789
1689274756.605,-47.363,-12.695,-37.109,-40.039,118.164
1689274756.609,-41.504,-14.648,-33.203,-15.625,75.195
1689274756.613,-27.832,-19.043,-31.250,-61.523,-189.941
1689274756.617,-12.207,-19.531,-35.156,-45.410,-93.262
1689274756.618,-27.344,-20.996,-36.621,-51.758,-49.805
1689274756.622,-36.621,-24.902,-39.062,-67.871,-194.336
1689274756.626,-27.344,-32.227,-37.109,-43.945,-216.797
1689274756.630,-36.133,-34.668,-36.133,-39.551,-156.738
1689274756.634,-55.176,-35.645,-40.527,-43.457,-86.426
1689274756.638,-60.547,-32.227,-38.086,-43.945,-17.578
1689274756.642,-45.898,-29.785,-31.250,-38.574,-104.980
1689274756.645,-32.715,-24.414,-33.203,-29.297,-49.316
1689274756.649,-44.434,-22.949,-27.832,-29.297,91.797
1689274756.653,-46.387,-23.926,-20.508,-36.133,-75.195
1689274756.657,-31.738,-14.160,-24.414,-25.879,-161.133
1689274756.661,-37.109,-13.184,-28.809,-18.555,-103.516
1689274756.664,-28.809,-17.090,-35.156,-35.156,-62.012
1689274756.668,-27.832,-23.926,-30.762,-33.203,-66.895
1689274756.672,-39.551,-28.320,-25.391,-23.926,-52.246
1689274756.676,-34.668,-25.391,-35.645,-36.133,185.547
1689274756.680,-37.109,-23.438,-37.598,-48.828,196.289
1689274756.684,-44.434,-22.461,-27.344,-37.598,-51.758
1689274756.688,-39.062,-22.461,-24.902,-48.828,-28.809
1689274756.691,-27.832,-32.227,-24.414,-59.570,197.754
1689274756.695,-28.809,-35.156,-29.785,-17.578,151.855
1689274756.699,-30.273,-21.973,-32.227,-11.719,-222.168
1689274756.703,-38.574,-20.508,-28.809,-32.227,-220.703
1689274756.707,-38.574,-23.926,-31.250,-39.551,-59.570
1689274756.710,-36.621,-23.438,-27.344,-20.508,-77.637
1689274756.714,-52.246,-30.273,-23.926,-38.574,-149.902
1689274756.718,-50.293,-27.832,-24.902,-69.824,-149.902
1689274756.722,-32.715,-21.484,-24.414,-32.715,-50.293
1689274756.726,-35.645,-25.879,-23.438,-29.785,29.785
1689274756.730,-44.922,-24.902,-23.438,-47.852,39.062
1689274756.734,-40.039,-24.414,-31.738,-37.109,100.098
1689274756.737,-49.316,-28.809,-33.203,-44.922,325.684
1689274756.741,-50.293,-24.902,-30.273,-48.340,86.426
1689274756.745,-33.691,-25.879,-24.902,-32.715,-245.605
1689274756.749,-26.855,-30.762,-24.414,-12.207,-172.852
1689274756.753,-27.344,-25.879,-26.855,-20.996,-124.512
1689274756.754,-32.715,-25.391,-24.902,-32.227,-189.453
1689274756.758,-40.039,-29.297,-26.367,-51.758,-176.758
1689274756.762,-37.598,-23.438,-24.902,-41.016,-44.922
1689274756.766,-28.320,-20.020,-23.438,-14.160,1.953
1689274756.770,-23.926,-26.367,-26.855,-44.434,-54.199
1689274756.774,-35.645,-29.297,-28.809,-46.387,23.438
1689274756.778,-43.945,-20.508,-29.297,-25.391,291.504
1689274756.781,-47.363,-22.949,-29.297,-18.066,501.465
1689274756.785,-42.480,-34.668,-25.391,-19.043,103.027
1689274756.789,-9.277,-32.715,-22.949,1.953,-173.828
1689274756.793,-23.438,-21.973,-26.855,-22.949,-143.066
1689274756.797,-41.016,-18.555,-41.992,-55.664,-217.773
1689274756.800,-28.809,-15.137,-45.410,-38.574,-225.586
1689274756.804,-42.480,-15.625,-41.992,-58.105,-147.949
1689274756.808,-58.105,-18.066,-45.898,-94.238,-61.035
1689274756.812,-62.500,-16.113,-45.898,-87.891,-129.883
1689274756.816,-54.199,-14.160,-48.828,-87.402,-182.617
1689274756.820,-40.527,-13.184,-49.316,-76.172,-88.379
1689274756.824,-44.922,-15.137,-41.016,-50.781,35.156
1689274756.827,-54.199,-26.855,-37.598,-59.082,-73.730
1689274756.831,-50.781,-34.668,-37.598,-49.805,-121.582
1689274756.835,-34.668,-30.273,-41.016,-37.598,37.598
1689274756.839,-37.598,-27.832,-42.969,-44.922,224.121
1689274756.843,-46.875,-20.996,-41.016,-39.062,10.742
1689274756.858,-32.227,-18.066,-37.598,-37.109,-144.043
1689274756.862,-16.113,-23.438,-33.203,-58.594,-84.961
1689274756.866,-24.902,-24.414,-29.785,-56.152,-101.562
1689274756.870,-39.551,-30.762,-31.250,-58.594,-114.258
1689274756.874,-43.457,-36.133,-29.785,-55.664,-143.066
1689274756.878,-46.387,-33.691,-24.902,-32.715,167.480
1689274756.882,-39.551,-35.645,-31.250,-54.688,373.535
1689274756.885,-22.949,-33.691,-41.992,-60.059,-54.688
1689274756.889,-31.250,-35.156,-37.598,-61.523,-227.539
1689274756.893,-44.922,-37.598,-30.273,-80.078,-1.465
1689274756.897,-33.203,-31.738,-27.344,-25.391,2.930
1689274756.901,-27.344,-31.738,-28.320,-5.371,-68.848
1689274756.904,-28.320,-33.691,-30.273,-36.133,-80.566
1689274756.908,-41.992,-27.344,-25.879,-48.340,-22.949
1689274756.912,-35.645,-24.902,-23.926,-53.223,-85.938
1689274756.916,-21.973,-25.879,-29.297,-52.734,-136.230
1689274756.920,-26.855,-33.203,-32.227,-43.945,-78.613
1689274756.924,-26.855,-32.227,-32.227,-32.227,8.301
1689274756.928,-25.879,-27.832,-31.250,-28.320,53.711
1689274756.931,-33.203,-35.645,-30.762,-49.316,-66.406
1689274756.935,-32.715,-29.297,-33.203,-52.734,-56.641
1689274756.939,-28.809,-20.020,-29.785,-38.574,269.531
1689274756.943,-28.809,-23.438,-20.996,-35.645,-4.883
1689274756.947,-35.156,-28.809,-19.531,-37.598,-225.586
1689274756.949,-24.902,-32.227,-22.949,-49.805,-89.844
1689274756.953,-16.113,-32.227,-22.949,-62.988,-12.207
1689274756.957,-35.645,-30.762,-19.531,-49.316,36.133
1689274756.961,-40.527,-27.344,-23.926,-21.484,-49.316
1689274756.965,-28.809,-25.391,-25.879,-34.180,40.527
1689274756.969,-27.344,-27.344,-21.973,-25.879,148.438
1689274756.973,-17.578,-29.297,-18.066,2.441,-34.180
1689274756.976,-21.973,-17.090,-20.996,-24.414,-178.223
1689274756.980,-46.875,-14.648,-28.320,-51.270,78.125
1689274756.984,-42.480,-20.020,-27.344,-35.645,208.496
1689274756.988,-21.484,-12.695,-30.273,-48.828,-100.098
1689274756.992,-47.363,-13.184,-34.668,-55.664,-138.672
1689274757.008,-50.293,-16.113,-33.691,-39.551,-95.215
1689274757.012,-43.457,-14.160,-36.133,-52.246,-136.230
1689274757.016,-60.059,-17.578,-35.156,-69.336,-191.406
1689274757.020,-43.945,-24.902,-33.203,-58.105,-151.367
1689274757.024,-22.949,-30.762,-28.809,-51.758,-53.711
1689274757.028,-34.668,-31.250,-25.879,-66.895,-14.648
1689274757.032,-42.480,-28.809,-27.344,-66.406,-25.879
1689274757.035,-29.785,-30.762,-30.273,-67.383,-82.031
1689274757.039,-14.648,-28.320,-32.715,-52.734,254.883
1689274757.043,-33.691,-23.926,-30.762,-33.691,142.578
1689274757.047,-46.875,-22.949,-30.762,-36.621,-167.480
1689274757.051,-33.203,-30.762,-27.832,-38.574,-40.039
1689274757.038,-17.578,-35.645,-29.297,-36.621,-28.809
1689274757.042,-13.672,-35.645,-29.785,-26.855,-165.039
1689274757.046,-18.555,-37.598,-25.391,-29.297,-79.102
1689274757.050,-29.785,-38.574,-27.344,-51.270,127.930
1689274757.054,-33.203,-30.762,-26.855,-50.293,-8.301
1689274757.058,-26.367,-24.902,-27.832,-34.180,-104.980
1689274757.062,-37.109,-28.320,-38.574,-34.180,15.137
1689274757.065,-27.832,-30.273,-40.039,-39.551,287.109
1689274757.069,-6.836,-30.762,-38.086,-52.246,150.879
1689274757.073,-29.785,-31.738,-30.762,-38.574,-171.875
1689274757.077,-54.688,-22.949,-23.438,-46.387,-214.355
1689274757.081,-47.852,-21.973,-23.926,-57.617,88.867
1689274757.085,-34.668,-26.855,-28.809,-42.969,165.039
1689274757.089,-40.039,-24.902,-32.227,-48.828,-174.316
1689274757.093,-48.340,-27.344,-30.273,-56.641,-168.945
1689274757.097,-35.156,-30.762,-30.273,-64.453,-90.332
1689274757.101,-13.672,-32.715,-32.227,-53.711,-142.090
1689274757.105,-19.531,-30.273,-31.738,-37.109,-123.047
1689274757.109,-35.645,-20.020,-26.855,-24.414,53.223
1689274757.112,-39.062,-21.973,-22.461,-12.695,279.785
1689274757.116,-37.598,-28.809,-26.855,-28.320,38.086
1689274757.120,-31.738,-28.809,-28.320,-46.387,-112.793
1689274757.124,-25.879,-26.367,-27.344,-53.711,-17.578
1689274757.128,-38.574,-27.344,-35.645,-50.781,19.531
1689274757.129,-41.504,-21.973,-32.715,-39.062,-112.305
1689274757.133,-24.902,-20.996,-31.250,-36.621,-208.008
1689274757.137,-29.297,-34.180,-32.227,-40.039,-140.625
1689274757.141,-30.273,-30.762,-27.832,-33.203,6.348
1689274757.145,-29.785,-22.949,-24.414,-18.555,-37.598
1689274757.149,-37.109,-24.414,-26.367,-27.832,-66.895
1689274757.153,-41.992,-28.809,-28.809,-25.879,157.715
1689274757.156,-41.992,-30.762,-25.391,-31.250,335.449
1689274757.160,-41.016,-23.438,-23.926,-41.992,-43.457
1689274757.164,-45.410,-21.484,-27.832,-43.945,-255.371
1689274757.168,-40.527,-25.391,-30.762,-45.898,-118.164
1689274757.172,-27.344,-31.250,-30.762,-41.504,-76.660
1689274757.176,-36.133,-32.227,-29.785,-62.988,-171.875
1689274757.180,-47.852,-28.809,-27.832,-55.176,-165.527
1689274757.184,-30.762,-24.902,-21.973,-28.809,23.438
1689274757.188,-13.672,-20.508,-22.461,-20.020,-63.477
1689274757.192,-16.113,-21.973,-27.344,-27.344,-175.293
1689274757.196,-33.203,-30.762,-27.344,-47.852,32.227
1689274757.200,-45.410,-31.250,-23.926,-40.527,168.457
1689274757.203,-24.902,-26.855,-27.344,-16.113,-59.570
1689274757.207,-18.066,-26.855,-33.691,-28.809,-164.062
1689274757.211,-34.180,-31.250,-29.785,-41.992,-86.426
1689274757.215,-32.715,-20.020,-27.344,-33.691,-43.945
1689274757.219,-13.672,-12.207,-28.809,-14.160,-140.137
1689274757.233,-6.348,-18.066,-27.832,-10.254,-151.367
1689274757.237,-27.832,-20.996,-23.438,-33.203,-24.902
1689274757.241,-33.691,-22.949,-21.973,-51.758,68.359
1689274757.245,-28.320,-24.902,-18.066,-36.621,18.066
1689274757.249,-20.996,-20.996,-21.973,-23.438,-115.723
1689274757.253,-19.043,-19.531,-27.832,-30.762,193.848
1689274757.257,-32.715,-21.484,-25.879,-18.066,555.176
1689274757.260,-32.227,-25.879,-27.832,-24.414,97.168
1689274757.264,-31.250,-26.367,-31.738,-21.484,-218.750
1689274757.268,-39.062,-26.367,-25.391,-38.574,-84.473
1689274757.272,-42.969,-31.250,-20.508,-45.410,-125.000
1689274757.276,-48.828,-26.855,-20.020,-40.039,-161.133
1689274757.278,-50.293,-24.414,-23.438,-44.922,-141.602
1689274757.282,-59.082,-32.715,-28.320,-63.965,-112.305
1689274757.286,-54.199,-33.691,-22.949,-52.734,-148.438
1689274757.290,-26.855,-33.203,-23.926,-18.555,-190.430
1689274757.294,-4.395,-29.785,-25.879,-15.137,-89.844
1689274757.298,-24.414,-26.367,-30.762,-23.926,92.773
1689274757.302,-47.363,-23.926,-28.320,-28.320,27.832
1689274757.305,-44.922,-18.066,-25.879,-48.828,-145.508
1689274757.309,-47.363,-23.926,-28.809,-64.453,-53.711
1689274757.313,-39.062,-37.598,-22.949,-40.039,251.465
1689274757.317,-26.367,-37.109,-25.391,-39.551,-6.348
1689274757.321,-34.668,-25.879,-32.715,-73.242,-201.660
1689274757.323,-26.367,-20.020,-33.691,-73.242,-98.145
1689274757.327,-30.273,-20.020,-29.785,-47.363,-139.160
1689274757.331,-52.246,-19.043,-30.273,-39.551,-137.695
1689274757.335,-44.922,-16.602,-34.668,-47.363,-9.766
1689274757.339,-46.387,-14.648,-40.039,-52.246,112.793
1689274757.343,-24.902,-14.160,-41.504,-50.781,104.492
1689274757.347,-15.137,-10.742,-38.086,-69.824,37.598
1689274757.350,-62.500,-13.672,-37.109,-71.289,-2.930
1689274757.354,-57.129,-20.020,-39.551,-28.320,179.688
1689274757.358,-37.598,-23.438,-45.410,-49.316,224.121
1689274757.362,-37.598,-22.949,-47.363,-119.629,-180.664
1689274757.366,-33.203,-24.902,-39.062,-98.145,-243.652
1689274757.368,-36.133,-27.344,-38.086,-50.781,-121.582
1689274757.372,-43.945,-26.367,-41.504,-49.805,-120.605
1689274757.376,-40.039,-26.367,-41.992,-53.711,-161.621
1689274757.380,-31.738,-25.391,-36.621,-51.270,-127.930
1689274757.384,-30.762,-20.996,-34.668,-57.617,-24.902
1689274757.388,-26.367,-22.461,-39.062,-47.363,17.578
1689274757.392,-30.273,-25.879,-35.156,-41.504,18.555
1689274757.395,-24.902,-21.484,-31.250,-42.480,23.926
1689274757.399,-13.184,-16.113,-33.691,-28.320,137.207
1689274757.403,-20.508,-19.531,-39.062,-36.621,33.691
1689274757.407,-33.203,-23.438,-40.039,-31.738,-110.352
1689274757.411,-46.875,-20.996,-41.992,-36.133,15.137
1689274757.413,-41.504,-17.578,-36.621,-58.594,159.668
1689274757.417,-22.949,-19.043,-29.785,-43.945,-58.594
1689274757.421,-22.949,-24.414,-24.902,-41.992,-133.301
1689274757.425,-25.391,-31.738,-23.438,-54.688,86.914
1689274757.429,-29.297,-30.762,-31.250,-64.941,44.434
1689274757.433,-23.438,-27.344,-31.738,-52.246,-119.141
1689274757.437,-33.691,-25.879,-26.367,-53.711,-72.266
1689274757.440,-38.086,-28.320,-27.832,-65.918,111.816
1689274757.444,-22.949,-28.809,-30.273,-58.105,84.473
1689274757.448,-20.020,-25.391,-25.391,-53.223,-183.594
1689274757.452,-19.531,-18.555,-34.668,-47.363,-200.684
1689274757.456,-39.062,-25.391,-34.668,-45.898,-80.078
1689274757.460,-31.738,-31.738,-28.320,-33.203,-41.016
1689274757.464,-20.020,-33.203,-23.926,-41.504,-170.898
1689274757.468,-31.250,-33.203,-24.902,-53.711,-126.953
1689274757.472,-36.133,-28.809,-28.809,-29.785,18.066
1689274757.476,-39.551,-22.949,-20.020,-30.273,-97.656
1689274757.480,-34.668,-27.344,-20.020,-45.410,-149.902
1689274757.484,-28.809,-34.180,-29.785,-57.617,0.488
1689274757.487,-31.250,-27.344,-31.250,-55.176,293.457
1689274757.491,-40.039,-19.531,-28.809,-25.391,54.688
1689274757.495,-33.691,-20.020,-29.785,-22.949,-177.246
1689274757.499,-31.738,-25.391,-31.738,-29.297,-62.012
1689274757.503,-47.852,-29.785,-28.809,-38.574,-18.066
1689274757.504,-45.410,-23.926,-24.902,-53.711,-72.266
1689274757.508,-21.484,-23.926,-20.996,-38.086,-87.891
1689274757.512,-14.648,-26.367,-19.043,-13.184,53.223
1689274757.516,-26.855,-25.879,-26.855,-26.367,67.871
1689274757.520,-27.344,-31.738,-25.879,-47.852,-8.301
1689274757.524,-23.438,-28.320,-26.855,-45.898,46.875
1689274757.528,-25.391,-17.090,-35.156,-32.715,301.270
1689274757.531,-40.527,-14.648,-26.367,-41.992,435.547
1689274757.535,-37.598,-16.602,-26.367,-44.922,23.926
1689274757.539,-21.973,-17.090,-28.320,-44.922,-234.863
1689274757.543,-10.742,-26.367,-20.508,-24.414,-169.922
1689274757.547,2.441,-24.902,-22.949,-8.301,-173.340
1689274757.550,-19.531,-7.812,-27.832,-35.645,-189.453
1689274757.554,-39.551,-4.395,-34.668,-29.297,-191.895
1689274757.558,-30.762,-16.602,-36.133,-22.461,-194.824
1689274757.562,-19.531,-13.184,-32.227,-55.176,-187.012
1689274757.566,-24.902,-6.836,-32.715,-84.961,-181.152
1689274757.570,-24.414,-12.695,-27.344,-50.293,13.184
1689274757.574,-32.715,-10.254,-33.691,-40.527,402.832
1689274757.577,-45.410,-12.695,-36.133,-76.660,147.949
1689274757.581,-44.922,-21.973,-28.809,-59.082,-209.961
1689274757.585,-35.645,-25.879,-23.926,-42.480,-88.379
1689274757.589,-30.273,-24.414,-25.879,-28.320,-30.273
1689274757.593,-35.156,-20.508,-33.203,-44.434,-186.523
1689274757.608,-30.762,-17.090,-25.879,-66.406,-223.633
1689274757.612,-14.648,-17.578,-19.531,-57.617,-136.719
1689274757.616,-13.184,-19.531,-20.996,-64.453,-50.293
1689274757.620,-23.926,-21.973,-21.973,-75.684,-32.227
1689274757.624,-44.922,-27.832,-28.809,-61.523,-126.953
1689274757.628,-51.758,-32.715,-29.785,-43.945,151.855
1689274757.632,-36.133,-28.320,-26.855,-40.039,298.340
1689274757.635,-29.297,-20.996,-24.414,-46.387,-34.668
1689274757.639,-25.391,-16.602,-24.414,-55.176,-179.199
1689274757.643,-23.926,-21.973,-21.973,-45.410,142.578
1689274757.647,-30.273,-22.949,-25.879,-34.668,187.988
1689274757.651,-12.695,-20.020,-26.367,-45.898,-167.480
1689274757.653,-2.441,-23.438,-22.461,-48.340,-179.199
1689274757.657,-19.043,-25.391,-29.297,-42.969,-129.883
1689274757.661,-41.016,-23.438,-32.715,-50.781,-187.988
1689274757.665,-40.039,-21.973,-36.621,-59.082,-200.195
1689274757.669,-38.574,-25.391,-39.062,-51.758,-137.695
1689274757.673,-43.457,-30.762,-35.645,-45.410,-37.598
1689274757.677,-26.367,-30.762,-32.227,-55.176,21.484
1689274757.680,-18.555,-25.879,-32.715,-59.082,-96.680
1689274757.684,-40.039,-27.344,-34.668,-60.547,-140.137
1689274757.688,-41.016,-29.785,-34.180,-70.312,213.867
1689274757.692,-28.809,-26.367,-37.598,-61.523,101.562
1689274757.696,-31.738,-28.809,-34.668,-44.434,-136.230
1689274757.698,-35.645,-32.715,-30.273,-24.902,-57.129
1689274757.702,-34.668,-28.809,-31.250,-41.504,-63.965
1689274757.706,-23.926,-22.949,-29.297,-59.570,-159.180
1689274757.710,-24.414,-25.391,-33.203,-54.199,-139.648
1689274757.714,-47.363,-27.832,-29.297,-43.945,103.027
1689274757.718,-36.621,-25.879,-24.902,-44.922,281.250
1689274757.722,-27.344,-21.973,-23.926,-42.480,44.434
1689274757.725,-31.250,-22.461,-17.090,-27.344,-199.219
1689274757.729,-34.180,-27.832,-21.484,-18.555,72.754
1689274757.733,-47.852,-32.227,-33.691,-29.785,151.855
1689274757.737,-47.852,-37.598,-35.645,-36.621,-128.418
1689274757.741,-36.621,-30.273,-27.344,-34.668,-118.652
1689274757.744,-29.297,-22.461,-32.715,-57.617,-74.219
1689274757.748,-29.297,-25.879,-33.691,-48.828,-99.609
1689274757.752,-32.227,-27.344,-27.832,-40.527,-97.656
1689274757.756,-47.852,-24.902,-26.367,-40.527,-76.660
1689274757.760,-43.457,-24.414,-27.344,-39.551,-35.645
1689274757.764,-15.137,-22.461,-29.785,-36.133,-57.129
1689274757.768,-13.672,-16.113,-26.855,-15.137,-10.742
1689274757.771,-26.367,-14.160,-27.344,-18.555,104.004
1689274757.775,-28.320,-14.648,-26.855,-38.574,242.188
1689274757.779,-20.508,-19.531,-30.762,-41.504,-3.418
1689274757.783,-38.086,-18.555,-30.273,-51.270,-226.074
1689274757.787,-44.922,-21.484,-27.344,-47.363,-147.461
1689274757.803,-33.203,-30.273,-32.227,-28.320,-103.516
1689274757.807,-33.691,-23.926,-28.809,-37.598,-154.785
1689274757.811,-24.414,-18.555,-25.391,-44.434,-157.715
1689274757.815,-29.297,-24.414,-28.320,-40.527,88.867
1689274757.819,-39.551,-23.926,-32.227,-36.133,180.176
1689274757.823,-38.574,-21.484,-32.715,-58.594,-1.953
1689274757.827,-28.809,-23.438,-27.832,-49.805,-93.750
1689274757.830,-15.625,-28.809,-24.414,-36.133,97.656
1689274757.834,-21.973,-30.762,-26.367,-48.340,217.285
1689274757.838,-27.832,-27.344,-28.320,-52.734,-143.066
1689274757.842,-10.742,-22.949,-23.438,-49.316,-195.312
1689274757.846,-24.414,-20.996,-27.832,-41.016,-99.121
1689274757.835,-44.922,-21.973,-38.086,-32.227,-155.273
1689274757.839,-22.461,-35.156,-33.203,-39.062,-139.160
1689274757.843,-16.113,-35.645,-19.043,-33.203,-127.930
1689274757.847,-26.855,-21.973,-19.043,-24.902,-110.352
1689274757.851,-38.086,-23.438,-26.367,-44.922,-103.027
1689274757.855,-29.785,-28.320,-24.902,-50.781,-93.262
1689274757.859,-35.645,-32.715,-28.320,-37.598,35.156
1689274757.862,-57.129,-34.180,-29.785,-36.621,106.445
1689274757.866,-44.922,-24.902,-21.973,-30.273,-6.836
1689274757.870,-33.203,-19.531,-18.066,-35.156,-133.789
1689274757.874,-29.785,-24.902,-27.344,-37.598,-28.320
1689274757.878,-39.551,-28.809,-30.273,-25.879,329.590
1689274757.878,-45.410,-32.715,-26.367,-34.180,103.027
1689274757.882,-46.387,-33.691,-30.762,-50.781,-139.648
1689274757.886,-53.223,-31.738,-29.785,-42.969,-7.324
1689274757.890,-49.316,-35.156,-21.973,-43.945,-31.250
1689274757.894,-44.922,-31.738,-23.926,-28.320,-140.137
1689274757.898,-37.598,-24.414,-29.785,-35.156,-72.754
1689274757.902,-27.344,-27.344,-27.832,-71.777,292.969
1689274757.905,-31.738,-22.949,-29.785,-53.223,513.184
1689274757.909,-39.062,-23.926,-29.785,-29.297,71.289
1689274757.913,-44.922,-28.320,-22.949,-43.945,-229.004
1689274757.917,-39.551,-25.391,-20.508,-39.551,-48.340
1689274757.921,-34.180,-29.785,-21.973,-48.828,-104.492
1689274757.926,-40.527,-26.367,-24.414,-52.246,-202.637
1689274757.930,-40.039,-18.066,-27.832,-52.246,-144.531
1689274757.934,-47.363,-20.508,-30.762,-48.340,-78.613
1689274757.938,-57.617,-27.832,-28.809,-30.762,-56.641
1689274757.942,-46.387,-27.344,-28.809,-31.738,-99.609
1689274757.946,-27.832,-24.902,-23.926,-36.621,8.301
1689274757.950,-17.578,-25.879,-22.949,-44.922,151.367
1689274757.953,-24.414,-28.320,-25.391,-50.781,-40.527
1689274757.957,-39.062,-25.879,-28.320,-55.176,-247.070
1689274757.961,-39.551,-21.973,-34.180,-43.457,-132.812
1689274757.965,-26.367,-20.020,-30.273,-39.062,95.215
1689274757.969,-25.879,-22.461,-27.832,-41.016,-79.590
1689274757.983,-36.621,-25.391,-31.250,-35.156,-163.574
1689274757.987,-32.715,-25.879,-30.273,-37.109,-40.527
1689274757.991,-16.602,-23.926,-21.973,-18.555,-10.254
1689274757.995,1.465,-24.414,-26.855,-19.531,-1.953
1689274757.999,-21.973,-29.785,-33.203,-48.340,-59.570
1689274758.003,-41.992,-32.227,-29.297,-53.711,138.672
1689274758.007,-47.852,-31.250,-28.320,-41.992,475.098
1689274758.010,-48.340,-36.133,-29.297,-41.016,174.316
1689274758.014,-36.133,-40.039,-31.738,-48.340,-154.785
1689274758.018,-25.879,-31.738,-29.297,-42.969,-114.746
1689274758.022,-23.926,-25.879,-26.367,-42.480,-209.961
1689274758.026,-43.457,-29.785,-26.855,-53.711,-288.574
1689274758.016,-38.086,-38.574,-29.785,-43.457,-120.117
1689274758.020,-15.625,-33.203,-32.715,-31.250,14.648
1689274758.024,-34.180,-32.227,-29.785,-44.922,-144.043
1689274758.028,-51.270,-33.691,-25.879,-44.922,-191.895
1689274758.032,-37.109,-27.344,-26.855,-59.082,-111.816
1689274758.036,-33.691,-24.414,-25.391,-68.359,2.441
1689274758.040,-38.086,-24.902,-24.902,-42.969,28.320
1689274758.043,-26.367,-25.879,-23.926,-27.344,-89.355
1689274758.047,-30.273,-30.273,-24.902,-28.320,-73.730
1689274758.051,-40.039,-33.691,-27.344,-24.414,162.109
1689274758.055,-51.270,-29.297,-24.414,-26.855,-53.223
1689274758.059,-39.551,-24.902,-23.926,-24.902,-194.336
1689274758.073,-13.184,-37.109,-28.809,-34.668,-58.105
1689274758.077,-14.160,-39.551,-34.180,-51.758,-91.309
1689274758.081,-38.086,-25.391,-28.320,-26.855,-82.031
1689274758.085,-49.316,-16.602,-19.531,-30.273,-0.488
1689274758.089,-28.320,-14.648,-20.996,-46.387,270.020
1689274758.093,-38.086,-18.066,-24.414,-28.320,508.789
1689274758.097,-49.316,-19.043,-20.020,-26.367,120.605
1689274758.100,-42.969,-14.648,-17.578,-39.062,-223.633
1689274758.104,-40.527,-21.973,-17.578,-32.715,-14.160
1689274758.108,-25.879,-25.879,-18.555,-47.363,34.668
1689274758.112,-16.602,-20.996,-24.902,-46.875,-206.543
1689274758.116,-14.648,-23.438,-23.926,-7.324,-204.102
1689274758.118,-55.176,-25.391,-20.508,-15.137,-169.434
1689274758.122,-71.289,-20.020,-26.855,-61.035,-221.191
1689274758.126,-51.758,-19.531,-32.227,-74.219,-198.242
1689274758.130,-51.758,-22.949,-25.879,-50.781,-95.215
1689274758.134,-47.852,-23.438,-18.555,-32.715,-65.918
1689274758.138,-34.180,-24.902,-22.949,-22.949,3.418
1689274758.142,-25.391,-25.879,-29.785,-30.762,-53.711
1689274758.145,-21.484,-27.344,-29.297,-21.973,-17.578
1689274758.149,-27.832,-31.250,-22.461,-10.254,323.242
1689274758.153,-15.625,-31.250,-23.926,-34.668,150.879
1689274758.157,-19.531,-25.879,-27.344,-25.879,-163.574
1689274758.161,-46.387,-19.043,-25.879,-40.039,-161.621
1689274758.163,-41.504,-15.625,-31.250,-60.547,-126.953
1689274758.167,-14.160,-19.043,-36.621,-31.738,-126.953
1689274758.171,5.859,-20.996,-28.320,-22.461,-123.047
1689274758.175,-18.066,-27.344,-16.602,-22.461,58.594
1689274758.179,-35.645,-32.715,-15.137,-31.250,-3.906
1689274758.183,-31.250,-28.809,-19.043,-44.922,-80.078
1689274758.187,-43.945,-24.902,-22.949,-36.621,74.219
1689274758.190,-61.523,-26.367,-24.414,-31.250,292.480
1689274758.194,-55.176,-27.344,-28.809,-22.461,411.133
1689274758.198,-31.738,-28.320,-33.203,-37.598,-7.812
1689274758.202,-29.297,-27.344,-34.668,-43.945,-237.793
1689274758.206,-30.273,-23.438,-35.645,-31.738,-92.773
1689274758.210,-30.273,-25.391,-30.273,-36.621,-143.555
1689274758.214,-17.578,-25.879,-23.438,-31.250,-209.961
1689274758.218,-26.855,-23.438,-21.973,-30.762,-164.062
1689274758.222,-51.270,-22.461,-22.949,-34.668,-86.426
1689274758.226,-29.297,-28.320,-18.555,-24.902,-29.297
1689274758.230,-22.461,-29.785,-23.438,-16.602,0.977
1689274758.234,-29.785,-29.297,-27.832,-11.230,33.691
1689274758.237,-38.574,-33.203,-25.879,-18.066,261.230
1689274758.241,-34.180,-30.762,-31.738,-51.270,31.738
1689274758.245,-14.160,-25.879,-33.203,-46.875,-245.117
1689274758.249,-10.742,-21.484,-31.738,-29.785,-86.914
1689274758.253,-19.043,-21.484,-28.809,-28.320,0.488
1689274758.268,-29.785,-21.484,-25.391,-20.508,-109.863
1689274758.272,-10.742,-23.438,-29.297,-17.090,-159.180
1689274758.276,-12.695,-33.203,-32.227,-32.227,-26.855
1689274758.280,-39.551,-40.039,-31.250,-77.637,24.902
1689274758.284,-39.551,-34.668,-38.086,-52.734,-102.539
1689274758.288,-35.156,-26.367,-31.250,-10.254,-62.012
1689274758.292,-20.508,-23.926,-26.855,-17.090,197.266
1689274758.295,-16.113,-22.949,-29.297,-13.184,389.160
1689274758.299,-21.484,-24.414,-22.461,-18.555,42.969
1689274758.303,-25.879,-24.414,-23.438,-21.484,-193.359
1689274758.307,-17.578,-22.949,-22.949,-27.832,-99.121
1689274758.311,-19.531,-25.879,-20.020,-40.527,-128.906
1689274758.301,-33.203,-26.855,-20.508,-25.879,-159.180
1689274758.305,-25.879,-26.855,-23.438,-18.555,38.574
1689274758.309,-10.254,-25.391,-22.949,-57.129,133.301
1689274758.313,-26.367,-19.043,-26.367,-58.105,-74.707
1689274758.317,-32.715,-21.973,-32.715,-43.945,-144.531
1689274758.321,-30.762,-29.297,-28.809,-27.832,-4.883
1689274758.325,-37.598,-28.809,-25.879,-20.020,83.496
1689274758.328,-20.020,-30.273,-30.762,-19.043,-57.129
1689274758.332,-18.066,-34.668,-33.691,-19.531,-220.215
1689274758.336,-42.480,-26.855,-24.902,-41.016,-144.043
1689274758.340,-45.898,-20.508,-19.043,-42.480,187.500
1689274758.344,-45.898,-26.855,-22.461,-43.945,20.996
1689274758.358,-43.945,-27.344,-28.809,-60.547,-186.523
1689274758.362,-40.039,-22.949,-30.273,-48.340,-100.586
1689274758.366,-41.504,-25.391,-29.297,-36.621,-132.324
1689274758.370,-41.504,-28.809,-25.391,-34.668,-125.000
1689274758.374,-33.203,-27.344,-25.391,-29.297,-81.055
1689274758.378,-31.250,-26.367,-26.855,-30.762,139.160
1689274758.382,-36.621,-25.391,-25.879,-28.320,549.316
1689274758.385,-35.645,-22.461,-23.438,-18.555,210.938
1689274758.389,-34.180,-20.508,-26.855,-25.879,-212.891
1689274758.393,-19.531,-24.902,-29.785,-57.129,-171.387
1689274758.397,-15.137,-23.438,-32.227,-39.062,-166.016
1689274758.401,-28.809,-21.973,-31.738,-43.457,-156.738
1689274758.403,-29.785,-19.531,-25.391,-62.988,-121.582
1689274758.407,-14.648,-17.578,-23.926,-32.715,-113.770
1689274758.411,-20.996,-26.855,-20.020,-22.461,-130.371
1689274758.415,-33.691,-28.809,-20.996,-16.602,-130.371
1689274758.419,-28.320,-30.273,-25.391,-13.184,-119.141
1689274758.423,-22.461,-28.809,-23.926,-18.066,25.879
1689274758.427,-20.996,-27.344,-20.020,-22.461,95.703
1689274758.430,-41.016,-31.738,-20.996,-63.477,12.695
1689274758.434,-58.105,-20.020,-25.879,-71.777,-31.250
1689274758.438,-63.477,-12.695,-29.785,-34.180,250.488
1689274758.442,-57.617,-20.020,-31.250,-30.762,48.828
1689274758.446,-43.457,-26.367,-27.832,-36.133,-245.605
1689274758.448,-41.016,-26.367,-28.320,-26.855,-117.188
1689274758.452,-39.062,-23.926,-27.832,-31.738,-80.566
1689274758.456,-17.578,-28.320,-23.438,-17.578,-159.180
1689274758.460,-24.414,-28.320,-20.020,14.160,-169.922
1689274758.464,-60.547,-26.855,-20.996,-23.926,-24.414
1689274758.468,-52.246,-26.367,-28.320,-44.434,69.824
1689274758.472,-32.227,-21.973,-31.738,-37.598,-49.805
1689274758.475,-40.039,-16.602,-32.227,-53.711,-121.094
1689274758.479,-43.457,-19.531,-35.645,-57.129,200.684
1689274758.483,-54.199,-23.438,-36.621,-39.062,311.035
1689274758.487,-51.758,-29.297,-33.203,-40.527,-162.598
1689274758.491,-44.434,-35.156,-24.902,-45.898,-228.027
1689274758.493,-41.016,-26.855,-22.461,-25.879,-87.891
1689274758.497,-34.180,-20.996,-22.461,-18.066,-140.137
1689274758.501,-37.598,-26.367,-20.996,-51.758,-183.594
1689274758.505,-43.457,-24.414,-24.902,-57.129,-122.070
1689274758.509,-43.945,-22.461,-24.414,-21.973,-81.055
1689274758.513,-36.133,-23.926,-23.438,-27.832,14.648
1689274758.517,-37.109,-23.926,-26.367,-43.457,-24.414
1689274758.520,-33.203,-25.391,-26.367,-36.621,-45.410
1689274758.524,-25.879,-28.809,-30.273,-26.855,230.957
1689274758.528,-17.578,-25.879,-32.715,-14.160,41.016
1689274758.532,-13.672,-24.414,-29.785,-28.809,-145.508
1689274758.536,-41.504,-35.156,-29.297,-43.945,44.922
1689274758.538,-61.523,-29.297,-29.785,-40.039,23.438
1689274758.542,-45.410,-20.508,-25.879,-27.832,-166.992
1689274758.546,-37.109,-24.902,-24.902,-24.414,-147.949
1689274758.550,-33.691,-27.832,-26.855,-39.551,125.488
1689274758.554,-31.250,-32.715,-20.996,-22.949,41.016
1689274758.558,-35.645,-34.180,-16.113,-18.555,-150.391
1689274758.562,-20.508,-29.297,-19.043,-45.898,-62.012
1689274758.565,-13.184,-20.996,-21.484,-43.945,121.094
1689274758.569,-41.016,-21.973,-29.785,-31.738,192.871
1689274758.573,-45.410,-25.391,-37.598,-31.250,-68.848
1689274758.577,-41.504,-28.809,-29.785,-46.875,-153.320
1689274758.581,-42.969,-30.273,-25.879,-39.062,-20.020
1689274758.586,-37.598,-25.391,-26.367,-26.367,-42.969
1689274758.590,-33.203,-23.926,-20.508,-30.273,-68.848
1689274758.594,-29.297,-33.691,-23.926,-46.875,28.809
1689274758.598,-20.508,-32.227,-23.438,-53.711,73.242
1689274758.602,-17.090,-23.926,-20.996,-55.176,-102.539
1689274758.606,-33.691,-25.391,-25.879,-42.969,-104.492
1689274758.610,-52.246,-27.832,-24.414,-32.227,53.223
1689274758.613,-48.340,-30.762,-25.391,-30.273,287.598
1689274758.617,-42.480,-26.367,-26.855,-34.180,31.250
1689274758.621,-39.551,-30.273,-30.273,-30.273,-222.656
1689274758.625,-37.598,-29.785,-31.738,-22.949,-169.434
1689274758.629,-34.668,-22.461,-29.297,-50.781,-115.234
1689274758.628,-20.020,-21.484,-30.762,-63.477,-126.953
1689274758.632,-21.484,-30.762,-27.344,-38.574,-139.160
1689274758.636,-23.926,-34.668,-24.414,-32.227,-39.062
1689274758.640,-28.320,-24.902,-23.438,-51.758,4.395
1689274758.644,-25.879,-23.438,-20.996,-50.293,-22.949
1689274758.648,-33.691,-21.973,-25.391,-53.223,-33.691
1689274758.652,-57.129,-17.578,-28.320,-46.875,149.902
1689274758.655,-42.480,-18.555,-27.344,-29.297,367.676
1689274758.659,-31.250,-24.902,-26.855,-43.945,41.992
1689274758.663,-34.180,-28.809,-27.344,-32.715,-214.355
1689274758.667,-38.086,-28.809,-23.438,-24.414,-106.445
1689274758.671,-38.574,-27.832,-24.902,-32.227,-162.598
1689274758.675,-28.809,-28.809,-27.344,-36.133,-237.305
1689274758.679,-30.273,-29.297,-25.879,-36.621,-193.848
1689274758.683,-45.898,-37.109,-24.902,-27.344,-100.586
1689274758.687,-48.340,-30.762,-24.902,-28.320,-63.477
1689274758.691,-35.645,-25.391,-24.414,-33.691,-129.883
1689274758.695,-27.344,-30.273,-26.855,-31.738,-7.324
1689274758.699,-32.715,-26.367,-28.809,-34.668,222.168
1689274758.702,-29.297,-27.832,-24.902,-38.086,63.965
1689274758.706,-27.832,-30.273,-26.367,-29.297,-140.625
1689274758.710,-44.922,-31.738,-28.320,-20.996,-98.145
1689274758.714,-50.781,-29.785,-26.855,-40.527,78.125
1689274758.718,-41.992,-25.391,-25.879,-40.527,-131.348
1689274758.748,-30.762,-26.855,-29.785,-27.344,-213.379
1689274758.752,-30.762,-24.414,-29.297,-48.828,-41.016
1689274758.756,-44.922,-28.809,-29.297,-38.574,-39.062
1689274758.760,-34.668,-24.902,-31.738,-31.738,-50.293
1689274758.764,-20.020,-22.949,-29.297,-34.668,-125.488
1689274758.768,-33.691,-30.273,-31.250,-18.066,244.629
1689274758.772,-41.016,-33.203,-36.133,-13.672,520.996
1689274758.775,-28.320,-29.785,-31.250,-20.508,-12.207
1689274758.779,-19.043,-25.391,-28.809,-28.320,-237.793
1689274758.783,-32.227,-26.855,-27.344,-19.531,75.195
1689274758.787,-34.668,-27.832,-25.391,-39.551,-31.738
1689274758.791,-18.066,-20.020,-28.320,-59.570,-234.863
1689274758.778,-16.113,-15.137,-27.832,-48.828,-170.898
1689274758.782,-21.973,-20.508,-28.320,-30.762,-132.324
1689274758.786,-17.090,-23.438,-27.344,-22.949,-156.738
1689274758.790,-25.391,-24.902,-24.414,-31.250,-151.855
1689274758.794,-33.691,-21.973,-26.855,-38.574,-67.871
1689274758.798,-41.016,-25.391,-26.855,-51.270,47.852
1689274758.802,-39.062,-33.203,-22.461,-51.270,67.383
1689274758.805,-25.391,-31.738,-30.273,-30.762,-88.867
1689274758.809,-25.879,-22.949,-29.297,-26.855,-62.500
1689274758.813,-26.367,-22.461,-25.879,-25.879,44.922
1689274758.817,-25.879,-24.414,-26.367,-25.879,-72.266
1689274758.821,-44.922,-21.973,-23.438,-23.438,-128.906
1689274758.823,-49.805,-20.508,-20.020,-5.371,-12.695
1689274758.827,-34.668,-19.531,-22.461,-10.742,287.598
1689274758.831,-32.715,-27.344,-22.949,-53.223,106.934
1689274758.835,-39.551,-23.926,-22.461,-41.504,-46.387
1689274758.839,-39.551,-20.996,-22.461,-25.391,49.805
1689274758.843,-37.598,-29.297,-21.973,-39.062,47.363
1689274758.847,-35.645,-27.832,-27.344,-13.672,-64.941
1689274758.850,-19.531,-20.508,-25.391,-14.160,-179.688
1689274758.854,-36.621,-23.926,-20.996,-19.043,118.164
1689274758.858,-52.246,-30.762,-25.391,-23.926,170.898
1689274758.862,-29.785,-32.715,-31.738,-46.387,-152.344
1689274758.866,-24.902,-26.367,-27.344,-45.898,-130.859
1689274758.871,-34.668,-20.996,-21.484,-45.410,-92.285
1689274758.875,-54.199,-21.973,-20.508,-45.410,-93.750
1689274758.879,-56.152,-27.344,-22.949,-41.504,-37.598
1689274758.883,-28.320,-35.645,-26.855,-4.883,-89.844
1689274758.887,-22.461,-41.504,-23.926,2.441,-43.945
1689274758.891,-37.598,-29.297,-20.996,-40.039,-13.184
1689274758.895,-41.016,-18.066,-35.156,-42.480,-116.699
1689274758.898,-30.762,-27.832,-39.062,-33.691,-142.578
1689274758.902,-36.133,-31.738,-35.645,-36.133,186.523
1689274758.906,-18.555,-32.715,-37.598,-21.484,5.371
1689274758.910,-12.207,-30.273,-36.621,-9.277,-184.082
1689274758.914,-38.574,-28.320,-38.574,-21.484,-89.355
1689274758.913,-25.879,-31.250,-41.016,-25.879,-140.137
1689274758.917,-8.789,-31.738,-35.645,-21.973,-146.484
1689274758.921,-11.719,-28.809,-28.320,-21.484,-87.402
1689274758.925,-4.883,-27.832,-22.949,-1.465,97.656
1689274758.929,-0.977,-31.738,-25.391,-8.301,68.848
1689274758.933,-4.883,-33.203,-28.809,-35.645,-16.113
1689274758.937,-12.207,-31.738,-28.809,-23.438,-20.996
1689274758.940,-19.043,-36.133,-25.879,-11.230,121.582
1689274758.944,-25.391,-34.668,-21.973,-10.254,394.531
1689274758.948,-28.809,-28.809,-23.438,-32.227,116.699
1689274758.952,-26.367,-26.855,-23.438,-36.133,-179.688
1689274758.956,-34.180,-25.391,-23.438,-21.484,-148.438
1689274758.960,-19.043,-25.391,-26.855,-41.016,-190.430
1689274758.964,-0.488,-29.785,-28.809,-47.852,-194.824
1689274758.968,-11.230,-29.785,-31.250,-32.227,-83.496
