timestamps,TP9,AF7,AF8,TP10,Right AUX
1689806422.919,-33.691,-28.809,-26.367,-32.227,-16.113
1689806422.923,-28.809,-24.414,-12.207,-15.625,-106.934
1689806422.927,-26.855,-28.809,-23.926,-6.348,-72.754
1689806422.931,-33.691,-43.457,-37.109,-7.324,-53.711
1689806422.935,-41.016,-56.152,-25.391,-15.137,-62.500
1689806422.939,-40.039,-44.922,-15.137,-23.438,12.207
1689806422.943,-33.691,-20.020,-31.738,-24.414,-24.414
1689806422.946,-35.645,-25.391,-42.969,-22.461,-20.996
1689806422.950,-41.016,-49.805,-29.785,-18.066,387.695
1689806422.954,-39.062,-41.992,-44.434,-20.020,337.891
1689806422.958,-53.711,-25.879,-40.039,-42.480,-151.855
1689806422.962,-67.383,-30.273,-12.207,-51.270,-208.496
1689806422.966,-64.941,-32.227,-8.301,-45.410,-166.016
1689806422.970,-58.594,-29.297,-13.672,-51.270,-193.848
1689806422.974,-42.969,-43.945,-23.438,-53.711,-156.250
1689806422.978,-28.320,-57.129,-33.203,-47.852,-92.773
1689806422.982,-21.973,-25.391,-39.551,-44.922,-104.004
1689806422.986,-20.508,-20.508,-30.273,-29.785,8.301
1689806422.990,-12.207,-18.066,-32.715,-14.160,-3.906
1689806422.993,-4.883,-12.207,-50.293,-18.066,222.168
1689806422.997,-12.207,-12.207,-55.176,-34.180,402.832
1689806423.001,-27.344,1.953,-41.504,-45.898,-65.430
1689806423.005,-33.203,-7.324,-17.090,-38.086,-204.590
1689806423.009,-35.645,-27.832,-25.391,-27.832,-92.773
1689806423.009,-47.363,-33.691,-43.457,-41.992,-132.812
1689806423.013,-44.922,-51.270,-44.922,-53.223,-208.496
1689806423.017,-38.086,-64.453,-25.879,-43.945,-167.480
1689806423.021,-35.645,-25.879,-21.973,-30.273,-95.215
1689806423.025,-35.156,-15.625,-31.250,-24.414,-54.688
1689806423.029,-38.574,-50.781,-28.809,-26.367,-27.832
1689806423.033,-36.621,-41.504,-28.320,-34.668,40.039
1689806423.036,-38.574,-30.273,-35.645,-39.551,418.457
1689806423.040,-41.016,-24.414,-47.852,-29.785,219.727
1689806423.044,-31.738,-16.602,-49.805,-13.672,-160.156
1689806423.048,-24.902,-26.855,-56.152,-6.836,-19.531
1689806423.052,-31.250,-29.297,-45.898,-20.020,-35.645
1689806423.071,-34.668,-25.391,-14.160,-30.273,-178.711
1689806423.075,-27.832,-49.316,-9.766,-22.949,-212.891
1689806423.079,-27.832,-60.059,-17.090,-15.137,-79.102
1689806423.083,-31.250,-33.691,-20.020,-21.973,-38.086
1689806423.087,-26.855,-29.297,-22.949,-38.574,-102.051
1689806423.091,-36.133,-46.387,-38.574,-59.082,-107.422
1689806423.095,-44.922,-36.133,-32.227,-59.082,129.395
1689806423.098,-42.969,-5.859,-28.809,-48.828,189.453
1689806423.102,-44.922,-10.742,-41.016,-49.805,-128.906
1689806423.106,-40.527,-25.391,-34.180,-50.781,-150.879
1689806423.110,-38.574,-28.809,-14.648,-54.199,-80.566
1689806423.114,-39.551,-37.109,-21.484,-49.316,-149.902
1689806423.116,-30.762,-44.434,-40.527,-26.367,-109.375
1689806423.120,-27.344,-49.805,-35.156,-20.020,78.125
1689806423.124,-26.367,-43.945,-18.066,-31.738,104.004
1689806423.128,-24.902,-18.555,-37.109,-29.785,-134.277
1689806423.132,-31.250,-12.695,-45.410,-23.438,-189.453
1689806423.136,-38.086,-19.531,-11.230,-22.949,52.734
1689806423.140,-38.574,-34.180,-6.836,-28.809,206.543
1689806423.143,-28.809,-46.387,-16.113,-37.109,86.914
1689806423.147,-17.578,-25.391,-23.438,-39.551,-71.289
1689806423.151,-12.207,-17.578,-35.645,-25.879,-52.246
1689806423.155,-27.344,-18.555,-51.270,-14.160,243.652
1689806423.159,-44.922,5.371,-43.945,-15.625,83.008
1689806423.161,-45.898,-7.812,-25.391,-28.809,-136.230
1689806423.165,-50.781,-34.668,-15.137,-40.527,-110.352
1689806423.169,-55.176,-30.762,-21.973,-45.410,-149.414
1689806423.173,-44.922,-33.691,-32.715,-39.062,-176.758
1689806423.177,-34.180,-37.109,-22.461,-26.367,-163.086
1689806423.181,-29.785,-42.480,-24.902,-34.668,60.547
1689806423.185,-32.227,-43.457,-30.762,-46.387,43.457
1689806423.188,-27.832,-39.551,-26.367,-41.504,-175.293
1689806423.192,-13.672,-23.438,-25.879,-25.879,-211.914
1689806423.196,-14.648,-20.996,-43.457,-20.020,153.320
1689806423.200,-11.719,-21.484,-41.016,-18.066,323.730
1689806423.204,-9.766,-26.855,-30.273,-28.809,-77.148
1689806423.205,-17.090,-47.852,-30.273,-41.016,-206.055
1689806423.209,-14.160,-28.320,-25.391,-26.367,-132.812
1689806423.213,-16.602,-12.695,-23.926,-19.531,-128.418
1689806423.217,-27.344,-13.184,-10.254,-32.227,-134.277
1689806423.221,-31.738,-25.391,-12.695,-44.434,-52.246
1689806423.225,-36.133,-55.176,-35.156,-50.781,88.867
1689806423.229,-28.320,-58.594,-39.062,-38.086,50.293
1689806423.232,-11.719,-30.762,-18.066,-17.090,-35.645
1689806423.236,-9.766,-24.414,-12.207,-9.277,67.871
1689806423.240,-18.555,-31.738,-31.738,-21.484,328.613
1689806423.244,-29.297,-35.645,-52.734,-38.086,79.590
1689806423.248,-32.227,-42.969,-40.039,-31.250,-214.355
1689806423.251,-31.250,-31.738,-31.738,-18.066,-34.668
1689806423.255,-34.180,-21.973,-43.945,-20.020,52.246
1689806423.259,-36.133,-28.320,-31.250,-29.785,-164.551
1689806423.263,-37.598,-34.180,-26.367,-36.133,-235.840
1689806423.267,-36.133,-33.691,-33.691,-37.109,-97.168
1689806423.271,-26.855,-51.270,-28.809,-27.344,-46.387
1689806423.275,-17.090,-42.969,-18.555,-20.508,-49.805
1689806423.278,-18.555,-20.020,-21.973,-30.762,-28.809
1689806423.282,-24.902,-21.973,-27.344,-47.363,249.023
1689806423.286,-34.668,-7.812,-34.180,-54.199,325.684
1689806423.290,-42.969,4.883,-38.574,-49.805,-91.797
1689806423.294,-42.480,-20.020,-36.133,-42.969,-163.086
1689806423.295,-42.480,-25.391,-45.410,-51.758,-88.379
1689806423.299,-46.387,-27.344,-47.363,-59.570,-186.035
1689806423.303,-39.551,-42.480,-32.715,-43.945,-222.656
1689806423.307,-33.203,-31.738,-32.227,-27.344,-90.820
1689806423.311,-37.109,-20.996,-31.738,-26.855,17.090
1689806423.315,-38.574,-47.852,-38.086,-33.691,0.000
1689806423.319,-35.645,-37.109,-30.273,-40.527,-82.520
1689806423.322,-33.203,-13.672,-20.508,-35.645,18.555
1689806423.326,-33.203,-20.996,-34.668,-21.973,365.723
1689806423.330,-25.391,-16.602,-41.504,-9.766,167.480
1689806423.334,-8.789,-13.672,-24.902,-4.395,-183.105
1689806423.338,-5.371,-27.832,-15.137,-15.137,-70.312
1689806423.341,-9.277,-23.926,-15.137,-19.531,-66.406
1689806423.345,-10.742,-16.602,-8.301,-4.395,-236.816
1689806423.349,-4.883,-35.645,-15.137,5.859,-146.973
1689806423.353,-4.395,-27.344,-32.715,0.000,-0.977
1689806423.357,-6.348,0.000,-24.902,-11.230,-111.816
1689806423.361,-7.324,-21.484,-24.414,-16.113,-84.961
1689806423.365,-17.578,-31.738,-41.992,-17.578,35.645
1689806423.368,-19.531,-25.391,-29.297,-10.742,168.457
1689806423.372,-16.113,-12.695,-26.855,-12.695,129.395
1689806423.376,-9.277,-6.836,-22.949,-19.043,-146.973
1689806423.380,-4.883,-15.137,-7.812,-22.461,-145.020
1689806423.384,25.879,-18.555,-21.973,7.812,-91.797
1689806423.386,34.180,-16.602,-17.090,33.691,-106.445
1689806423.390,-20.508,-25.391,-12.207,-18.555,-50.293
1689806423.394,-48.340,-31.738,-24.414,-52.734,-9.766
1689806423.398,-61.523,-32.227,-29.785,-55.176,-2.930
1689806423.402,-102.051,-33.203,-16.113,-76.172,-65.430
1689806423.406,-129.395,-36.621,-12.695,-91.797,-45.898
1689806423.410,-123.535,-37.109,-23.926,-87.402,-7.324
1689806423.413,-133.301,-45.898,-25.879,-107.910,358.398
1689806423.417,-161.621,-41.992,-35.156,-149.902,213.867
1689806423.421,-156.738,-40.039,-3.906,-139.160,-187.500
1689806423.425,-155.273,-45.410,3.906,-134.766,-166.016
1689806423.429,-169.434,-55.176,-30.273,-157.227,-117.676
1689806423.444,-158.203,-46.875,-9.766,-159.668,-147.949
1689806423.448,-157.715,-39.551,8.301,-170.898,-169.922
1689806423.452,-160.156,-41.504,-15.137,-170.898,-108.398
1689806423.456,-138.672,-40.527,-9.766,-140.625,-30.762
1689806423.460,-116.211,-57.617,-8.789,-116.699,-46.387
1689806423.464,-91.797,-61.523,-12.695,-110.352,-78.125
1689806423.468,-79.102,-69.824,-11.719,-104.004,230.469
1689806423.471,-76.660,-61.523,-33.691,-88.867,425.781
1689806423.475,-64.941,-34.668,-55.664,-62.988,-20.508
1689806423.479,-51.758,-33.691,-58.105,-46.387,-171.387
1689806423.483,-46.387,-28.320,-44.434,-46.875,-24.414
1689806423.487,-54.199,-31.738,-40.039,-53.711,-153.809
1689806423.475,-63.477,-41.992,-25.879,-49.805,-215.332
1689806423.479,-65.430,-41.504,9.277,-35.156,-122.559
1689806423.483,-62.500,-52.734,15.137,-29.297,-59.082
1689806423.487,-57.129,-59.082,-9.766,-34.668,-63.477
1689806423.491,-47.363,-53.711,-23.926,-42.969,-142.090
1689806423.495,-36.133,-42.480,-33.203,-38.086,-43.457
1689806423.499,-31.250,-30.273,-31.250,-22.461,178.223
1689806423.502,-24.902,-28.809,-35.645,-15.137,104.980
1689806423.506,-14.648,-42.969,-40.527,-19.531,17.578
1689806423.510,-3.418,-42.480,-10.742,-23.438,-23.438
1689806423.514,0.000,-35.645,-1.953,-12.695,231.934
1689806423.518,2.930,-25.391,-23.438,-8.789,81.543
1689806423.551,-1.953,-31.738,-34.180,-5.371,-202.148
1689806423.555,-4.395,-46.387,-33.691,0.977,-81.543
1689806423.559,12.207,-38.086,-35.645,7.812,-110.840
1689806423.563,14.160,-24.414,-34.668,11.230,-213.379
1689806423.567,-5.859,-18.555,-54.199,0.488,-157.715
1689806423.571,-12.695,-23.926,-34.668,-4.883,53.223
1689806423.575,-16.602,-21.484,2.441,-20.020,72.266
1689806423.578,-33.203,-17.090,-7.324,-51.270,-99.609
1689806423.582,-50.293,-22.461,-18.066,-67.871,-143.066
1689806423.586,-62.500,-28.809,-13.184,-59.082,229.004
1689806423.590,-59.570,-32.227,-24.414,-42.480,234.375
1689806423.594,-51.270,-36.621,-47.363,-41.504,-140.137
1689806423.580,-46.387,-38.086,-39.551,-45.410,-167.969
1689806423.584,-50.781,-48.340,-28.320,-49.805,-124.512
1689806423.588,-57.617,-28.809,-30.762,-47.852,-166.016
1689806423.592,-53.711,-6.836,-37.109,-28.809,-219.238
1689806423.596,-58.594,-27.832,-41.504,-25.391,-148.926
1689806423.600,-54.688,-41.504,-39.551,-36.133,7.812
1689806423.604,-42.969,-21.484,-34.180,-42.969,47.852
1689806423.607,-38.574,-16.602,-26.855,-32.227,52.734
1689806423.611,-29.785,-26.367,-29.785,-19.043,64.453
1689806423.615,-24.414,-13.184,-35.156,-18.555,69.824
1689806423.619,-22.461,-13.184,-34.180,-28.320,-64.941
1689806423.623,-21.484,-27.832,-34.668,-34.668,-198.242
1689806423.641,-15.625,-18.555,-41.992,-24.902,-89.844
1689806423.645,-13.184,-31.738,-37.109,-13.184,345.703
1689806423.649,-13.672,-34.668,-20.996,-10.254,249.512
1689806423.653,-9.277,-15.137,-33.203,-14.160,-156.738
1689806423.657,-19.531,-25.391,-49.805,-32.227,-126.465
1689806423.661,-32.227,-42.480,-33.203,-40.527,0.977
1689806423.665,-30.762,-37.109,-19.043,-33.691,-62.012
1689806423.668,-20.996,-27.344,-23.926,-23.926,-156.738
1689806423.672,-5.859,-31.738,-21.484,-20.508,140.137
1689806423.676,-13.672,-19.043,-19.531,-36.621,138.672
1689806423.680,-24.414,-7.812,-17.090,-32.227,-240.234
1689806423.684,-18.066,-13.184,-28.320,-12.207,-243.164
1689806423.671,-17.578,-20.020,-50.293,-4.883,-102.051
1689806423.675,-8.789,-24.414,-47.852,-0.488,-64.941
1689806423.679,-3.418,-21.973,-41.016,-6.836,-131.348
1689806423.683,-8.301,-29.297,-49.805,-10.254,-137.695
1689806423.687,-17.578,-34.180,-35.645,-5.371,13.184
1689806423.691,-27.832,-31.250,-17.578,-13.184,6.348
1689806423.695,-25.879,-34.668,-23.438,-24.414,18.066
1689806423.698,-31.250,-45.410,-28.809,-37.598,116.699
1689806423.702,-36.133,-60.547,-20.508,-41.504,85.938
1689806423.706,-35.645,-51.758,-22.949,-30.273,-114.258
1689806423.710,-37.598,-38.574,-32.227,-25.391,-207.031
1689806423.714,-34.180,-28.809,-25.391,-25.391,-35.156
1689806423.716,-31.250,-25.391,-27.344,-32.715,312.500
1689806423.720,-42.480,-14.648,-40.039,-49.805,31.738
1689806423.724,-51.270,-26.855,-44.922,-54.199,-231.934
1689806423.728,-43.457,-46.387,-29.297,-35.645,-80.566
1689806423.732,-36.621,-41.992,-32.715,-32.227,11.230
1689806423.736,-43.945,-41.504,-60.059,-50.781,22.949
1689806423.740,-41.992,-36.133,-40.527,-58.105,-27.344
1689806423.743,-37.109,-38.086,-20.020,-45.410,151.855
1689806423.747,-32.227,-38.086,-32.227,-20.996,354.980
1689806423.751,-18.555,-29.297,-34.668,-5.859,-32.715
1689806423.755,-16.602,-29.785,-27.344,-26.367,-202.148
1689806423.759,-32.227,-16.602,-37.598,-59.082,-63.965
1689806423.760,-40.527,-15.137,-35.645,-57.129,-163.086
1689806423.764,-42.480,-42.969,-18.555,-48.340,-182.617
1689806423.768,-38.086,-38.574,-9.766,-44.434,-16.602
1689806423.772,-37.598,-23.438,-6.836,-49.805,-20.508
1689806423.776,-44.922,-28.320,-4.395,-63.477,-141.113
1689806423.780,-44.434,-40.039,-7.812,-63.477,-110.352
1689806423.784,-51.758,-43.945,-19.531,-60.059,0.000
1689806423.787,-54.688,-51.270,-35.156,-55.176,428.223
1689806423.791,-41.504,-35.645,-38.086,-59.082,404.785
1689806423.795,-37.109,-29.785,-26.855,-66.895,-112.305
1689806423.799,-33.691,-45.898,-23.438,-55.664,-181.641
1689806423.803,-25.879,-48.340,-29.297,-37.598,-114.746
1689806423.821,-26.855,-52.246,-50.293,-38.086,-200.684
1689806423.825,-22.949,-48.828,-56.152,-41.016,-199.707
1689806423.829,-20.996,-47.363,-28.320,-36.621,-143.066
1689806423.833,-25.391,-36.133,-15.137,-35.645,-166.992
1689806423.837,-27.832,-30.273,-27.344,-29.297,-185.547
1689806423.841,-26.855,-51.270,-41.016,-21.484,-58.594
1689806423.845,-28.320,-59.082,-34.180,-26.367,242.188
1689806423.848,-31.738,-45.410,-33.203,-41.504,185.547
1689806423.852,-34.180,-36.621,-25.391,-49.805,-152.344
1689806423.856,-38.086,-36.133,-19.043,-39.551,-76.660
1689806423.860,-44.922,-38.086,-33.691,-35.645,84.961
1689806423.864,-56.152,-39.551,-34.668,-44.922,-85.449
1689806423.850,-57.617,-42.480,-30.762,-60.059,-222.656
1689806423.854,-54.199,-39.062,-31.250,-64.453,-180.176
1689806423.858,-50.293,-30.762,-24.414,-52.246,-138.672
1689806423.862,-59.082,-32.715,-24.414,-46.387,-120.605
1689806423.866,-54.199,-35.645,-44.922,-49.316,-92.285
1689806423.870,-38.086,-33.203,-51.270,-53.711,-48.828
1689806423.874,-46.387,-37.598,-44.434,-60.547,51.758
1689806423.877,-55.176,-33.691,-41.016,-58.594,66.895
1689806423.881,-52.734,-21.973,-32.227,-47.363,-72.754
1689806423.885,-36.133,-38.574,-26.855,-37.598,-46.387
1689806423.889,-28.320,-58.594,-29.785,-42.969,266.113
1689806423.893,-30.762,-14.648,-29.297,-52.734,134.766
1689806423.910,-29.297,11.719,-24.414,-42.969,-152.344
1689806423.914,-25.879,-11.230,-23.926,-21.973,-46.387
1689806423.918,-19.531,-21.484,-21.973,-20.020,254.395
1689806423.922,-9.766,-2.441,-25.879,-31.738,-21.484
1689806423.926,-8.789,-9.766,-30.273,-35.645,-226.074
1689806423.930,-21.973,-37.598,-32.715,-34.180,-60.547
1689806423.934,-24.902,-28.809,-21.484,-17.578,-43.945
1689806423.937,-22.949,-11.719,-18.555,-13.184,-163.086
1689806423.941,-27.832,-24.414,-27.344,-27.832,-116.211
1689806423.945,-29.785,-28.320,-41.504,-33.691,50.293
1689806423.949,-28.809,-24.414,-51.758,-26.855,-72.266
1689806423.953,-29.785,-34.668,-28.320,-16.602,-213.867
1689806423.955,-24.414,-33.203,-21.484,-11.230,-146.973
1689806423.959,-19.531,-20.996,-30.273,-16.602,147.461
1689806423.963,-19.043,-3.906,-20.996,-18.555,66.406
1689806423.967,-18.555,7.324,-6.348,-14.160,-202.148
1689806423.971,-21.484,-5.371,1.953,-2.441,-142.578
1689806423.975,-4.395,-20.996,-7.324,29.297,248.047
1689806423.979,17.578,1.465,-23.438,31.250,152.344
1689806423.982,-10.254,14.648,-36.133,-18.555,-111.816
1689806423.986,-18.555,-0.977,-40.527,-34.180,-36.621
1689806423.990,4.883,-5.371,-37.598,0.488,229.980
1689806423.994,13.672,9.277,-32.715,13.184,25.391
1689806423.998,25.391,6.836,-35.156,9.766,-211.914
1689806424.001,44.434,-0.977,-38.574,16.113,-110.352
1689806424.005,47.363,8.301,-41.992,18.066,-122.559
1689806424.009,41.504,9.766,-36.621,29.297,-158.203
1689806424.013,53.711,5.371,-29.785,52.246,-81.055
1689806424.017,58.594,-1.465,-32.715,46.387,95.215
1689806424.021,53.711,0.000,-41.504,28.809,33.691
1689806424.025,56.641,7.812,-42.969,32.227,-133.789
1689806424.028,65.918,16.602,-38.574,54.199,-152.344
1689806424.032,71.777,3.906,-36.133,60.059,157.227
1689806424.036,68.359,3.906,-39.062,54.199,307.129
1689806424.040,70.801,20.508,-45.898,61.523,-62.012
1689806424.044,71.289,-3.906,-38.086,60.059,-168.945
1689806424.045,64.453,-19.043,-46.387,53.711,-96.680
1689806424.049,72.754,-1.953,-42.969,66.895,-143.066
1689806424.053,72.754,-0.488,-29.297,68.848,-153.320
1689806424.057,53.223,3.906,-42.969,45.898,-114.258
1689806424.061,37.598,8.301,-38.086,23.438,-96.680
1689806424.065,27.344,-3.418,-32.227,19.531,18.555
1689806424.069,23.926,11.719,-44.922,31.250,63.965
1689806424.072,13.672,12.207,-37.109,23.926,55.176
1689806424.076,6.836,-6.348,-10.742,4.395,451.660
1689806424.080,7.324,-14.648,-20.020,-7.324,446.289
1689806424.084,11.719,1.953,-39.062,-1.465,-103.516
1689806424.088,11.719,7.324,-35.645,12.695,-124.512
1689806424.092,9.766,-14.648,-23.926,13.184,-5.859
1689806424.096,2.930,-10.254,-15.625,-1.465,-161.133
1689806424.100,-1.953,-2.930,-28.320,-12.695,-190.430
1689806424.104,-6.836,-14.160,-37.598,-9.766,-94.727
1689806424.108,-4.395,-5.371,-18.555,1.953,-90.332
1689806424.112,7.812,-12.207,-13.184,15.625,-34.180
1689806424.116,9.277,-24.902,-26.855,17.578,20.508
1689806424.119,20.020,-28.320,-25.879,33.203,135.254
1689806424.123,22.949,-15.137,-28.320,38.574,121.094
1689806424.127,-11.719,-8.789,-30.273,-2.441,-25.391
1689806424.131,-22.949,-23.926,-13.184,-18.066,-4.395
1689806424.135,-11.719,-15.137,-16.113,-14.160,67.383
1689806424.134,-20.996,0.977,-31.738,-39.551,-88.867
1689806424.138,-26.855,-8.301,-27.344,-47.852,-187.988
1689806424.142,-34.668,-5.371,-30.762,-41.016,-120.605
1689806424.146,-29.297,7.324,-41.504,-34.180,-117.676
1689806424.150,-18.555,-1.953,-43.457,-41.016,-121.582
1689806424.154,-38.086,-20.508,-51.270,-68.848,-68.359
1689806424.158,-42.480,-18.066,-45.898,-70.312,13.184
1689806424.161,-27.344,-1.953,-36.621,-49.316,394.043
1689806424.165,-25.879,16.602,-43.945,-41.992,233.398
1689806424.169,-28.320,-7.324,-35.156,-39.551,-240.234
1689806424.173,-24.902,-31.738,-30.273,-44.434,-255.371
1689806424.177,-18.555,0.488,-67.871,-44.434,-168.945
1689806424.183,-15.137,11.230,-79.590,-29.297,-152.832
1689806424.187,-15.625,-0.488,-40.039,-24.902,-177.246
1689806424.191,-16.113,-14.648,-18.066,-30.762,-13.672
1689806424.195,-15.625,-16.602,-22.949,-38.574,8.301
1689806424.199,-11.230,-8.301,-22.461,-41.504,-176.270
1689806424.203,-16.602,-7.812,-23.438,-33.691,-106.445
1689806424.207,-26.367,-21.973,-30.273,-21.973,228.027
1689806424.210,-37.109,-20.020,-31.738,-20.020,220.215
1689806424.214,-35.645,-6.348,-37.598,-32.227,-178.711
1689806424.218,-35.156,-14.648,-42.480,-41.992,-201.172
1689806424.222,-38.574,-26.367,-39.551,-34.180,-89.844
1689806424.226,-37.109,-22.949,-41.016,-30.762,-133.789
1689806424.270,-34.180,-4.395,-46.875,-36.133,-153.809
1689806424.274,-32.227,-6.348,-50.781,-40.527,-109.375
1689806424.278,-36.133,-14.648,-39.551,-45.898,2.441
1689806424.282,-33.203,-4.883,-32.227,-36.621,-59.570
1689806424.286,-30.273,-16.602,-34.180,-21.973,-154.297
1689806424.290,-29.297,-58.594,-39.062,-23.438,-50.781
1689806424.294,-21.484,-72.266,-29.297,-29.297,377.441
1689806424.297,-20.996,-30.762,-19.043,-32.227,346.191
1689806424.301,-14.648,10.254,-15.625,-24.902,-169.434
1689806424.305,-11.719,-8.301,-21.973,-17.578,-151.855
1689806424.309,-17.578,-19.043,-47.852,-20.996,43.945
1689806424.313,-19.531,-0.977,-48.340,-36.133,-120.117
1689806424.275,-31.250,-10.742,-34.180,-54.199,-170.410
1689806424.279,-35.645,-27.832,-35.156,-56.152,-112.305
1689806424.283,-33.203,-22.949,-34.668,-40.527,-171.875
1689806424.287,-31.738,-24.902,-35.645,-23.438,-199.219
1689806424.291,-28.320,-32.227,-34.668,-20.508,-150.391
1689806424.295,-33.203,-37.109,-26.855,-34.180,-40.039
1689806424.299,-34.180,-58.105,-25.879,-29.297,-2.441
1689806424.302,-30.273,-46.875,-31.250,-12.207,-71.777
1689806424.306,-38.086,-20.020,-24.902,-20.996,-61.523
1689806424.310,-40.527,-17.578,-7.812,-36.133,56.641
1689806424.314,-46.387,-10.742,-10.742,-55.664,-54.199
1689806424.318,-54.688,-13.184,-18.555,-59.082,-220.703
1689806424.330,-44.922,-29.297,-27.832,-37.109,-151.367
1689806424.334,-34.180,-53.223,-31.738,-29.297,86.914
1689806424.338,-28.320,-41.016,-35.645,-38.086,34.668
1689806424.342,-33.203,-17.090,-44.434,-51.270,-124.512
1689806424.346,-38.574,-14.648,-50.293,-53.711,-98.633
1689806424.350,-34.668,-23.926,-42.480,-31.250,354.980
1689806424.354,-35.645,-28.320,-38.086,-29.785,577.148
1689806424.357,-36.621,-24.902,-46.875,-40.039,120.605
1689806424.361,-28.809,-30.762,-30.273,-43.457,-20.996
1689806424.365,-19.043,-13.184,-25.391,-41.992,191.406
1689806424.369,-24.902,1.953,-36.621,-36.621,-69.336
1689806424.373,-23.438,2.441,-27.832,-30.762,-263.672
1689806424.391,-22.949,6.836,-21.973,-36.133,-163.574
1689806424.395,-34.180,3.418,-22.949,-49.805,-140.137
1689806424.399,-38.574,-5.371,-30.762,-57.129,-202.637
1689806424.403,-36.133,-16.113,-34.180,-46.875,-238.281
1689806424.407,-31.250,-32.227,-39.551,-29.785,-110.352
1689806424.411,-27.344,-22.949,-41.992,-34.180,77.637
1689806424.415,-30.762,-5.859,-40.039,-52.246,52.734
1689806424.418,-40.039,-23.926,-41.504,-54.199,-26.855
1689806424.422,-43.457,-43.457,-38.086,-39.551,90.820
1689806424.426,-47.852,-16.602,-30.762,-28.809,53.223
1689806424.430,-46.875,-9.277,-37.109,-33.691,-78.125
1689806424.434,-40.527,-35.156,-45.898,-41.992,-121.582
1689806424.420,-39.551,-42.480,-15.625,-37.109,149.902
1689806424.424,-52.734,-24.902,-7.812,-49.805,157.227
1689806424.428,-52.734,-26.855,-17.578,-49.316,-136.230
1689806424.432,-34.668,-28.809,-17.578,-34.180,-180.664
1689806424.436,-30.762,-26.367,-28.809,-41.504,-127.930
1689806424.440,-32.715,-18.555,-46.387,-43.945,-62.988
1689806424.444,-31.250,-12.695,-50.293,-34.668,-80.078
1689806424.447,-27.344,-35.156,-40.039,-20.996,-16.113
1689806424.451,-26.855,-34.180,-19.043,-22.461,50.781
1689806424.455,-32.227,-19.043,-9.766,-33.203,-34.180
1689806424.459,-39.062,-20.996,-28.320,-47.852,-167.969
1689806424.463,-30.273,-28.809,-38.086,-42.969,-84.961
1689806424.467,-3.418,-38.574,-34.180,-5.859,422.852
1689806424.471,-15.137,-34.180,-27.344,-2.441,310.059
1689806424.475,-64.941,-26.367,-19.531,-55.176,-137.695
1689806424.479,-80.566,-29.785,-33.203,-86.914,-128.906
1689806424.483,-83.984,-30.273,-42.969,-90.332,-173.340
1689806424.487,-93.262,-24.902,-34.668,-91.797,-152.344
1689806424.491,-104.004,-27.344,-25.391,-103.516,-65.918
1689806424.494,-124.023,-32.227,-14.160,-129.883,127.930
1689806424.498,-137.695,-18.555,-7.324,-150.391,179.688
1689806424.502,-141.602,-21.484,-18.066,-150.879,-135.742
1689806424.506,-159.180,-37.598,-15.137,-156.250,-182.617
1689806424.510,-165.039,-23.926,-4.883,-151.367,24.902
1689806424.509,-171.875,-9.766,-14.160,-161.621,-67.871
1689806424.513,-177.246,-10.254,2.441,-180.176,-214.355
1689806424.517,-181.641,-15.137,4.395,-185.059,-159.668
1689806424.521,-194.336,-29.785,-7.812,-187.012,-3.906
1689806424.525,-181.152,-42.480,0.977,-169.434,-29.785
1689806424.529,-167.480,-41.992,4.395,-157.227,-57.617
1689806424.533,-158.691,-52.246,3.906,-159.180,-33.203
1689806424.536,-150.391,-72.266,11.230,-149.414,389.648
1689806424.540,-145.508,-58.105,-1.953,-133.789,436.035
1689806424.544,-123.535,-41.016,-24.902,-108.398,-73.242
1689806424.548,-110.840,-64.941,-12.207,-101.074,-203.613
1689806424.552,-109.863,-95.215,-8.301,-103.516,-198.730
1689806424.557,-108.398,-80.566,-26.367,-98.633,-259.766
1689806424.561,-99.609,-61.035,-31.250,-80.078,-270.020
1689806424.565,-64.453,-63.965,-21.484,-36.133,-186.035
1689806424.569,-57.129,-55.664,-10.254,-26.855,-125.977
1689806424.573,-67.871,-72.754,1.953,-49.805,-158.203
1689806424.577,-49.805,-94.238,-5.859,-43.457,-100.098
1689806424.581,-33.203,-103.516,-23.438,-19.043,285.156
1689806424.584,-27.344,-88.379,-19.531,-1.465,337.891
1689806424.588,-14.160,-67.871,-30.273,11.719,-67.383
1689806424.592,-8.301,-86.914,-25.879,1.953,-147.949
1689806424.596,-3.906,-83.984,-1.465,-1.953,28.320
1689806424.600,0.000,-56.152,5.371,5.371,-72.266
1689806424.600,0.000,-58.105,0.977,13.672,-176.270
1689806424.604,8.789,-71.289,-15.137,22.461,-88.379
1689806424.608,9.277,-54.688,-18.066,12.695,-5.371
1689806424.612,1.465,-41.504,-9.766,2.930,-87.402
1689806424.616,0.488,-58.105,-10.742,12.207,-165.039
1689806424.620,8.301,-60.547,-20.020,19.043,16.113
1689806424.624,8.301,-55.176,-28.809,18.066,466.797
1689806424.627,-0.488,-43.457,-21.484,2.441,341.797
1689806424.631,-6.348,-39.551,-39.062,-14.648,-70.312
1689806424.635,-10.254,-41.992,-44.434,-15.137,-74.219
1689806424.639,-13.184,-37.109,-28.809,-5.371,0.488
1689806424.643,-2.441,-30.273,-36.621,2.441,-103.027
1689806424.660,6.836,-32.227,-25.879,-3.906,-211.914
1689806424.664,4.395,-45.410,5.371,-9.766,-85.449
1689806424.668,-0.977,-36.133,0.000,-5.371,47.363
1689806424.672,-12.695,-30.273,-20.508,-8.301,-134.766
1689806424.676,-14.160,-41.992,-43.457,-4.883,-140.625
1689806424.680,-1.465,-24.414,-20.996,2.930,111.328
1689806424.684,-0.977,-9.766,-1.465,-8.301,105.957
1689806424.687,-2.930,-27.344,-8.301,-14.648,-126.953
1689806424.691,-4.395,-35.156,-7.324,-6.836,-194.824
1689806424.695,-10.742,-25.391,-10.742,-3.906,108.887
1689806424.699,-13.184,-12.695,-26.855,-13.184,149.414
1689806424.703,-15.137,-18.555,-32.227,-24.902,-175.781
1689806424.704,-17.578,-28.809,-22.949,-29.297,-191.406
1689806424.708,-22.461,-24.414,-26.855,-19.043,-29.785
1689806424.712,-28.809,-25.879,-28.320,-13.184,-57.617
1689806424.716,-28.809,-26.367,-27.832,-22.461,-165.039
1689806424.720,-30.273,-45.410,-29.297,-27.832,-71.289
1689806424.724,-33.203,-66.406,-45.898,-25.879,309.570
1689806424.728,-32.715,-40.527,-46.875,-29.297,116.211
1689806424.731,-30.273,-22.949,-19.531,-27.344,-167.969
1689806424.735,-28.320,-28.809,-24.902,-22.949,-81.543
1689806424.739,-22.461,-34.668,-43.457,-18.555,243.164
1689806424.743,-24.414,-39.551,-37.598,-26.855,46.387
1689806424.747,-23.926,-32.227,-21.484,-24.414,-281.250
1689806424.779,-20.996,-14.160,-22.461,-7.812,-91.797
1689806424.783,-22.949,-24.902,-22.949,-14.160,-31.250
1689806424.787,-29.785,-37.109,-21.973,-30.762,-169.434
1689806424.791,-34.668,-34.668,-6.836,-37.109,-195.801
1689806424.795,-31.738,-35.156,-15.137,-30.762,-56.152
1689806424.799,-30.762,-38.086,-18.555,-19.043,8.301
1689806424.803,-30.762,-33.691,-8.301,-16.602,4.395
1689806424.806,-31.738,-42.969,-20.508,-23.438,-55.664
1689806424.810,-37.109,-54.688,-23.926,-28.320,128.906
1689806424.814,-41.992,-28.809,-36.133,-31.250,228.027
1689806424.818,-35.645,-11.719,-38.574,-20.020,-91.797
1689806424.822,-26.855,-33.203,-21.484,-10.254,-151.367
1689806424.794,-29.785,-38.086,-22.949,-26.367,-74.219
1689806424.798,-29.297,-27.344,-52.246,-41.016,-125.977
1689806424.802,-28.320,-20.508,-48.828,-34.668,-217.285
1689806424.806,-36.133,-21.484,-38.574,-25.391,-104.980
1689806424.810,-38.086,-31.250,-33.203,-15.625,75.195
1689806424.814,-26.367,-26.855,-31.738,-11.230,24.414
1689806424.818,-23.438,-24.902,-31.250,-21.484,-63.477
1689806424.821,-31.738,-29.785,-20.508,-20.020,-21.484
1689806424.825,-31.250,-29.297,-19.043,-10.742,212.891
1689806424.829,-29.297,-27.344,-33.691,-26.367,50.781
1689806424.833,-21.484,-11.719,-41.992,-31.738,-141.113
1689806424.837,-23.438,-7.324,-31.738,-33.691,-65.430
1689806424.841,-41.504,-26.855,-25.879,-48.828,1.953
1689806424.845,-40.527,-32.715,-25.391,-41.504,-77.637
1689806424.849,-30.762,-10.254,-28.320,-21.973,-142.578
1689806424.853,-32.715,-10.254,-21.484,-25.391,42.969
1689806424.857,-33.203,-18.555,-10.742,-39.062,196.777
1689806424.861,-34.668,0.488,-17.090,-41.992,-26.367
1689806424.865,-28.809,1.465,-13.184,-23.926,-52.734
1689806424.868,-28.320,-23.926,-24.414,-19.043,174.805
1689806424.872,-29.785,-27.832,-39.062,-27.344,7.324
1689806424.876,-27.344,-31.738,-43.457,-33.691,-226.562
1689806424.880,-29.785,-34.668,-37.109,-44.922,-175.781
1689806424.884,-31.738,-25.879,-26.855,-39.551,111.328
1689806424.884,-28.809,-23.926,-39.062,-23.926,83.008
1689806424.888,-27.344,-10.742,-39.062,-23.438,-164.062
1689806424.892,-28.320,-15.137,-32.227,-36.621,-95.215
1689806424.896,-36.621,-23.926,-38.086,-39.551,73.242
1689806424.900,-40.527,-4.395,-29.785,-30.762,-77.148
1689806424.904,-46.387,3.418,-30.762,-29.785,-139.648
1689806424.908,-47.852,-6.348,-33.203,-28.809,101.562
1689806424.911,-40.039,-23.438,-40.039,-28.320,440.430
1689806424.915,-43.457,-19.531,-32.715,-38.574,277.832
1689806424.919,-45.898,-11.719,-17.578,-35.645,-214.355
1689806424.923,-36.621,-28.809,-28.320,-18.555,-185.547
1689806424.927,-36.621,-37.598,-28.809,-19.043,-83.008
1689806424.946,-42.480,-27.344,-13.672,-36.621,-239.258
1689806424.950,-39.551,-8.301,-5.371,-42.969,-267.090
1689806424.954,-38.086,-10.742,-20.996,-37.598,-184.082
1689806424.958,-40.527,-8.301,-50.293,-24.902,-124.023
1689806424.962,-36.133,6.348,-41.992,-12.695,-129.395
1689806424.966,-31.738,-8.789,-22.461,-25.879,-57.129
1689806424.970,-35.156,-30.762,-24.902,-45.410,234.863
1689806424.973,-41.016,-23.438,-40.527,-49.805,194.336
1689806424.977,-37.598,-17.090,-43.457,-41.992,-135.742
1689806424.981,-27.344,-23.438,-33.691,-26.367,-111.328
1689806424.985,-30.273,-24.414,-23.926,-34.668,40.527
1689806424.989,-31.250,-8.789,-9.766,-41.504,-20.996
1689806424.976,-33.691,-13.672,-20.508,-36.133,-175.293
1689806424.980,-30.762,-58.594,-17.578,-27.344,-104.980
1689806424.984,-24.902,-47.363,-17.090,-16.113,101.074
1689806424.988,-29.297,-6.836,-31.250,-24.414,-18.066
1689806424.992,-27.344,-7.812,-39.551,-35.156,-169.434
1689806424.996,-25.391,-8.301,-51.270,-33.691,-17.578
1689806425.000,-34.180,-13.672,-46.875,-28.809,114.258
1689806425.003,-38.086,-24.902,-19.043,-29.785,35.156
1689806425.007,-36.133,-36.621,-27.344,-34.668,-60.059
1689806425.011,-33.203,-46.875,-40.039,-39.062,-41.504
1689806425.015,-24.414,-43.457,-21.973,-35.156,257.324
1689806425.019,-26.367,-25.879,-14.648,-28.320,120.117
1689806425.035,-27.832,-21.484,-21.484,-20.020,-198.242
1689806425.039,-18.555,-19.043,-48.828,-16.113,-40.039
1689806425.043,-27.832,-29.297,-37.598,-31.738,-4.395
1689806425.047,-40.039,-43.457,-30.762,-51.758,-185.059
1689806425.051,-27.832,-27.344,-35.645,-35.645,-267.090
1689806425.055,-29.785,-26.855,-21.973,-19.531,63.477
1689806425.059,-48.828,-25.879,-21.484,-37.598,399.902
1689806425.062,-61.035,-20.020,-26.855,-57.617,-35.645
1689806425.066,-61.035,-24.414,-24.414,-62.500,-225.586
1689806425.070,-57.129,-31.250,-18.555,-54.199,1.953
1689806425.074,-48.828,-31.738,-32.227,-36.133,-91.309
1689806425.078,-41.016,-31.250,-46.875,-32.715,-224.609
1689806425.080,-39.551,-42.480,-49.805,-45.410,-219.727
1689806425.084,-37.598,-44.922,-49.316,-48.340,-172.852
1689806425.088,-31.738,-38.574,-31.738,-43.457,-138.672
1689806425.092,-25.391,-40.527,-18.066,-28.809,-92.285
1689806425.096,-12.695,-47.363,-19.531,-13.672,51.758
1689806425.100,-17.578,-37.598,-35.156,-23.926,314.941
1689806425.104,-44.434,-16.113,-24.414,-55.664,135.742
1689806425.107,-50.293,-5.371,-11.719,-55.176,-119.141
1689806425.111,-44.922,-7.324,-18.066,-34.668,-26.855
1689806425.115,-43.457,-18.066,-19.531,-31.738,233.398
1689806425.119,-33.691,-8.301,-38.086,-44.434,24.414
1689806425.123,-28.809,-10.254,-56.152,-53.223,-231.445
1689806425.140,-37.109,-29.785,-38.086,-45.898,-171.875
1689806425.144,-42.480,-35.156,-34.180,-35.645,-172.363
1689806425.148,-30.273,-25.391,-24.902,-28.320,-188.965
1689806425.152,-22.949,-20.508,-16.113,-28.320,-153.320
1689806425.156,-26.855,-51.758,-43.945,-40.527,-84.473
1689806425.160,-28.320,-60.547,-41.016,-36.621,38.086
1689806425.164,-26.855,-37.109,-32.715,-23.438,101.074
1689806425.167,-19.043,-31.738,-36.133,-20.020,49.805
1689806425.171,-12.695,-33.203,-22.461,-24.414,215.332
1689806425.175,-13.672,-15.625,-21.973,-35.156,289.062
1689806425.179,-14.648,0.488,-25.879,-38.086,-86.914
1689806425.183,-8.789,-13.184,-32.715,-15.137,-135.254
1689806425.170,-2.441,-24.414,-38.574,1.953,-22.461
1689806425.174,1.953,-30.762,-29.785,3.418,-122.070
1689806425.178,-2.441,-28.320,-27.344,-10.254,-218.750
1689806425.182,-6.348,-20.996,-24.902,-21.484,-186.035
1689806425.186,-13.672,-40.527,-20.508,-21.484,-28.809
1689806425.190,-13.184,-25.391,-22.949,-16.113,6.348
1689806425.194,-14.648,-7.324,-26.855,-19.043,8.789
1689806425.197,-20.508,-30.273,-21.973,-32.227,75.195
1689806425.201,-19.043,-20.020,-12.207,-33.691,132.324
1689806425.205,-26.855,-4.395,-8.789,-20.996,-93.262
1689806425.209,-39.062,-12.695,-16.602,-14.160,-263.184
1689806425.213,-33.203,-26.367,-13.672,-15.137,-59.082
1689806425.216,-25.391,-46.387,-22.949,-22.949,329.590
1689806425.220,-32.715,-30.762,-36.133,-34.668,102.539
1689806425.224,-34.668,-16.113,-18.555,-32.715,-220.215
1689806425.228,-27.832,-28.809,-6.836,-23.926,-115.723
1689806425.232,-27.344,-31.250,-13.672,-20.508,-38.086
1689806425.236,-30.762,-24.414,-19.531,-25.879,-37.109
1689806425.240,-31.738,-45.898,-20.996,-25.391,-63.477
1689806425.243,-31.738,-49.316,-26.367,-12.207,118.652
1689806425.247,-33.691,-23.438,-28.320,-9.766,199.707
1689806425.251,-39.551,-8.301,-20.020,-18.066,-65.430
1689806425.255,-38.086,-21.973,-21.484,-28.320,-115.234
1689806425.259,-32.227,-40.527,-38.574,-37.109,-39.551
1689806425.259,-32.715,-35.645,-31.738,-36.133,-153.320
1689806425.263,-28.320,-25.879,-13.672,-22.949,-242.676
1689806425.267,-17.090,-28.320,-19.531,-15.625,-168.945
1689806425.271,-16.113,-30.762,-13.184,-25.391,-45.898
1689806425.275,-24.902,-19.531,-7.324,-38.574,-156.738
1689806425.279,-35.645,-26.367,-27.832,-41.016,-190.430
1689806425.283,-35.645,-39.062,-46.387,-33.691,-74.219
1689806425.286,-25.879,-43.457,-36.621,-18.555,380.371
1689806425.290,-29.297,-43.457,-33.203,-24.902,257.812
1689806425.294,-24.902,-43.457,-33.691,-29.785,-270.020
1689806425.298,-14.160,-33.691,-39.062,-15.625,-249.512
1689806425.302,-12.695,-24.902,-37.598,-3.418,-190.918
1689806425.308,-22.949,-14.648,-25.391,-10.254,-245.117
1689806425.312,-34.668,-16.602,-27.344,-28.320,-189.453
1689806425.316,-42.969,-38.574,-28.809,-38.086,-37.598
1689806425.320,-43.457,-34.180,-20.996,-37.598,-114.258
1689806425.324,-36.133,-30.273,-21.973,-20.020,-211.426
1689806425.328,-32.227,-48.828,-34.180,-5.859,-50.781
1689806425.332,-27.344,-69.336,-40.039,-10.742,234.863
1689806425.335,-24.902,-57.129,-20.020,-20.020,234.863
1689806425.339,-30.273,-24.414,-15.625,-22.949,-178.223
1689806425.343,-32.715,-19.531,-22.949,-18.066,-220.703
1689806425.347,-29.297,-32.715,-32.715,-15.625,-74.219
1689806425.351,-27.832,-35.156,-37.109,-25.391,-120.117
1689806425.365,-32.227,-38.086,-24.902,-37.109,-176.758
1689806425.369,-33.203,-33.691,-19.531,-38.086,-135.254
1689806425.373,-30.762,-20.508,-26.855,-29.297,-79.590
1689806425.377,-28.809,-25.879,-32.227,-26.855,-53.711
1689806425.381,-22.949,-33.203,-23.926,-31.250,-24.902
1689806425.385,-26.855,-43.945,-25.391,-38.086,15.625
1689806425.389,-33.203,-60.547,-22.949,-33.203,373.047
1689806425.392,-39.551,-32.227,-26.855,-32.715,342.285
1689806425.396,-39.062,-22.461,-25.879,-33.203,-115.723
1689806425.400,-35.645,-37.109,-20.996,-28.809,-152.344
1689806425.404,-42.969,-38.086,-26.855,-41.992,-94.238
1689806425.408,-43.945,-28.809,-28.809,-48.340,-159.180
1689806425.411,-39.551,-30.273,-35.156,-35.156,-215.820
1689806425.415,-32.715,-33.691,-38.574,-17.578,-84.473
1689806425.419,-25.879,-31.250,-39.062,-12.695,20.996
1689806425.423,-22.949,-36.621,-25.391,-25.879,-136.230
1689806425.427,-28.809,-48.828,-20.508,-42.480,-195.801
1689806425.431,-22.461,-55.664,-25.879,-32.715,97.656
1689806425.435,-12.695,-57.617,-23.438,-14.648,152.344
1689806425.438,-18.555,-53.223,-17.578,-10.742,-48.340
1689806425.442,-25.879,-34.180,-21.484,-19.043,-104.980
1689806425.446,-25.879,-25.879,-10.742,-20.996,62.012
1689806425.450,-34.668,-19.043,-20.020,-26.855,44.922
1689806425.454,-40.527,-16.113,-27.832,-24.902,-153.809
1689806425.454,-34.668,-24.902,-35.156,-19.531,-129.395
1689806425.458,-24.414,-24.414,-35.645,-21.484,218.262
1689806425.462,-31.250,-22.461,-32.227,-32.715,247.070
1689806425.466,-32.227,-27.344,-26.367,-40.039,-95.703
1689806425.470,-26.367,-38.086,-12.695,-28.320,-142.578
1689806425.474,-19.043,-39.551,-13.672,-16.602,33.203
1689806425.478,-10.254,-32.715,-27.344,-26.855,47.363
1689806425.481,-18.066,-52.246,-37.109,-40.039,-65.918
1689806425.485,-18.555,-41.504,-30.762,-30.762,-53.711
1689806425.489,-15.625,-20.996,-25.879,-14.648,332.031
1689806425.493,-21.484,-21.973,-31.250,-20.508,257.812
1689806425.497,-24.902,-25.391,-49.316,-36.133,-175.293
1689806425.502,-26.367,-31.250,-35.645,-40.039,-220.703
1689806425.506,-28.809,-32.715,-28.809,-32.227,-212.891
1689806425.510,-28.320,-30.762,-38.086,-21.973,-194.336
1689806425.514,-22.461,-21.973,-21.973,-11.719,-123.047
1689806425.518,-14.160,-28.809,-7.812,-13.184,-48.828
1689806425.522,-19.531,-38.086,-11.230,-29.785,-7.812
1689806425.526,-26.367,-30.273,-20.508,-32.715,-60.059
1689806425.529,-23.926,-19.043,-28.320,-16.113,-157.227
1689806425.533,-20.020,-28.320,-30.273,-0.488,98.145
1689806425.537,-26.367,-35.645,-25.391,-11.230,202.637
1689806425.541,-28.809,-22.461,-30.273,-28.320,-135.254
1689806425.545,-28.809,-30.273,-41.992,-28.320,-144.043
1689806425.544,-34.180,-22.949,-41.504,-13.672,67.383
1689806425.548,-42.969,-1.465,-37.598,-9.766,-67.383
1689806425.552,-44.922,-12.207,-41.504,-18.066,-141.113
1689806425.556,-45.410,-29.297,-34.668,-26.855,-118.164
1689806425.560,-49.805,-34.668,-13.184,-38.086,-119.141
1689806425.564,-41.504,-36.133,-4.883,-35.645,-50.293
1689806425.568,-29.785,-38.086,-9.766,-22.949,-26.855
1689806425.571,-24.414,-42.969,-15.137,-22.949,39.551
1689806425.575,-21.973,-59.570,-28.320,-33.203,353.027
1689806425.579,-23.926,-36.133,-45.898,-39.551,232.910
1689806425.583,-24.414,-16.602,-49.805,-30.762,-166.504
1689806425.587,-26.855,-37.598,-40.527,-18.555,-101.562
1689806425.593,-32.715,-41.504,-30.762,-24.902,-46.875
1689806425.597,-43.457,-29.785,-36.621,-47.363,-174.316
1689806425.601,-46.875,-20.996,-33.203,-51.270,-125.977
1689806425.605,-41.016,-26.855,-15.625,-39.062,6.348
1689806425.609,-43.457,-29.785,-12.695,-32.715,-12.695
1689806425.613,-44.922,-31.250,-20.508,-25.879,12.207
1689806425.617,-41.992,-33.203,-36.133,-29.785,49.805
1689806425.620,-45.410,-40.527,-54.199,-41.992,77.148
1689806425.624,-48.340,-30.273,-43.945,-37.598,144.531
1689806425.628,-51.270,-23.438,-43.945,-32.715,-17.090
1689806425.632,-57.129,-36.621,-41.992,-40.527,-33.203
1689806425.636,-59.570,-44.434,-25.879,-49.316,20.996
1689806425.634,-61.035,-44.434,-24.902,-55.176,-75.195
1689806425.638,-50.293,-29.297,-19.043,-40.039,-157.715
1689806425.642,-44.434,-38.574,-23.438,-25.879,-122.559
1689806425.646,-45.410,-25.391,-45.410,-24.902,-48.828
1689806425.650,-46.875,-10.742,-52.734,-30.762,-31.250
1689806425.654,-49.316,-23.926,-34.668,-42.480,-33.203
1689806425.658,-47.363,-30.762,-25.391,-46.875,17.578
1689806425.661,-42.480,-57.129,-26.855,-37.598,469.727
1689806425.665,-41.992,-57.129,-45.410,-31.738,600.098
1689806425.669,-38.086,-20.996,-44.434,-34.180,8.789
1689806425.673,-34.668,-15.625,-16.113,-36.133,-228.027
1689806425.677,-36.133,-20.020,-19.043,-46.387,-173.828
1689806425.682,-22.949,-18.066,-31.738,-33.691,-247.559
1689806425.686,-14.160,-33.691,-40.527,-14.648,-185.059
1689806425.690,-19.531,-49.316,-32.227,-31.250,-4.395
1689806425.694,-29.785,-43.457,-24.902,-46.875,-57.617
1689806425.698,-38.086,-20.020,-35.156,-42.969,-181.641
1689806425.702,-33.203,-15.137,-35.156,-32.715,-48.828
1689806425.706,-17.090,-34.668,-23.926,-15.137,247.070
1689806425.709,-15.625,-24.414,-25.879,-16.113,304.199
1689806425.713,-17.090,-14.648,-21.484,-28.809,-86.914
1689806425.717,-19.043,-39.062,-27.344,-31.250,-223.145
1689806425.721,-18.555,-52.246,-30.762,-21.484,15.625
1689806425.725,-17.578,-51.758,-11.230,-11.719,-27.344
1689806425.725,-31.250,-48.340,-23.926,-22.949,-103.516
1689806425.729,-38.574,-45.410,-27.344,-37.598,-71.289
1689806425.733,-32.715,-57.617,-10.254,-35.645,-99.121
1689806425.737,-28.809,-53.711,-26.855,-25.879,-156.738
1689806425.741,-31.250,-41.992,-41.992,-18.555,-137.695
1689806425.745,-27.344,-50.293,-17.578,-7.324,15.625
1689806425.749,-20.996,-59.570,-2.930,-10.254,378.418
1689806425.752,-20.996,-63.965,-24.414,-27.832,240.234
1689806425.756,-27.832,-59.082,-21.484,-28.809,-208.984
1689806425.760,-32.227,-56.641,-22.949,-20.508,-80.566
1689806425.764,-23.438,-44.922,-31.250,-10.254,194.336
1689806425.768,-12.207,-34.668,-22.461,-16.113,-158.203
1689806425.785,-21.484,-46.875,-21.484,-33.203,-386.719
1689806425.789,-36.133,-40.039,-29.785,-37.598,-239.746
1689806425.793,-29.297,-33.691,-27.344,-21.484,-134.277
1689806425.797,-24.414,-39.062,-11.230,-14.160,-189.941
1689806425.801,-24.902,-29.297,-16.113,-22.949,-193.848
1689806425.805,-24.902,-34.180,-33.691,-32.715,-0.488
1689806425.809,-32.715,-41.992,-50.781,-36.621,34.668
1689806425.812,-41.992,-37.109,-28.809,-27.344,-92.285
1689806425.816,-41.504,-44.434,-20.508,-27.344,-36.133
1689806425.820,-27.832,-44.922,-47.363,-30.273,134.277
1689806425.824,-27.832,-35.156,-44.922,-32.715,23.926
1689806425.828,-32.715,-38.086,-42.480,-31.738,-120.605
1689806425.830,-20.508,-47.852,-40.527,-10.254,-1.953
1689806425.834,-3.906,-35.156,-30.762,8.789,182.617
1689806425.838,-5.371,-14.160,-30.762,-4.883,11.230
1689806425.842,-9.766,-17.090,-13.672,-15.137,-143.066
1689806425.846,-15.137,-39.062,3.906,-14.648,-56.641
1689806425.850,-19.043,-52.246,-7.812,-9.766,445.312
1689806425.854,-19.043,-43.945,-21.973,0.000,682.129
1689806425.857,-20.996,-31.250,-25.879,-5.859,113.770
1689806425.861,-19.043,-40.039,-29.297,-16.113,-174.805
1689806425.865,-19.531,-61.035,-35.645,-16.113,153.320
1689806425.869,-24.902,-36.133,-28.809,-10.742,-26.855
1689806425.873,-22.949,-16.113,-10.254,-4.395,-270.508
1689806425.949,-19.531,-16.602,-3.418,-10.254,-138.184
1689806425.953,-30.273,-13.184,-0.977,-31.250,-151.855
1689806425.957,-34.180,-22.949,-8.789,-36.133,-124.023
1689806425.961,-41.504,-27.832,-18.555,-32.227,-124.512
1689806425.965,-54.199,-28.809,-41.504,-35.645,-45.898
1689806425.969,-47.363,-34.180,-53.711,-41.016,95.703
1689806425.973,-49.316,-29.297,-31.250,-47.363,42.969
1689806425.976,-63.965,-23.438,-23.926,-57.617,-183.594
1689806425.980,-62.012,-34.180,-27.832,-49.805,2.930
1689806425.984,-45.410,-30.762,-34.180,-29.297,193.848
1689806425.988,-34.668,-16.602,-31.250,-23.926,-117.188
1689806425.992,-30.762,-24.414,-18.066,-30.762,-166.992
1689806425.964,-27.344,-37.598,-11.719,-35.156,-122.559
1689806425.968,-29.785,-29.297,-17.578,-31.738,-183.594
1689806425.972,-33.203,-12.695,-19.531,-27.344,-141.602
1689806425.976,-27.344,-9.277,-22.461,-20.020,-100.098
1689806425.980,-27.344,-7.324,-36.133,-22.949,-50.293
1689806425.984,-39.551,-9.766,-44.434,-38.574,-66.406
1689806425.988,-48.340,-26.855,-22.949,-37.598,-79.590
1689806425.991,-43.945,-38.574,-11.719,-28.320,119.141
1689806425.995,-42.969,-20.996,-30.273,-30.273,177.734
1689806425.999,-41.504,-8.789,-24.414,-44.922,3.418
1689806426.003,-35.645,-9.277,-21.484,-51.270,-194.336
1689806426.007,-27.832,-11.719,-32.227,-40.527,-104.492
1689806425.971,-19.043,-16.602,-34.668,-24.414,286.133
1689806425.975,-9.766,-8.301,-36.621,-18.066,50.293
1689806425.979,-3.418,-8.301,-38.086,-16.113,-206.543
1689806425.983,-17.090,-20.508,-37.598,-24.414,-63.965
1689806425.987,-34.180,-19.043,-38.574,-25.391,-30.762
1689806425.991,-27.832,-6.348,-29.297,-1.953,-45.898
1689806425.995,-23.438,-11.230,-24.414,3.418,9.766
1689806425.998,-25.879,-26.855,-20.996,-13.184,167.480
1689806426.002,-28.320,-22.461,-20.020,-25.391,79.102
1689806426.006,-32.227,-14.160,-18.555,-36.133,-149.902
1689806426.010,-39.551,-17.090,-20.996,-35.645,-110.352
1689806426.014,-45.410,-18.066,-17.578,-36.133,14.648
1689806426.009,-44.434,-15.137,-4.883,-49.316,-92.285
1689806426.013,-46.875,-14.160,-18.066,-62.988,-220.703
1689806426.017,-54.688,-7.812,-32.227,-63.965,-169.922
1689806426.021,-63.477,-2.930,-20.996,-63.477,188.965
1689806426.025,-79.102,0.488,-13.672,-76.660,207.031
1689806426.029,-86.914,-4.883,-16.113,-84.961,-76.660
1689806426.033,-86.426,-13.672,-13.184,-97.656,-92.285
1689806426.036,-93.750,-13.672,-11.230,-115.723,246.094
1689806426.040,-105.957,4.395,-39.062,-116.699,411.621
1689806426.044,-118.164,5.859,-46.875,-117.676,282.715
1689806426.048,-127.441,0.488,-21.484,-137.695,-2.441
1689806426.052,-133.789,12.695,-29.785,-158.691,-126.953
1689806426.058,-138.672,24.414,-34.180,-167.480,-215.332
1689806426.062,-151.855,20.508,-37.598,-166.992,-296.875
1689806426.066,-154.297,16.113,-40.527,-153.320,-158.691
1689806426.070,-147.461,23.926,-24.414,-147.461,-75.195
1689806426.074,-142.578,28.320,-25.391,-156.250,-158.691
1689806426.078,-144.531,13.672,-21.973,-173.340,-123.047
1689806426.082,-144.043,-2.930,-34.668,-174.316,128.906
1689806426.085,-129.395,11.719,-39.551,-157.227,209.961
1689806426.089,-107.910,27.344,-31.738,-144.043,-56.152
1689806426.093,-108.887,24.902,-41.504,-150.391,-132.324
1689806426.097,-118.164,16.602,-30.762,-154.297,-136.230
1689806426.101,-104.492,21.484,-14.160,-124.512,-157.715
1689806426.101,-91.797,31.738,-34.668,-102.539,-97.656
1689806426.105,-85.449,31.738,-35.645,-101.074,-71.777
1689806426.109,-67.871,25.879,-20.508,-95.215,-21.973
1689806426.113,-70.801,9.766,-15.625,-102.539,-108.398
1689806426.117,-78.613,1.953,-22.461,-102.539,-179.199
1689806426.121,-71.289,11.719,-40.527,-80.566,-12.207
1689806426.125,-64.453,6.348,-36.621,-70.801,417.480
1689806426.128,-65.430,8.301,-30.762,-92.773,307.617
1689806426.132,-66.895,-11.719,-35.645,-101.074,-182.129
1689806426.136,-49.805,-10.254,-44.434,-74.707,-190.430
1689806426.140,-39.551,15.625,-53.223,-58.105,5.371
1689806426.144,-38.086,20.020,-41.992,-51.758,-136.719
1689806426.161,-23.438,5.371,-36.621,-44.434,-216.309
1689806426.165,-18.066,-17.578,-65.430,-52.246,-194.336
1689806426.169,-16.602,-28.320,-53.711,-40.527,-191.406
1689806426.173,-22.461,-25.391,-39.062,-33.203,-139.648
1689806426.177,-25.879,-23.926,-46.875,-33.203,-186.523
1689806426.181,-8.301,-28.809,-42.480,-22.461,57.617
1689806426.185,7.324,-15.137,-29.297,-17.578,232.910
1689806426.188,11.230,0.977,-28.809,-14.648,-158.691
1689806426.192,2.441,-18.555,-30.762,-8.789,-242.188
1689806426.196,-0.488,-38.086,-36.133,-0.977,5.859
1689806426.200,4.395,-34.668,-46.875,-6.348,-42.480
1689806426.204,3.418,-32.715,-42.480,-8.789,-206.543
1689806426.205,5.859,-37.109,-40.527,0.000,-166.504
1689806426.209,13.184,-57.617,-39.551,11.719,-75.684
1689806426.213,14.648,-57.617,-40.527,18.066,-51.270
1689806426.217,17.578,-38.086,-45.898,20.508,-67.383
1689806426.221,15.137,-20.020,-55.664,13.672,0.488
1689806426.225,10.254,-16.113,-33.203,9.277,98.633
1689806426.229,6.836,-29.785,-18.555,11.719,42.969
1689806426.232,6.348,-39.551,-31.738,16.602,113.281
1689806426.236,14.648,-32.715,-25.879,18.066,173.828
1689806426.240,17.090,-36.621,-21.973,19.531,367.676
1689806426.244,12.207,-28.320,-21.484,11.230,276.855
1689806426.248,23.438,-25.391,-20.508,18.555,-146.973
1689806426.251,36.621,-27.344,-23.926,44.434,-136.719
1689806426.255,38.086,-11.719,-29.297,47.363,-85.449
1689806426.259,38.574,-16.602,-45.410,38.086,-195.312
1689806426.263,37.598,-40.527,-40.527,34.668,-174.805
1689806426.267,32.227,-52.246,-31.250,33.203,-34.668
1689806426.271,36.133,-27.832,-48.828,41.504,18.555
1689806426.275,41.504,-14.160,-60.059,45.410,14.160
1689806426.278,29.297,-20.508,-41.992,30.762,-31.250
1689806426.282,20.996,-38.574,-12.695,15.137,111.328
1689806426.286,11.230,-32.715,-6.348,13.184,291.016
1689806426.290,6.836,-11.719,-9.277,21.973,-46.875
1689806426.294,20.508,-14.160,-16.602,26.367,-131.836
1689806426.310,30.762,-17.578,-29.785,26.367,-47.852
1689806426.314,26.367,-16.602,-36.133,21.973,-145.508
1689806426.318,11.719,-26.855,-33.691,9.277,-169.922
1689806426.322,12.695,-19.531,-35.645,20.020,-185.059
1689806426.326,17.090,-25.879,-32.715,25.879,-92.285
1689806426.330,7.812,-38.574,-8.301,11.230,-18.066
1689806426.334,4.883,-20.996,-4.883,4.395,-55.664
1689806426.337,2.930,-23.926,-19.043,6.348,-24.414
1689806426.341,-0.488,-39.551,-21.973,23.438,276.367
1689806426.345,10.254,-28.809,-18.555,39.062,253.418
1689806426.349,2.930,-22.461,-21.973,23.926,-64.941
1689806426.353,-12.695,-21.484,-33.203,3.418,-141.113
1689806426.343,-10.742,-11.719,-30.762,2.930,-94.238
1689806426.347,-6.348,-10.254,-30.762,17.090,-150.879
1689806426.351,-18.066,-27.832,-26.855,16.602,-173.340
1689806426.355,-27.344,-41.504,-16.113,3.906,-76.172
1689806426.359,-25.391,-43.457,-17.578,-4.395,-66.406
1689806426.363,-20.996,-27.832,-32.227,-2.441,-72.266
1689806426.367,-16.113,-11.230,-30.762,11.230,-14.648
1689806426.370,-21.973,-19.531,-23.438,11.230,85.938
1689806426.374,-20.020,-26.855,-20.508,3.418,-19.043
1689806426.378,-18.555,-27.344,-29.785,-6.348,-138.672
1689806426.382,-18.555,-24.414,-25.879,-13.672,-154.297
1689806426.386,-8.301,-24.414,-22.949,1.953,74.219
1689806426.386,-11.719,-20.020,-32.227,11.230,180.176
1689806426.390,-13.184,-16.602,-21.484,4.395,-28.320
1689806426.394,-11.719,-20.996,-22.461,-6.836,-68.359
1689806426.398,-12.207,-14.160,-28.320,-7.812,34.180
1689806426.402,-17.578,-1.465,-29.297,0.000,-21.484
1689806426.406,-20.020,-6.348,-34.668,0.488,-74.707
1689806426.410,-14.160,-22.461,-19.043,-10.742,55.176
1689806426.413,-17.578,-27.344,-16.113,-23.438,421.387
1689806426.417,-17.090,-12.695,-28.320,-28.809,397.461
1689806426.421,-17.578,-4.395,-31.738,-21.973,-99.609
1689806426.425,-16.602,-17.090,-36.621,-4.883,-198.242
1689806426.429,-9.766,-32.715,-40.039,-0.977,-131.348
1689806426.431,-8.301,-32.227,-39.062,-9.277,-213.867
1689806426.435,-14.648,-9.277,-37.109,-27.344,-256.836
1689806426.439,-14.160,4.883,-40.039,-28.809,-179.688
1689806426.443,-15.625,2.930,-32.227,-12.207,-52.734
1689806426.447,-9.766,-4.395,-14.160,-12.207,-71.289
1689806426.451,-7.812,-15.625,-23.438,-25.391,-78.613
1689806426.455,-21.484,-25.879,-34.668,-31.250,221.680
1689806426.458,-28.320,-38.574,-16.602,-23.926,396.973
1689806426.462,-23.438,-34.668,-10.254,-9.277,-24.414
1689806426.466,-25.879,-26.367,-23.438,-8.301,-206.543
1689806426.470,-25.879,-15.137,-31.738,-21.484,-117.188
1689806426.474,-32.227,-8.301,-33.203,-30.273,-172.363
1689806426.475,-34.180,-9.277,-37.598,-27.832,-232.422
1689806426.479,-24.902,4.883,-41.504,-15.137,-182.617
1689806426.483,-22.949,6.348,-50.293,-11.719,-87.402
1689806426.487,-21.973,-1.953,-42.480,-18.555,-103.027
1689806426.491,-21.973,-7.324,-30.762,-24.902,-163.574
1689806426.495,-25.879,-7.812,-30.273,-21.973,-61.523
1689806426.499,-29.297,-10.254,-34.180,-9.766,300.293
1689806426.502,-31.250,-3.418,-17.578,-9.766,247.559
1689806426.506,-26.855,-1.953,-19.043,-17.090,-46.387
1689806426.510,-14.160,-2.930,-29.297,-13.184,-65.430
1689806426.514,-8.789,-0.488,-26.367,-9.766,154.785
1689806426.518,-3.418,12.207,-33.691,-8.301,-77.637
1689806426.538,9.277,3.418,-36.133,5.371,-218.750
1689806426.542,11.719,-20.996,-33.691,2.930,-76.660
1689806426.546,6.348,2.930,-38.574,-15.137,-136.719
1689806426.550,2.441,20.020,-31.738,-20.508,-187.012
1689806426.554,1.465,-3.906,-22.949,-6.836,-147.461
1689806426.558,3.418,-6.348,-22.949,3.906,98.145
1689806426.562,-0.977,4.883,-28.320,-5.859,115.234
1689806426.565,-10.254,0.488,-28.809,-20.996,-107.422
1689806426.569,-11.230,-4.395,-17.090,-18.066,-151.855
1689806426.573,-11.230,-18.066,-18.066,-3.906,136.230
1689806426.577,-23.438,-9.277,-32.227,-4.395,241.699
1689806426.581,-22.949,2.441,-40.039,-11.230,-125.000
1689806426.579,-14.648,-20.020,-39.551,-15.625,-195.312
1689806426.583,-24.414,-25.879,-31.250,-30.762,-93.750
1689806426.587,-35.156,-26.367,-27.832,-27.832,-116.699
1689806426.591,-26.855,-26.855,-36.621,-12.207,-151.855
1689806426.595,-25.879,-28.320,-45.410,-16.113,-63.477
1689806426.599,-38.086,-29.297,-33.691,-33.691,107.910
1689806426.603,-43.457,-24.902,-22.949,-44.434,65.918
1689806426.606,-42.480,-25.391,-24.902,-40.039,-31.250
1689806426.610,-42.480,-45.898,-20.508,-32.227,-21.484
1689806426.614,-41.504,-61.035,-21.484,-33.203,288.574
1689806426.618,-59.082,-58.105,-26.367,-59.082,187.988
1689806426.622,-72.754,-59.082,-33.203,-81.543,-119.629
1689806426.626,-71.777,-58.594,-37.598,-80.078,-121.094
1689806426.630,-76.660,-47.363,-25.879,-73.730,-94.238
1689806426.634,-80.078,-36.621,-26.855,-82.031,-157.715
1689806426.638,-84.961,-28.809,-27.344,-100.586,-181.641
1689806426.642,-96.191,-24.414,-17.090,-110.352,-104.004
1689806426.646,-102.539,-22.461,-34.180,-106.934,19.043
1689806426.650,-104.980,-13.672,-45.898,-102.539,45.898
1689806426.653,-107.910,-13.184,-29.297,-105.469,-93.750
1689806426.657,-102.051,-32.715,-26.367,-111.328,98.145
1689806426.661,-104.004,-13.672,-28.320,-124.512,129.395
1689806426.665,-114.746,12.695,-26.367,-138.672,-178.223
1689806426.669,-119.141,12.695,-27.344,-131.348,-150.879
1689806426.670,-111.816,17.090,-30.762,-116.699,-47.363
1689806426.674,-105.957,16.602,-31.738,-117.676,7.324
1689806426.678,-113.770,14.160,-38.086,-134.766,-113.770
1689806426.682,-126.953,6.836,-35.156,-145.996,-154.785
1689806426.686,-130.371,16.602,-41.016,-140.625,32.227
1689806426.690,-124.023,17.578,-56.641,-132.812,48.828
1689806426.694,-121.582,19.043,-53.711,-136.719,2.441
1689806426.697,-117.676,29.785,-37.598,-146.484,-29.785
1689806426.701,-112.793,46.875,-22.461,-141.113,257.324
1689806426.705,-118.652,82.031,-18.555,-133.301,202.637
1689806426.709,-109.375,81.055,-24.414,-127.441,-146.973
1689806426.713,-91.309,63.965,-30.762,-118.652,-177.246
1689806426.716,-91.797,70.312,-37.109,-133.301,-147.949
1689806426.720,-92.285,73.242,-38.574,-138.184,-208.008
1689806426.724,-81.055,61.523,-45.410,-115.723,-161.621
1689806426.728,-72.266,49.316,-45.410,-95.215,26.367
1689806426.732,-73.730,53.223,-51.758,-92.285,17.578
1689806426.736,-70.801,55.176,-61.523,-100.098,-48.828
1689806426.740,-65.430,53.711,-39.551,-97.656,-38.086
1689806426.743,-66.406,36.621,-28.809,-90.820,81.543
1689806426.747,-60.059,25.879,-32.715,-80.566,240.234
1689806426.751,-52.246,9.766,-29.785,-83.496,-72.266
1689806426.755,-49.805,-4.883,-31.250,-87.402,-236.328
1689806426.759,-41.016,15.137,-38.574,-79.590,-137.207
1689806426.760,-40.527,19.531,-41.016,-68.848,-169.922
1689806426.764,-48.828,33.203,-30.762,-57.129,-192.871
1689806426.768,-51.758,39.062,-42.969,-57.129,-98.633
1689806426.772,-37.598,27.344,-47.852,-54.688,-73.730
1689806426.776,-21.484,22.461,-43.457,-44.922,-96.680
1689806426.780,-25.879,17.090,-47.363,-46.875,-54.688
1689806426.784,-28.320,6.836,-43.945,-36.621,24.414
1689806426.787,3.906,-14.160,-34.180,-6.348,463.379
1689806426.791,25.391,-14.160,-28.320,-0.488,476.074
1689806426.795,16.113,-1.465,-28.320,-5.859,-108.887
1689806426.799,15.137,-15.625,-25.391,-0.488,-238.281
1689806426.803,15.625,-23.926,-35.156,12.207,-99.609
1689806426.806,14.648,-6.836,-53.711,23.926,-174.805
1689806426.810,26.367,1.465,-54.199,18.555,-202.637
1689806426.814,31.738,-6.348,-39.551,14.648,-143.555
1689806426.818,23.438,-6.836,-27.832,18.066,-151.367
1689806426.822,19.531,-4.395,-20.508,18.066,-167.480
1689806426.826,25.391,-8.301,-8.301,31.738,-15.137
1689806426.830,23.926,-12.695,-15.625,29.297,145.020
1689806426.833,19.043,-7.812,-24.902,16.602,-18.555
1689806426.837,27.832,-15.625,-17.578,34.668,-195.312
1689806426.841,41.504,-20.020,-20.020,57.129,-141.113
1689806426.845,48.340,-18.555,-20.996,66.895,207.031
1689806426.849,47.363,-16.113,-19.043,58.105,264.160
1689806426.850,51.758,-16.113,-22.949,47.363,-82.031
1689806426.854,51.758,-32.227,-20.508,48.828,-163.086
1689806426.858,49.316,-25.879,-18.555,64.453,-106.445
1689806426.862,49.805,-12.695,-31.738,65.918,-121.582
1689806426.866,46.387,-30.762,-23.438,51.758,-139.648
1689806426.870,40.039,-39.551,-18.555,41.992,61.523
1689806426.874,29.297,-38.086,-36.133,38.086,366.699
1689806426.877,29.785,-24.902,-29.297,46.875,196.289
1689806426.881,31.250,-16.113,-22.461,52.246,-115.723
1689806426.885,22.461,-32.227,-1.953,42.969,-101.562
1689806426.889,23.926,-49.805,9.277,34.180,143.066
1689806426.893,16.113,-48.828,-9.766,25.391,47.852
1689806426.911,9.277,-38.574,-18.555,32.227,-206.055
1689806426.915,18.555,-40.527,-27.344,43.945,-114.258
1689806426.919,24.902,-35.156,-27.832,43.945,-22.949
1689806426.923,27.832,-21.484,-21.484,35.645,-149.414
1689806426.927,24.414,-11.719,-11.230,25.391,-179.199
1689806426.931,17.090,-4.883,-3.418,31.738,-10.254
1689806426.935,18.066,-20.508,-4.395,37.598,62.988
1689806426.938,15.137,-32.715,-20.020,25.391,-51.270
1689806426.942,17.578,-16.113,-32.227,15.625,-91.309
1689806426.946,22.949,2.441,-42.969,21.973,99.609
1689806426.950,9.277,-3.906,-43.457,19.043,110.840
1689806426.954,7.324,-14.160,-25.879,20.996,-116.211
1689806426.954,2.441,-20.020,-16.602,14.160,-99.609
1689806426.958,-8.789,-23.926,-10.742,-3.418,55.176
1689806426.962,-10.254,-8.301,-22.949,-9.277,-50.293
1689806426.966,-15.137,-13.672,-21.973,-6.836,-204.102
1689806426.970,-17.578,-36.133,-18.555,0.977,-92.773
1689806426.974,-18.066,-37.109,-45.898,-0.488,204.102
1689806426.978,-17.578,-18.555,-40.527,-15.625,133.789
1689806426.981,-21.484,-23.438,-37.109,-27.344,-95.215
1689806426.985,-26.367,-20.996,-44.922,-31.738,-139.648
1689806426.989,-25.391,-23.438,-14.648,-28.809,239.746
1689806426.993,-34.668,-33.203,-3.906,-24.414,197.754
1689806426.997,-27.344,-5.371,-22.461,-29.297,-189.453
1689806427.001,-21.973,6.348,-25.391,-37.598,-212.891
1689806427.005,-33.691,5.859,-21.484,-42.480,-196.777
1689806427.009,-30.273,11.230,-31.738,-31.738,-199.707
1689806427.013,-13.672,0.488,-52.734,-11.230,-151.367
1689806427.017,-8.301,-19.043,-37.598,-11.230,-19.531
1689806427.021,-23.438,-16.113,-25.391,-25.879,14.648
1689806427.025,-28.320,-17.090,-15.137,-28.320,-80.566
1689806427.028,-24.414,-32.227,-9.766,-19.043,-165.039
1689806427.032,-17.090,-44.434,-13.184,-3.906,99.609
1689806427.036,-5.371,-31.738,-17.090,-0.488,230.469
1689806427.040,-2.930,-20.508,-28.809,-16.602,-69.824
1689806427.044,0.488,-11.719,-38.086,-14.160,-153.809
1689806427.044,5.371,-9.277,-36.621,-7.324,-83.984
1689806427.048,-7.324,-23.438,-34.180,-2.930,-46.387
1689806427.052,-14.160,-33.203,-49.805,-4.395,-94.727
1689806427.056,-20.508,-47.852,-64.453,-34.180,-92.773
1689806427.060,-37.109,-37.109,-43.457,-48.340,-36.133
1689806427.064,-38.574,-31.250,-33.203,-30.273,-19.531
1689806427.068,-38.574,-18.555,-36.133,-23.438,22.461
1689806427.071,-28.809,-7.812,-27.832,-23.926,77.148
1689806427.075,-27.344,-16.602,-19.531,-32.227,432.617
1689806427.079,-46.387,-2.930,-17.090,-49.316,365.723
1689806427.083,-44.434,7.812,-25.391,-48.340,-192.383
1689806427.087,-28.320,-5.859,-23.438,-27.832,-292.480
1689806427.091,-21.973,-12.695,-23.926,-25.391,-202.637
1689806427.095,-21.484,-19.531,-17.578,-39.062,-260.254
1689806427.099,-29.297,-26.855,-2.930,-44.434,-284.180
1689806427.103,-30.762,-30.762,-3.906,-37.598,-208.008
1689806427.107,-25.879,-19.531,-21.973,-20.508,-185.547
1689806427.111,-15.137,-20.508,-56.641,-12.207,-121.582
1689806427.115,-18.555,-39.062,-59.570,-24.902,-126.953
1689806427.118,-25.879,-37.598,-48.828,-35.156,4.883
1689806427.122,-21.484,-13.672,-19.531,-30.273,128.906
1689806427.126,-22.461,-2.441,-0.488,-21.484,1.953
1689806427.130,-26.367,-5.859,-26.855,-18.066,-59.082
1689806427.134,-28.809,-24.902,-28.320,-28.809,56.641
1689806427.135,-38.086,-37.109,-20.020,-45.898,-69.824
1689806427.139,-41.016,-20.508,-28.320,-38.574,-242.188
1689806427.143,-38.574,-8.301,-31.250,-19.043,-105.957
1689806427.147,-29.785,-10.254,-33.691,-16.113,-44.922
1689806427.151,-9.277,-20.508,-46.875,-25.391,-114.258
1689806427.155,-0.977,-15.625,-54.199,-23.926,-120.117
1689806427.159,-20.020,-4.883,-48.828,-17.090,-0.488
1689806427.162,-43.945,-9.766,-41.992,-13.184,394.531
1689806427.166,-38.086,3.418,-28.809,-5.371,280.762
1689806427.170,-20.020,0.000,-15.625,-3.906,-105.469
1689806427.174,0.488,-18.555,-12.695,3.906,-129.395
1689806427.178,10.254,-20.508,-13.184,14.648,-96.680
1689806427.182,-7.812,-10.742,-13.184,10.742,-91.797
1689806427.186,-9.277,-13.672,-6.348,11.719,-145.020
1689806427.190,1.953,-23.438,-14.160,9.277,-101.562
1689806427.194,-4.395,-17.578,-33.203,-8.789,-80.566
1689806427.198,-7.812,-20.020,-31.250,-14.648,-193.359
1689806427.202,-2.930,-25.879,-20.508,0.977,-94.238
1689806427.206,6.348,-14.648,-22.949,17.090,219.727
1689806427.209,8.301,1.465,-39.551,16.113,246.094
1689806427.213,-7.812,1.953,-32.715,-5.371,-78.613
1689806427.217,-20.020,-21.484,-15.137,-20.508,-131.836
1689806427.221,-19.043,-27.344,-11.719,-11.230,-69.824
1689806427.225,-16.602,-13.672,-13.672,-7.324,-68.848
1689806427.226,-16.113,-12.207,-28.809,-14.160,-113.281
1689806427.230,-26.855,-26.367,-40.527,-21.484,-97.168
1689806427.234,-41.504,-20.020,-47.852,-38.086,-5.859
1689806427.238,-52.734,-13.672,-48.340,-35.156,-104.004
1689806427.242,-52.246,-25.391,-34.180,-20.508,-138.184
1689806427.246,-35.156,-10.254,-19.531,-20.996,44.434
1689806427.250,-36.621,-11.719,-21.973,-27.832,368.164
1689806427.253,-41.504,-11.719,-21.484,-34.668,201.172
1689806427.257,-32.715,-2.441,-20.020,-24.902,-238.770
1689806427.261,-15.625,-14.160,-32.715,-5.371,-209.961
1689806427.265,-5.859,-31.738,-37.598,0.000,4.395
1689806427.269,-0.977,-24.902,-20.996,-3.418,-67.871
1689806427.286,4.395,-12.207,-19.043,-7.812,-122.070
1689806427.290,-7.812,-15.625,-30.762,-21.973,-34.668
1689806427.294,-20.020,-12.695,-44.922,-22.461,-1.953
1689806427.298,-21.484,-22.949,-56.152,-12.695,2.930
1689806427.302,-21.973,-28.320,-43.457,-15.137,35.645
1689806427.306,-34.180,-18.066,-29.785,-33.203,294.434
1689806427.310,-42.480,-13.672,-20.996,-44.922,368.164
1689806427.313,-39.062,0.977,-16.113,-34.180,-68.359
1689806427.317,-29.297,-15.625,-22.461,-24.902,-194.336
1689806427.321,-26.367,-29.785,-20.996,-35.156,67.871
1689806427.325,-34.668,0.977,-14.648,-53.711,16.602
1689806427.329,-36.621,12.207,-21.973,-59.570,-164.062
1689806427.330,-31.738,-2.930,-23.926,-48.828,-154.297
1689806427.334,-27.344,-13.672,-26.367,-33.203,-61.035
1689806427.338,-32.227,-27.344,-37.598,-32.715,-72.754
1689806427.342,-48.340,-31.250,-38.574,-56.641,-151.855
1689806427.346,-54.688,-18.555,-33.691,-66.406,-95.703
1689806427.350,-51.758,-17.090,-35.156,-46.387,59.082
1689806427.354,-43.457,-11.719,-40.527,-26.855,58.594
1689806427.357,-32.227,-6.836,-31.738,-27.832,43.457
1689806427.361,-22.949,-11.230,-30.273,-43.457,33.203
1689806427.365,-25.391,-13.184,-32.715,-45.410,275.879
1689806427.369,-40.039,1.465,-26.855,-46.387,207.520
1689806427.373,-40.039,8.301,-26.855,-51.758,-138.672
1689806427.376,-31.738,-3.418,-30.762,-55.176,-168.457
1689806427.380,-37.598,-3.906,-30.762,-66.895,-156.250
1689806427.384,-51.270,-1.953,-31.738,-73.242,-229.492
1689806427.388,-40.039,-8.301,-29.785,-47.852,-216.309
1689806427.392,-20.996,-4.395,-28.320,-28.809,-128.906
1689806427.396,-53.223,1.953,-33.203,-57.129,-29.297
1689806427.400,-85.449,2.441,-25.391,-100.586,-49.805
1689806427.403,-78.613,2.930,-30.273,-106.934,-218.750
1689806427.407,-57.129,-0.977,-23.438,-80.566,-19.531
1689806427.411,-80.566,10.742,-13.672,-86.426,185.547
1689806427.415,-98.145,23.926,-13.184,-103.516,-68.848
1689806427.419,-100.586,9.766,-10.254,-120.605,-142.090
1689806427.419,-125.000,3.418,-16.113,-149.414,-4.395
1689806427.423,-119.629,17.578,-30.273,-145.508,-119.141
1689806427.427,-103.027,28.320,-29.297,-124.023,-205.078
1689806427.431,-112.793,24.902,-27.344,-146.973,-81.055
1689806427.435,-145.020,19.531,-34.668,-182.129,64.941
1689806427.439,-156.738,23.438,-39.062,-187.988,44.922
1689806427.443,-127.441,30.762,-33.203,-154.297,-8.301
1689806427.446,-106.445,32.715,-43.945,-133.301,40.039
1689806427.450,-112.305,27.832,-61.035,-143.555,399.414
1689806427.454,-110.352,35.156,-55.664,-157.227,322.266
1689806427.458,-93.750,35.156,-48.828,-155.273,-115.723
1689806427.462,-89.844,13.672,-33.203,-139.648,-97.168
1689806427.466,-83.008,2.441,-19.531,-117.676,54.688
1689806427.470,-78.125,19.043,-23.438,-104.004,-61.035
1689806427.474,-66.406,30.273,-41.504,-93.750,-213.379
1689806427.478,-60.059,35.645,-51.758,-95.215,-119.141
1689806427.482,-58.594,41.992,-55.664,-90.332,-74.707
1689806427.486,-48.340,44.434,-40.527,-68.848,-127.930
1689806427.490,-40.039,35.645,-26.855,-51.758,-51.270
1689806427.493,-22.949,-1.465,-32.715,-40.527,185.059
1689806427.497,-11.230,-9.766,-41.992,-43.945,197.266
1689806427.501,-15.625,16.602,-43.945,-47.852,-113.770
1689806427.505,-14.160,7.324,-42.480,-25.879,-166.504
1689806427.509,1.465,-6.348,-49.805,2.441,-61.035
1689806427.511,9.766,-0.488,-59.570,8.301,-56.641
1689806427.515,8.301,-19.043,-46.875,-0.977,-157.227
1689806427.519,3.418,-46.387,-19.043,-0.977,-125.000
1689806427.523,0.488,-33.691,-15.625,18.066,26.855
1689806427.527,7.812,-20.020,-25.879,34.180,-18.555
1689806427.531,9.277,-23.438,-25.879,38.086,-46.387
1689806427.535,7.812,-28.809,-9.277,30.273,47.363
1689806427.538,6.836,-46.875,-3.906,22.461,404.785
1689806427.542,7.812,-43.945,-12.207,28.809,294.434
1689806427.546,18.555,-36.621,-5.859,43.457,-141.113
1689806427.550,29.785,-46.387,-2.930,47.852,-102.539
1689806427.554,23.926,-44.434,-18.066,38.574,0.488
1689806427.556,7.812,-28.320,-27.832,29.297,-115.723
1689806427.560,8.789,-22.461,-16.602,34.180,-218.262
1689806427.564,20.508,-31.250,-10.742,50.293,-102.051
1689806427.568,11.719,-41.504,-14.160,49.805,-26.367
1689806427.572,5.371,-34.668,-25.879,27.832,-63.477
1689806427.576,10.742,-37.598,-20.996,15.625,-83.008
1689806427.580,19.531,-49.805,-8.301,28.320,200.195
1689806427.583,21.484,-54.199,-11.230,35.645,495.605
1689806427.587,18.066,-26.367,0.488,37.598,63.477
1689806427.591,21.973,-18.555,-1.953,35.156,-172.363
1689806427.595,13.672,-25.879,-33.203,12.695,-98.633
1689806427.599,5.371,-12.207,-44.434,4.395,-220.215
1689806427.614,-1.953,-26.855,-32.715,15.137,-275.391
1689806427.618,-0.488,-51.270,-22.461,21.973,-119.629
1689806427.622,2.930,-49.316,-27.832,20.020,4.883
1689806427.626,-3.906,-31.250,-48.340,11.230,-77.637
1689806427.630,-12.207,-27.832,-57.617,2.930,-161.133
1689806427.634,-16.113,-37.598,-31.250,7.812,24.902
1689806427.638,-13.184,-42.969,6.348,16.602,447.754
1689806427.641,-10.742,-37.598,-1.953,4.883,314.453
1689806427.645,-14.160,-48.828,-27.832,-14.648,-123.535
1689806427.649,-13.672,-45.410,-14.648,-13.672,-88.379
1689806427.653,-12.695,-29.297,-10.254,5.371,224.121
1689806427.657,-9.277,-29.785,-36.621,17.090,20.996
1689806427.661,-1.465,-36.621,-36.133,7.812,-231.445
1689806427.665,4.395,-33.203,-10.742,-9.766,-184.082
1689806427.669,-3.906,-24.902,-7.812,-13.184,-226.562
1689806427.673,-21.973,-24.414,-13.672,-7.324,-260.254
1689806427.677,-18.555,-25.879,-11.230,3.418,-141.602
1689806427.681,-7.812,-28.809,-12.695,-0.488,125.000
1689806427.685,-13.672,-21.484,-26.855,-24.902,102.051
1689806427.688,-14.160,-8.301,-45.410,-34.180,-171.387
1689806427.692,-15.625,-2.441,-40.039,-20.020,-240.723
1689806427.696,-20.996,-25.879,-28.320,-10.254,159.180
1689806427.700,-21.973,-48.828,-20.508,-10.254,440.430
1689806427.704,-28.809,-10.742,-20.996,-26.855,-39.551
1689806427.705,-31.738,2.441,-16.113,-30.273,-256.348
1689806427.709,-30.762,-8.789,-26.367,-14.160,-131.836
1689806427.713,-21.973,-10.742,-41.992,-0.488,-97.656
1689806427.717,-9.277,-12.695,-45.410,8.789,-134.766
1689806427.721,-11.719,-20.996,-23.926,3.418,-91.797
1689806427.725,-19.043,-41.504,0.000,-9.277,-0.488
1689806427.729,-24.902,-22.949,-6.836,-7.324,17.090
1689806427.732,-33.691,-9.277,-20.020,-6.348,19.043
1689806427.736,-29.297,-20.996,-20.508,-5.371,14.160
1689806427.740,-30.762,-25.879,-30.273,-13.184,245.117
1689806427.744,-39.062,-20.020,-32.715,-33.691,66.406
1689806427.748,-34.668,-32.227,-15.625,-25.879,-249.023
1689806427.751,-15.137,-31.250,-29.785,0.977,-95.215
1689806427.755,-4.395,-12.207,-40.527,8.301,-1.465
1689806427.759,-3.906,-4.883,-27.832,-13.672,-104.980
1689806427.763,-5.859,-12.207,-32.227,-25.391,-189.941
1689806427.767,-9.766,-27.832,-32.227,-19.531,-132.812
1689806427.771,0.488,-32.227,-10.742,-2.930,-6.348
1689806427.775,7.324,-28.809,-23.926,7.324,22.461
1689806427.778,6.836,-23.438,-37.598,-0.488,-49.316
1689806427.782,-5.859,-49.805,-31.738,-24.902,46.387
1689806427.786,-18.555,-64.941,-31.250,-29.785,-30.762
1689806427.790,-9.277,-65.430,-16.602,8.789,-140.625
1689806427.794,-12.207,-60.547,-28.320,7.324,-54.199
1689806427.794,-34.180,-41.504,-32.715,-41.992,161.133
1689806427.798,-41.504,-28.809,-17.578,-62.988,69.824
1689806427.802,-31.738,-36.621,-25.879,-57.129,-156.250
1689806427.806,-22.949,-51.758,-27.344,-36.621,-23.926
1689806427.810,-16.113,-63.477,-15.625,-19.531,101.562
1689806427.814,-28.320,-63.477,-19.531,-23.438,9.277
1689806427.818,-34.180,-49.316,-40.039,-28.809,-83.496
1689806427.821,-32.227,-45.410,-45.898,-37.598,-55.176
1689806427.825,-33.203,-65.430,-53.711,-25.879,310.547
1689806427.829,-23.438,-53.711,-42.480,-8.789,262.207
1689806427.833,-14.160,-58.594,-23.926,-17.578,-134.277
1689806427.837,-7.812,-86.426,1.465,-24.414,-138.184
1689806427.841,-11.719,-57.129,6.348,-22.949,-143.066
1689806427.845,-30.273,-45.898,-12.695,-23.438,-168.457
1689806427.849,-22.461,-46.387,-17.090,-1.465,-110.840
1689806427.853,0.977,-31.250,-24.902,9.766,-56.641
1689806427.857,-14.160,-35.156,-32.227,-26.855,-98.145
1689806427.861,-35.645,-42.969,-20.508,-55.664,-93.262
1689806427.865,-42.969,-56.152,-17.578,-47.363,-36.133
1689806427.868,-38.086,-64.941,-24.902,-26.855,185.547
1689806427.872,-37.109,-58.594,-38.086,-31.250,392.090
1689806427.876,-47.363,-45.898,-38.574,-55.664,-7.812
1689806427.880,-46.387,-53.711,-33.691,-66.406,-241.211
1689806427.884,-36.133,-47.363,-36.621,-56.152,-137.207
1689806427.884,-26.367,-30.762,-38.086,-36.621,-125.488
1689806427.888,-18.066,-36.133,-24.902,-18.555,-161.133
1689806427.892,-22.461,-52.734,-24.902,-29.297,-133.789
1689806427.896,-35.156,-41.504,-42.480,-49.316,-103.516
1689806427.900,-32.715,-22.949,-43.457,-36.133,-137.207
1689806427.904,-36.621,-28.809,-41.992,-21.973,-49.805
1689806427.908,-36.621,-32.227,-39.551,-24.902,118.164
1689806427.911,-34.668,-34.180,-25.391,-31.250,442.871
1689806427.915,-53.711,-37.109,-20.508,-46.875,291.504
1689806427.919,-61.035,-45.898,-13.184,-47.852,-185.547
1689806427.923,-50.781,-31.738,-10.742,-26.367,-145.020
1689806427.927,-41.992,-1.465,-28.320,-21.484,27.344
1689806427.931,-42.969,1.465,-50.781,-33.691,-122.070
1689806427.935,-41.504,1.465,-51.270,-35.645,-219.727
1689806427.939,-36.621,-3.418,-48.340,-36.133,-160.156
1689806427.943,-37.109,-7.324,-21.973,-29.785,-106.934
1689806427.947,-37.598,22.461,3.418,-19.043,-98.145
1689806427.951,-32.715,25.391,-9.277,-28.809,-101.562
1689806427.955,-32.715,11.230,-27.344,-42.969,127.930
1689806427.958,-33.691,15.625,-34.668,-43.945,229.980
1689806427.962,-23.926,26.367,-26.367,-29.297,-126.465
1689806427.966,-4.883,16.602,-46.387,-3.906,-167.969
1689806427.970,0.488,1.465,-40.527,-9.277,72.266
1689806427.974,-18.555,6.836,-12.207,-35.645,-68.848
1689806427.975,-19.043,9.766,-26.855,-36.133,-259.766
1689806427.979,-0.977,3.906,-31.250,-10.742,-136.719
1689806427.983,-4.883,-10.742,-32.227,-7.812,94.238
1689806427.987,-20.020,-25.391,-25.879,-32.715,13.672
1689806427.991,-24.414,-44.434,-23.926,-46.875,-145.020
1689806427.995,-23.926,-26.855,-40.039,-39.062,29.297
1689806427.999,-28.809,-15.137,-50.293,-18.555,392.578
1689806428.002,-28.809,-29.297,-27.832,-5.859,233.398
1689806428.006,-15.625,-20.508,7.812,-6.348,-126.465
1689806428.010,-23.438,-27.832,-13.184,-25.879,-159.180
1689806428.014,-40.527,-45.410,-19.043,-41.504,-151.855
1689806428.018,-34.668,-54.688,-10.742,-28.809,-179.199
1689806428.034,-5.371,-49.805,-19.531,-3.906,-150.879
1689806428.038,11.230,-35.645,-33.203,3.906,8.301
1689806428.042,-3.418,-48.340,-48.340,-17.090,135.742
1689806428.046,-18.066,-47.852,-39.551,-33.203,-129.883
1689806428.050,-23.926,-50.293,-22.949,-28.320,-201.172
1689806428.054,-15.625,-51.758,-16.113,-12.695,12.207
1689806428.058,-12.695,-23.926,-28.320,-9.766,68.359
1689806428.061,-29.785,-15.137,-45.410,-28.809,-73.730
1689806428.065,-14.160,-26.367,-42.480,-20.020,-208.496
1689806428.069,8.789,-39.062,-25.391,12.695,-17.578
1689806428.073,-3.906,-26.367,-13.672,11.230,75.195
1689806428.077,-14.648,-11.230,-23.438,-2.441,-116.211
1689806428.079,-17.578,-27.344,-32.715,-8.789,-121.094
1689806428.083,-26.367,-44.434,-35.645,-20.020,-96.680
1689806428.087,-13.672,-37.109,-33.203,-1.953,-91.797
1689806428.091,11.230,-29.297,-31.738,32.715,-47.363
1689806428.095,6.836,-41.504,-22.949,26.855,-23.926
1689806428.099,-5.371,-55.176,-10.742,0.488,281.738
1689806428.103,-11.719,-62.500,-18.555,-16.113,189.941
1689806428.106,-12.695,-48.340,-22.461,-9.766,-106.445
1689806428.110,-4.883,-26.855,-0.977,6.348,-65.918
1689806428.114,8.789,-29.785,-19.531,23.926,206.543
1689806428.118,-0.977,-21.973,-39.551,12.207,21.484
1689806428.122,-6.836,-15.625,-18.066,-7.324,-239.746
1689806428.126,-13.184,-34.180,-10.742,-8.301,-190.918
1689806428.130,-23.926,-43.945,-25.391,2.930,-135.742
1689806428.134,-13.672,-17.578,-36.621,12.207,-56.152
1689806428.138,0.488,8.301,-21.973,3.418,-85.449
1689806428.142,-1.953,-10.254,-35.645,-15.137,-66.406
1689806428.146,-6.348,-33.691,-65.430,-19.043,-10.742
1689806428.150,2.441,-24.902,-54.199,-3.418,-15.137
1689806428.153,-10.742,-25.879,-7.812,-0.977,27.344
1689806428.157,-26.367,-59.570,1.953,-20.020,200.195
1689806428.161,-33.203,-56.152,-28.809,-39.062,360.352
1689806428.165,-37.109,-24.414,-34.180,-42.969,-43.457
1689806428.169,-34.180,-27.344,-32.715,-30.762,-224.609
1689806428.169,-27.344,-31.250,-17.090,-20.508,-60.059
1689806428.173,-24.902,-31.738,0.977,-30.273,-130.859
1689806428.177,-28.320,-40.527,-15.625,-44.922,-234.863
1689806428.181,-25.391,-33.691,-22.461,-39.551,-198.242
1689806428.185,-15.625,-36.133,-37.109,-20.020,-81.055
1689806428.189,-12.695,-40.039,-45.898,-8.301,5.371
1689806428.193,-9.277,-28.809,-18.555,-9.277,75.195
1689806428.196,-12.207,-9.277,-15.137,-27.344,63.477
1689806428.200,-20.996,-8.789,-40.527,-33.691,398.438
1689806428.204,-23.438,3.906,-33.203,-20.508,483.887
1689806428.208,-22.949,17.090,-6.836,-10.254,-17.578
1689806428.212,-14.648,3.906,4.883,-2.441,-144.043
1689806428.216,-23.438,-18.555,-5.859,-21.973,-128.906
1689806428.220,-46.875,-18.066,-22.461,-47.852,-189.453
1689806428.224,-58.594,-18.555,-33.691,-50.293,-139.160
1689806428.228,-55.176,-23.926,-26.367,-37.109,-52.246
1689806428.232,-51.758,-8.789,-15.625,-34.668,-46.387
1689806428.236,-50.781,-5.371,-16.113,-44.922,-68.848
1689806428.240,-50.293,-4.395,-25.391,-54.688,-135.254
1689806428.243,-47.363,-13.184,-39.551,-49.316,46.387
1689806428.247,-35.645,-39.062,-41.016,-35.156,208.008
1689806428.251,-27.832,-23.438,-41.504,-24.414,-69.336
1689806428.255,-29.785,-17.578,-33.203,-23.926,-115.723
1689806428.259,-41.992,-44.434,-30.762,-43.457,74.707
1689806428.259,-52.734,-44.922,-39.062,-47.852,-40.039
1689806428.263,-27.344,-32.715,-9.766,-25.879,-159.180
1689806428.267,-14.648,-21.973,-41.504,-19.043,-128.418
1689806428.271,-26.855,-16.602,-41.992,-35.156,-115.723
1689806428.275,-34.180,-26.367,5.371,-54.199,-106.934
1689806428.279,-53.223,-30.762,0.488,-55.176,-58.594
1689806428.283,-44.922,-31.738,-8.789,-32.227,69.824
1689806428.286,-20.020,-30.762,-10.254,-17.090,473.145
1689806428.290,-18.066,-35.645,-20.020,-20.508,365.723
1689806428.294,-16.602,-50.293,-7.324,-26.855,-192.383
1689806428.298,-15.625,-30.762,-14.160,-27.344,-242.676
1689806428.302,-19.531,-18.066,-18.066,-11.230,-154.297
1689806428.321,-15.137,-34.180,-5.371,7.324,-175.293
1689806428.325,-8.789,-41.504,-21.484,-5.371,-96.680
1689806428.329,-20.508,-37.598,-34.180,-29.785,-35.645
1689806428.333,-33.691,-33.691,-23.438,-35.156,-54.199
1689806428.337,-42.480,-50.781,-12.207,-28.320,-123.047
1689806428.341,-42.480,-56.152,-29.785,-20.020,-107.910
1689806428.345,-16.113,-48.828,-29.297,0.977,178.711
1689806428.348,-10.742,-53.711,14.648,-11.719,267.578
1689806428.352,-33.203,-40.527,16.113,-41.504,-138.184
1689806428.356,-35.156,-45.410,-34.668,-31.738,-187.988
1689806428.360,-30.273,-65.918,-21.484,-24.902,-46.387
1689806428.364,-25.391,-51.270,-18.555,-24.414,-81.543
1689806428.350,-37.109,-43.457,-42.969,-31.250,-145.996
1689806428.354,-45.898,-34.668,-12.207,-47.852,-125.977
1689806428.358,-27.832,-25.879,20.508,-24.902,-69.824
1689806428.362,-12.695,-37.109,15.625,1.465,-2.930
1689806428.366,-21.484,-58.105,-18.066,-14.160,51.758
1689806428.370,-35.156,-62.500,-33.691,-36.621,54.688
1689806428.374,-13.672,-50.781,-44.434,-21.973,242.188
1689806428.377,25.879,-27.832,-40.039,14.160,169.434
1689806428.381,25.879,-38.574,4.883,24.414,-112.305
1689806428.385,-34.180,-69.824,9.766,-16.602,-103.516
1689806428.389,-41.016,-56.152,42.480,-34.180,262.695
1689806428.393,-32.227,-37.598,49.805,-37.109,112.793
1689806428.411,-59.082,-30.762,9.766,-34.668,-206.543
1689806428.415,-76.660,-37.598,-0.488,-34.668,-102.539
1689806428.419,-79.102,-43.457,-14.160,-40.039,-71.777
1689806428.423,-80.078,-30.762,-20.996,-50.781,-173.828
1689806428.427,-74.219,-44.922,-33.691,-58.594,-161.133
1689806428.431,-62.988,-53.223,-65.430,-42.480,-62.012
1689806428.435,-73.730,-67.383,-8.789,-44.434,-4.883
1689806428.438,-41.504,-59.570,68.848,-9.766,61.523
1689806428.442,-39.551,-58.594,42.480,-10.742,-86.914
1689806428.446,-72.754,-83.496,28.809,-49.316,58.594
1689806428.450,-84.473,-76.172,5.371,-62.500,194.824
1689806428.454,-52.246,-69.336,-17.090,-31.738,-177.734
1689806428.454,1.953,-80.566,-13.184,22.461,-161.621
1689806428.458,-22.949,-84.473,7.324,-7.324,-64.941
1689806428.462,-50.293,-88.379,25.391,-41.504,-141.602
1689806428.466,-49.316,-81.055,-24.902,-44.434,-210.938
1689806428.470,-48.828,-66.406,-25.879,-35.645,-133.301
1689806428.474,-42.480,-66.406,6.348,-25.391,94.727
1689806428.478,-45.898,-69.824,-16.602,-39.062,130.859
1689806428.481,0.977,-93.262,-21.484,-10.742,8.789
1689806428.485,51.758,-72.754,-17.090,31.738,-32.227
1689806428.489,-17.578,-106.934,-16.113,-24.414,266.113
1689806428.493,-72.754,-146.484,-4.883,-72.266,199.707
1689806428.497,-84.961,-113.281,-31.250,-87.891,-180.176
1689806428.501,-82.031,-108.398,-65.918,-87.402,-143.555
1689806428.505,18.555,-86.914,-45.898,18.555,6.836
1689806428.509,7.324,-81.543,69.824,20.020,-147.949
1689806428.513,-82.520,-125.488,64.941,-68.848,-204.102
1689806428.517,-17.578,-93.750,-24.902,-4.395,-106.445
1689806428.521,13.184,-59.570,2.441,7.812,-101.074
1689806428.525,-85.449,-125.488,-18.555,-100.586,-109.375
1689806428.528,-70.312,-134.277,-66.406,-62.012,-122.070
1689806428.532,-72.754,-117.188,73.242,-51.270,61.035
1689806428.536,-157.227,-126.465,14.160,-146.973,197.266
1689806428.540,-107.422,-127.930,-145.020,-113.281,-165.527
1689806428.544,-137.695,-151.855,-6.836,-146.484,-180.664
1689806428.544,-238.770,-89.355,127.441,-236.328,88.867
1689806428.548,-259.766,-75.195,27.344,-251.465,-25.879
1689806428.552,-239.258,-97.656,12.695,-234.375,-179.199
1689806428.556,-158.691,-94.238,60.547,-171.387,-182.129
1689806428.560,-177.734,-102.539,102.051,-200.195,-126.465
1689806428.564,-249.512,-139.648,187.500,-262.695,-108.887
1689806428.568,-234.863,-153.320,151.855,-247.070,-103.027
1689806428.571,-195.312,-117.188,106.445,-216.797,-16.113
1689806428.575,-163.574,-99.121,41.016,-189.453,284.668
1689806428.579,-187.988,-30.762,36.133,-217.285,217.773
1689806428.583,-145.020,24.414,141.602,-167.969,-119.141
1689806428.587,-150.879,17.578,178.223,-157.715,-119.141
1689806428.593,-145.996,49.316,12.695,-154.297,-84.473
1689806428.597,-41.992,109.375,-62.988,-56.641,-59.082
1689806428.601,-98.145,69.336,191.895,-108.398,-126.953
1689806428.605,-93.750,33.691,207.031,-95.215,-83.496
1689806428.609,-44.922,72.754,136.719,-36.133,5.859
1689806428.613,-146.484,46.387,211.914,-138.672,-19.043
1689806428.617,-185.059,-2.441,182.617,-196.289,-97.168
1689806428.620,-165.527,-5.859,106.445,-189.453,62.012
1689806428.624,-99.609,24.414,41.016,-119.141,260.742
1689806428.628,-19.531,34.668,-43.457,-23.926,-9.766
1689806428.632,-78.613,-6.348,-58.105,-76.660,-128.418
1689806428.636,-98.633,7.812,-56.641,-117.188,-104.492
1689806428.634,-77.148,-32.715,-54.199,-107.422,-186.523
1689806428.638,-45.898,-79.102,85.449,-63.965,-201.172
1689806428.642,-57.129,86.914,129.395,-63.965,-95.215
1689806428.646,-106.934,167.480,99.121,-111.328,-41.992
1689806428.650,-145.508,124.512,54.199,-154.785,-31.738
1689806428.654,-148.438,114.746,-29.297,-169.922,-51.758
1689806428.658,-89.355,124.512,-37.109,-122.559,-94.238
1689806428.661,-97.656,71.777,-93.750,-112.305,297.852
1689806428.665,-69.824,138.184,-171.875,-78.613,447.754
1689806428.669,-37.598,231.934,-65.430,-58.594,-13.184
1689806428.673,-46.387,261.230,76.660,-67.383,-193.359
1689806428.677,-110.352,288.574,184.082,-114.746,-144.531
1689806428.681,-181.152,338.379,72.754,-170.898,-152.832
1689806428.685,-152.832,378.906,24.414,-135.742,-120.117
1689806428.689,-111.328,444.336,-31.738,-92.285,-64.453
1689806428.693,-115.234,512.695,-125.488,-104.492,-105.469
1689806428.697,-170.410,450.684,2.930,-160.645,-187.988
1689806428.701,-166.992,449.707,42.969,-141.113,-17.578
1689806428.705,-80.566,459.961,-89.355,-48.828,270.508
1689806428.708,-71.777,420.898,-33.691,-62.988,373.535
1689806428.712,-127.441,375.000,90.332,-138.672,-21.973
1689806428.716,-130.859,338.867,93.750,-138.184,-169.434
1689806428.720,-111.328,311.523,78.125,-104.980,32.715
1689806428.724,-105.957,311.035,88.867,-88.867,0.000
1689806428.724,-98.633,326.660,67.871,-83.984,-147.461
1689806428.728,-89.844,292.969,44.922,-78.613,-148.926
1689806428.732,-94.727,224.121,31.250,-90.332,-72.754
1689806428.736,-93.262,185.059,47.852,-88.867,-112.305
1689806428.740,-80.566,185.059,23.438,-70.801,-126.465
1689806428.744,-74.707,158.203,-4.883,-72.754,61.523
1689806428.748,-62.988,124.512,53.711,-79.102,351.074
1689806428.751,-61.035,129.883,109.863,-77.148,149.414
1689806428.755,-78.613,109.375,109.863,-77.148,-149.414
1689806428.759,-101.074,84.473,55.664,-86.914,-61.035
1689806428.763,-96.191,49.316,30.273,-93.262,243.164
1689806428.767,-79.590,18.555,-27.832,-87.402,62.988
1689806428.786,-71.777,-12.207,-26.855,-71.777,-222.168
1689806428.790,-71.777,-57.129,79.102,-59.570,-187.012
1689806428.794,-61.523,-72.754,96.680,-38.574,-154.297
1689806428.798,-32.715,-119.629,53.223,-9.766,-169.922
1689806428.802,-6.836,-189.453,51.270,2.441,-171.875
1689806428.806,8.301,-204.590,21.484,20.508,47.363
1689806428.810,2.930,-222.168,-43.945,37.109,91.797
1689806428.813,21.973,-251.465,-1.465,52.246,-97.656
1689806428.817,53.223,-244.629,8.301,63.477,-133.301
1689806428.821,65.918,-230.469,-26.855,65.430,29.297
1689806428.825,61.523,-206.543,-13.672,52.246,34.668
1689806428.829,70.312,-204.102,5.859,61.035,-85.938
1689806428.829,96.191,-203.613,-17.090,101.562,-74.219
1689806428.833,105.469,-199.707,-41.504,115.723,71.777
1689806428.837,105.957,-223.145,-43.457,101.562,59.570
1689806428.841,113.770,-255.859,-14.160,95.215,-160.156
1689806428.845,114.258,-282.227,-24.414,97.656,-146.973
1689806428.849,105.469,-283.203,-41.992,106.445,135.742
1689806428.853,112.793,-260.742,-37.109,121.582,114.258
1689806428.856,123.535,-276.367,-66.406,135.742,-78.125
1689806428.860,125.488,-324.707,-75.195,134.277,-130.371
1689806428.864,136.719,-309.082,-47.363,156.738,187.500
1689806428.868,133.789,-247.559,-12.207,167.480,192.871
1689806428.872,124.512,-250.000,-8.301,157.227,-113.770
1689806428.878,122.070,-268.555,-12.207,150.391,-104.492
1689806428.882,112.793,-232.910,-6.836,135.742,-116.211
1689806428.886,104.004,-214.355,-14.160,123.047,-200.195
1689806428.890,99.609,-202.637,-14.160,118.652,-229.980
1689806428.894,102.539,-213.867,0.488,129.883,-79.590
1689806428.898,125.488,-222.168,0.000,131.836,69.824
1689806428.902,109.375,-192.871,-8.301,87.891,-61.523
1689806428.905,88.379,-179.688,0.977,64.453,-155.762
1689806428.909,93.750,-187.500,-4.395,75.684,99.121
1689806428.913,78.613,-182.129,15.625,55.176,234.863
1689806428.917,62.012,-163.086,25.391,29.297,-94.238
1689806428.921,62.988,-142.578,19.043,20.020,-179.199
1689806428.919,59.082,-99.121,21.973,17.090,-107.910
1689806428.923,27.832,-60.547,20.508,0.977,-131.348
1689806428.927,-16.113,-49.805,11.230,-35.156,-119.629
1689806428.931,-60.547,-60.547,-25.879,-86.426,-76.172
1689806428.935,-92.285,-48.828,-40.039,-136.230,-42.480
1689806428.939,-126.465,-32.715,0.000,-175.293,-89.844
1689806428.943,-155.762,-39.062,31.250,-196.777,-74.219
1689806428.946,-164.551,-50.293,22.949,-210.449,106.445
1689806428.950,-178.711,-51.270,-4.883,-229.492,387.695
1689806428.954,-187.012,-5.859,-10.742,-242.676,368.164
1689806428.958,-189.453,30.273,-13.672,-256.348,-67.871
1689806428.962,-198.730,29.785,-8.301,-249.023,-201.172
1689806428.966,-170.410,54.688,-5.859,-204.102,-117.676
1689806428.970,-163.574,68.848,-44.922,-201.172,-162.598
1689806428.974,-155.762,66.406,-60.059,-194.824,-139.648
1689806428.978,-112.793,111.328,-46.387,-160.645,-79.590
1689806428.982,-102.051,116.699,-60.547,-149.902,-124.512
1689806428.986,-107.422,76.660,-31.250,-144.531,6.348
1689806428.990,-89.844,57.129,3.418,-124.023,70.312
1689806428.993,-61.523,64.453,-27.344,-111.816,101.074
1689806428.997,-64.453,104.004,-38.574,-123.047,301.758
1689806429.001,-52.734,123.535,-34.668,-97.168,-73.242
1689806429.005,0.000,109.375,-38.086,-30.273,-227.051
1689806429.009,25.391,98.145,-53.711,-2.930,-24.414
1689806429.009,17.578,119.629,-45.410,-9.766,-85.938
1689806429.013,47.363,95.703,-26.855,15.625,-186.523
1689806429.017,70.312,12.695,-25.879,47.363,-183.594
1689806429.021,57.129,-16.602,-37.598,44.922,-135.742
1689806429.025,60.059,-24.414,-49.316,46.875,-75.684
1689806429.029,82.031,-31.738,-23.438,59.570,-56.641
1689806429.033,71.777,-46.875,-2.441,41.992,-22.949
1689806429.036,41.992,-77.637,-27.832,23.438,337.891
1689806429.040,35.645,-41.504,-35.645,29.785,348.633
1689806429.044,41.992,-8.789,4.883,43.457,-17.578
1689806429.048,60.547,3.418,34.180,53.711,-111.328
1689806429.052,59.082,26.367,23.926,43.457,-89.844
1689806429.056,42.969,16.602,19.043,37.598,-195.312
1689806429.060,53.223,-10.254,5.859,65.918,-217.285
1689806429.064,62.500,-17.090,-33.203,93.262,-89.844
1689806429.068,54.199,13.672,-9.277,84.961,-78.125
1689806429.072,47.363,17.090,14.648,69.824,-160.645
1689806429.076,39.551,-5.859,16.113,64.941,-73.242
1689806429.080,34.668,3.418,27.344,73.730,143.066
1689806429.083,37.598,26.855,21.484,78.125,235.840
1689806429.087,35.645,33.203,20.508,60.059,-56.641
1689806429.091,35.645,-15.137,2.441,41.992,-148.438
1689806429.095,41.504,-20.020,-2.930,47.852,-50.781
1689806429.099,48.828,32.227,6.348,60.059,-109.863
1689806429.101,40.039,46.387,-1.953,58.105,-184.570
1689806429.105,33.203,50.781,10.742,50.781,-137.695
1689806429.109,35.156,36.133,18.555,31.738,59.570
1689806429.113,18.555,0.977,-2.441,1.953,-41.504
1689806429.117,7.324,-0.977,-21.973,2.441,-202.637
1689806429.121,8.301,33.691,-27.832,16.602,-26.367
1689806429.125,15.137,35.645,-21.484,16.602,412.109
1689806429.128,15.137,23.926,-6.836,1.465,257.324
1689806429.132,1.465,35.645,10.742,-16.113,-150.879
1689806429.136,-4.395,47.852,19.043,-12.695,-92.773
1689806429.140,9.277,70.312,4.883,7.324,141.602
1689806429.144,14.160,100.098,-10.254,12.207,-16.602
1689806429.162,11.719,85.938,-41.016,0.977,-187.988
1689806429.166,18.555,30.762,-44.922,-0.977,-174.316
1689806429.170,9.277,42.480,-17.090,-1.953,-86.914
1689806429.174,-8.789,104.980,1.953,0.488,-48.828
1689806429.178,-12.207,131.836,16.113,5.859,-137.695
1689806429.182,-15.137,127.441,22.461,0.977,130.371
1689806429.186,-24.414,124.512,6.836,-6.836,389.160
1689806429.189,-21.484,128.906,-1.953,-6.348,-58.105
1689806429.193,-11.230,111.328,12.207,9.766,-226.074
1689806429.197,-4.883,113.770,3.906,25.391,51.270
1689806429.201,-8.301,125.488,-5.859,12.207,50.293
1689806429.205,-18.555,122.559,-5.859,-12.695,-142.090
1689806429.205,-20.020,125.000,-34.180,-6.348,-104.492
1689806429.209,-14.648,139.648,-48.340,16.113,-53.223
1689806429.213,-12.695,169.434,-22.949,17.578,-83.496
1689806429.217,-12.207,179.688,-6.836,11.230,-83.008
1689806429.221,-3.906,150.391,-25.391,6.348,-111.816
1689806429.225,-14.160,128.906,-2.930,-2.441,8.301
1689806429.229,-40.527,170.898,36.133,-12.695,32.715
1689806429.232,-34.180,199.707,11.719,-3.906,-48.340
1689806429.236,-20.508,187.988,-5.371,-9.766,36.133
1689806429.240,-13.672,178.711,-3.906,-22.949,315.430
1689806429.244,-12.695,171.387,-0.977,-21.973,260.254
1689806429.248,-14.160,152.344,-3.418,-23.926,-136.719
1689806429.251,-16.602,134.766,-4.395,-17.090,-154.785
1689806429.255,-20.508,143.066,5.859,-14.648,-101.562
1689806429.259,-24.414,137.207,0.488,-23.438,-143.555
1689806429.263,-29.297,127.930,-16.113,-27.344,-186.035
1689806429.267,-36.621,153.320,-44.434,-17.090,-120.117
1689806429.271,-40.527,172.852,-45.410,-12.695,51.270
1689806429.275,-34.668,177.734,-16.602,-18.066,56.641
1689806429.278,-32.227,175.781,0.488,-35.156,-132.324
1689806429.282,-37.109,171.387,-8.301,-39.551,38.574
1689806429.286,-42.969,144.043,-9.277,-25.879,287.109
1689806429.290,-46.875,123.535,-5.371,-25.391,-5.859
1689806429.294,-42.969,131.348,-18.555,-32.715,-73.242
1689806429.294,-35.156,139.648,-27.832,-36.133,-8.789
1689806429.298,-46.387,138.184,-28.320,-45.410,-141.602
1689806429.302,-54.199,135.742,-29.785,-41.992,-173.340
1689806429.306,-35.156,146.973,-31.738,-14.648,-77.637
1689806429.310,-27.344,151.367,-22.949,-11.230,-1.465
1689806429.314,-34.668,150.391,-21.973,-26.367,14.160
1689806429.318,-47.852,145.996,-42.480,-44.434,12.207
1689806429.321,-62.012,138.672,-41.016,-49.316,7.324
1689806429.325,-62.500,125.488,-15.137,-39.062,312.012
1689806429.329,-70.312,116.699,-7.324,-46.387,318.359
1689806429.333,-75.684,118.164,-11.719,-62.988,-125.488
1689806429.337,-76.660,110.352,-21.484,-79.590,-229.004
1689806429.354,-80.078,107.910,-31.738,-90.332,-109.375
1689806429.358,-83.496,113.770,-30.273,-91.309,-139.160
1689806429.362,-92.773,112.793,-24.414,-92.285,-153.320
1689806429.366,-103.516,119.141,-27.832,-104.004,-134.766
1689806429.370,-117.188,117.676,-20.996,-128.906,-140.625
1689806429.374,-135.742,103.027,-21.973,-155.273,-94.727
1689806429.378,-144.043,97.656,-17.090,-165.527,-69.824
1689806429.381,-162.598,93.750,-6.836,-171.875,91.797
1689806429.385,-196.777,88.867,2.441,-196.777,206.543
1689806429.389,-214.844,87.891,0.000,-216.309,-129.395
1689806429.393,-201.172,76.172,-7.324,-201.172,-238.281
1689806429.397,-204.102,49.316,-2.441,-200.684,-16.602
1689806429.385,-206.055,46.875,-7.812,-203.613,73.242
1689806429.389,-190.918,50.781,-13.672,-199.219,-120.117
1689806429.393,-176.270,30.273,-13.672,-190.918,-154.785
1689806429.397,-165.039,25.391,-40.527,-178.223,17.090
1689806429.401,-171.387,46.387,-41.504,-188.965,-20.020
1689806429.405,-170.410,48.828,-51.270,-185.547,-19.043
1689806429.409,-152.344,30.273,-32.715,-172.363,108.398
1689806429.412,-132.812,41.504,17.090,-163.086,326.172
1689806429.416,-122.559,64.453,19.043,-152.344,65.918
1689806429.420,-126.465,101.562,-23.926,-148.926,-255.371
1689806429.424,-128.418,125.000,-34.668,-144.531,-132.812
1689806429.428,-99.121,104.492,-21.484,-116.699,220.703
1689806429.431,-76.172,102.051,-34.180,-109.375,24.414
1689806429.435,-84.961,119.629,-19.043,-125.000,-304.199
1689806429.439,-79.102,127.930,-10.254,-99.609,-133.301
1689806429.443,-44.922,120.605,-27.344,-55.176,-36.133
1689806429.447,-24.414,133.789,-34.668,-40.039,-139.160
1689806429.451,-15.137,143.555,-40.527,-42.969,-122.559
1689806429.455,-16.113,110.840,-20.020,-37.598,82.520
1689806429.458,-29.785,105.469,-8.789,-25.391,299.805
1689806429.462,-10.742,130.859,-31.738,4.395,10.254
1689806429.466,18.066,125.977,-21.484,31.250,-105.469
1689806429.470,11.719,119.141,17.578,12.207,-25.391
1689806429.474,-2.930,123.047,32.227,-5.859,-121.094
1689806429.474,-4.395,126.953,19.531,3.418,-145.020
1689806429.478,-7.812,116.211,26.855,8.301,-101.074
1689806429.482,0.000,109.375,57.129,21.973,-56.641
1689806429.486,16.602,97.168,23.926,45.898,-59.082
1689806429.490,6.836,75.195,-16.113,38.574,-97.656
1689806429.494,7.812,63.477,-10.254,51.270,6.348
1689806429.498,33.203,55.664,-1.953,91.797,313.965
1689806429.501,39.551,53.711,-7.324,95.703,125.000
1689806429.505,54.688,65.918,-5.859,99.609,-112.305
1689806429.509,63.477,82.520,-11.719,102.539,-37.109
1689806429.513,61.035,72.754,-12.207,103.516,199.219
1689806429.517,53.711,79.102,4.395,107.422,103.027
1689806429.535,43.945,81.055,-9.277,101.074,-144.531
1689806429.539,42.969,61.523,-24.414,91.309,-139.160
1689806429.543,52.246,53.223,-34.180,90.820,-156.738
1689806429.547,55.176,69.336,-24.414,89.844,-191.406
1689806429.551,42.969,88.867,-14.160,84.961,-166.504
1689806429.555,39.062,84.961,-28.809,92.773,38.574
1689806429.559,45.898,83.984,-40.527,93.750,125.000
1689806429.562,51.758,71.777,-16.602,87.891,-96.680
1689806429.566,41.504,65.918,-8.789,76.660,-246.582
1689806429.570,35.645,66.406,-7.324,83.984,36.621
1689806429.574,37.598,58.105,-10.254,83.984,188.965
1689806429.578,29.297,47.363,-25.391,62.988,-129.883
1689806429.579,24.902,34.668,-38.574,45.898,-218.262
1689806429.583,17.578,33.203,-45.410,33.203,-113.281
1689806429.587,16.113,44.434,-52.246,46.387,-97.168
1689806429.591,19.043,64.453,-68.359,61.523,-166.016
1689806429.595,11.230,50.293,-55.176,43.457,-76.172
1689806429.599,13.672,41.504,-22.949,23.926,64.453
1689806429.603,11.230,70.801,-15.625,10.254,-35.156
1689806429.606,-4.883,74.707,-15.137,4.883,-54.199
1689806429.610,-5.371,76.660,-0.977,19.043,-12.207
1689806429.614,-2.441,75.684,-2.441,16.113,356.934
1689806429.618,-7.812,79.590,-11.230,-4.883,502.441
1689806429.622,-7.812,92.773,-13.672,-8.789,-53.711
1689806429.626,-3.906,94.238,-25.879,7.812,-211.426
1689806429.630,9.277,104.492,-36.621,29.785,-78.613
1689806429.634,31.250,109.375,-33.203,37.598,-128.906
1689806429.638,25.391,108.398,-27.832,27.832,-180.176
1689806429.642,-10.254,79.590,-29.297,-2.930,-130.859
1689806429.646,-22.949,59.082,-8.301,-11.230,-70.312
1689806429.650,-20.508,60.059,31.250,0.000,-58.105
1689806429.653,-31.250,56.641,30.273,-6.348,-101.562
1689806429.657,-35.156,40.039,-2.930,-17.090,75.195
1689806429.661,-29.785,36.621,-19.043,-24.902,183.594
1689806429.665,-32.227,41.016,-17.578,-26.367,-153.320
1689806429.669,-38.574,32.715,-25.879,-20.508,-233.887
1689806429.669,-29.785,34.668,-32.227,-21.484,-9.277
1689806429.673,-21.484,43.457,-15.137,-25.879,-5.371
1689806429.677,-18.555,42.480,-20.508,-29.785,-109.863
1689806429.681,-9.277,58.105,-37.598,-25.879,-93.750
1689806429.685,10.742,83.496,-24.902,-2.930,148.926
1689806429.689,15.625,84.473,-11.719,2.930,125.000
1689806429.693,13.672,54.688,-10.742,-2.441,-38.086
1689806429.696,22.461,41.016,-2.441,12.695,48.340
1689806429.700,27.344,30.762,-10.742,17.090,298.340
1689806429.704,7.324,51.758,-37.109,-10.742,227.051
1689806429.708,1.953,84.473,-31.738,-24.902,-201.660
1689806429.712,2.441,78.125,-26.367,-25.879,-264.648
1689806429.716,-4.395,63.477,-25.391,-34.180,-176.270
1689806429.720,-17.578,59.570,-22.461,-33.203,-180.664
1689806429.724,-28.809,57.617,-21.484,-30.762,-165.527
1689806429.728,-25.391,51.270,-27.832,-21.484,-26.855
1689806429.732,-14.648,50.293,-40.039,-8.789,-13.672
1689806429.736,-19.531,39.062,-37.598,-16.113,-129.883
1689806429.740,-26.367,37.598,-15.137,-18.555,-169.922
1689806429.743,-21.484,44.434,-12.695,-7.812,-22.461
1689806429.747,-21.484,39.062,-32.227,-4.395,153.809
1689806429.751,-17.578,32.715,-27.832,-2.441,-117.188
1689806429.755,-14.648,33.691,-8.301,-5.859,-238.281
1689806429.759,-17.578,31.738,11.719,-8.789,-123.047
1689806429.760,-21.973,35.645,4.883,-0.977,-178.223
1689806429.764,-22.461,39.062,-20.508,1.953,-204.102
1689806429.768,-10.254,21.973,-7.324,1.465,-19.531
1689806429.772,0.000,27.832,10.254,-9.277,44.922
1689806429.776,-6.836,50.293,8.301,-21.973,-49.805
1689806429.780,-15.137,60.547,-11.230,-20.508,10.742
1689806429.784,-17.090,47.852,-18.555,-15.625,54.199
1689806429.787,-1.465,20.508,-4.395,-3.418,417.969
1689806429.791,-0.977,33.203,-2.441,-7.812,557.617
1689806429.795,-21.484,55.176,-23.926,-31.738,13.672
1689806429.799,-26.855,43.945,-46.387,-38.086,-178.711
1689806429.803,-26.855,25.879,-26.855,-32.715,-75.195
1689806429.806,-21.484,43.457,-11.719,-23.438,-122.559
1689806429.810,-10.742,43.457,-22.461,-23.926,-135.254
1689806429.814,-26.367,24.414,-37.109,-41.992,-83.984
1689806429.818,-41.016,55.176,-51.758,-38.086,-70.801
1689806429.822,-26.855,77.148,-60.547,-17.090,-65.430
1689806429.826,-23.438,63.965,-42.969,-13.672,59.570
1689806429.830,-20.996,60.059,-21.484,-14.160,294.922
1689806429.833,-16.602,75.684,-29.297,-16.113,295.898
1689806429.837,-20.020,87.891,-42.480,-13.672,-91.797
1689806429.841,-23.438,76.660,-42.969,-7.324,-236.328
1689806429.845,-17.090,64.453,-15.625,5.371,-0.488
1689806429.849,-12.695,65.430,2.930,5.859,6.836
1689806429.850,-26.367,77.637,-20.508,-20.020,-190.918
1689806429.854,-34.180,62.988,-24.414,-30.762,-197.266
1689806429.858,-36.133,49.805,-8.301,-22.949,-102.051
1689806429.862,-33.691,56.641,-7.812,-19.531,-86.426
1689806429.866,-36.133,35.645,-15.137,-23.438,-81.055
1689806429.870,-46.875,23.438,-15.137,-40.527,-8.789
1689806429.874,-54.688,22.949,-30.273,-50.293,247.559
1689806429.877,-57.129,23.438,-40.039,-53.223,153.809
1689806429.881,-55.664,24.902,-32.715,-59.570,-86.426
1689806429.885,-46.387,12.207,-16.113,-66.406,-28.809
1689806429.889,-44.434,18.555,-30.762,-71.289,120.605
1689806429.893,-49.805,49.316,-24.902,-73.242,-50.293
1689806429.910,-43.457,42.969,-16.113,-63.477,-225.586
1689806429.914,-26.855,31.250,-22.461,-35.645,-90.332
1689806429.918,-13.184,48.828,-11.719,-22.949,-39.062
1689806429.922,-5.371,62.988,-8.789,-26.855,-128.906
1689806429.926,-0.977,45.410,-22.461,-23.438,-238.770
1689806429.930,-5.371,29.297,-28.320,-9.277,0.977
1689806429.934,5.371,47.852,-48.828,10.742,390.137
1689806429.937,8.789,69.824,-68.359,5.859,52.246
1689806429.941,6.348,62.988,-18.555,-0.488,-175.781
1689806429.945,-1.465,41.504,9.277,-9.766,31.250
1689806429.949,-24.414,8.789,6.836,-27.832,15.137
1689806429.953,-25.391,14.160,8.301,-23.438,-110.352
1689806429.954,-27.832,44.434,-10.742,-20.996,-96.680
1689806429.958,-39.551,40.527,-4.883,-38.086,-28.320
1689806429.962,-46.875,32.227,-0.488,-52.246,-87.402
1689806429.966,-48.828,31.738,13.184,-51.758,-158.691
1689806429.970,-61.035,20.508,15.137,-56.641,-70.312
1689806429.974,-67.383,2.441,-64.941,-59.570,240.723
1689806429.978,-51.270,22.949,-35.156,-60.547,132.324
1689806429.981,-85.449,14.648,4.395,-104.492,-101.562
1689806429.985,-126.465,-15.137,-5.371,-137.695,-102.051
1689806429.989,-123.047,-17.090,15.625,-125.488,213.867
1689806429.993,-129.883,-4.883,2.930,-140.137,128.418
1689806429.997,-146.973,-10.742,-0.977,-168.945,-187.988
1689806430.001,-180.176,-22.461,24.902,-194.824,-168.457
1689806430.005,-216.309,-20.996,31.738,-215.820,-148.438
1689806430.009,-232.422,-23.438,16.113,-219.727,-146.484
1689806430.013,-229.492,-25.391,2.930,-210.938,-78.125
1689806430.017,-229.492,-31.250,14.648,-220.215,24.902
1689806430.021,-242.188,-29.297,22.461,-245.605,14.160
1689806430.025,-232.910,-7.812,11.230,-239.258,-78.125
1689806430.028,-214.355,11.719,10.254,-218.262,-125.000
1689806430.032,-200.684,10.254,12.695,-208.008,79.590
1689806430.036,-181.152,14.160,7.812,-194.824,224.121
1689806430.040,-183.105,22.949,-4.883,-204.590,-99.609
1689806430.044,-184.082,20.508,-31.250,-206.543,-171.875
1689806430.044,-160.156,7.812,-46.875,-174.805,-38.574
1689806430.048,-140.625,16.602,-62.500,-149.902,-98.145
1689806430.052,-136.719,30.762,-33.203,-159.668,-134.277
1689806430.056,-128.906,13.184,2.930,-175.293,-168.945
1689806430.060,-109.375,10.254,6.836,-163.574,-126.953
1689806430.064,-101.562,17.578,5.859,-136.230,6.348
1689806430.068,-95.215,35.156,11.230,-118.164,37.109
1689806430.071,-62.012,49.316,5.371,-97.656,45.898
1689806430.075,-33.203,27.344,-20.996,-79.102,350.098
1689806430.079,-34.668,22.949,-26.855,-65.918,384.766
1689806430.083,-31.250,43.457,-14.160,-43.457,-88.867
1689806430.087,-13.672,37.109,-22.461,-16.113,-169.434
1689806430.091,-2.930,26.367,-20.020,-9.277,-66.895
1689806430.095,10.742,24.414,-24.414,-10.254,-148.926
1689806430.099,22.949,29.785,-75.684,2.441,-140.625
1689806430.103,25.391,27.832,-74.707,20.996,-97.656
1689806430.107,29.785,17.578,-65.918,41.992,-100.586
1689806430.111,51.270,23.438,-45.410,58.594,-32.227
1689806430.115,60.059,14.648,-23.438,47.363,-71.289
1689806430.118,57.129,-26.367,-42.969,42.969,9.766
1689806430.122,71.289,-17.090,-32.715,73.730,180.176
1689806430.126,83.008,22.949,-32.715,93.750,-73.242
1689806430.130,79.590,31.250,-46.387,90.332,-178.223
1689806430.134,77.637,33.691,-51.758,82.520,9.277
1689806430.134,74.707,43.945,-51.758,72.754,-81.543
1689806430.138,75.195,44.434,-49.805,77.148,-234.863
1689806430.142,73.242,44.434,-41.992,84.961,-170.410
1689806430.146,66.406,37.598,-37.598,78.125,-38.574
1689806430.150,66.895,6.836,-47.852,65.918,-69.336
1689806430.154,62.012,3.906,-45.898,54.688,-128.418
1689806430.158,48.828,25.879,-34.180,53.223,1.953
1689806430.161,39.062,15.625,-30.273,54.688,448.242
1689806430.165,33.691,21.973,-47.852,46.387,422.363
1689806430.169,32.227,33.203,-55.176,33.691,-120.605
1689806430.173,24.902,18.066,-39.062,24.414,-169.434
1689806430.177,12.207,15.625,-31.738,20.020,-84.961
1689806430.182,18.066,25.391,-18.555,33.203,-187.012
1689806430.186,28.320,26.367,-20.996,46.875,-123.535
1689806430.190,21.484,14.160,-41.992,32.227,-17.090
1689806430.194,14.160,16.602,-48.340,12.207,-101.562
1689806430.198,15.137,25.391,-33.691,14.648,-153.809
1689806430.202,14.160,17.090,-20.020,21.973,-66.895
1689806430.206,9.277,10.742,-7.324,23.926,143.066
1689806430.209,-0.977,15.137,-2.441,12.207,299.316
1689806430.213,-10.254,21.484,-15.625,-11.719,-35.156
1689806430.217,-19.531,7.812,-23.438,-23.438,-227.051
1689806430.221,-23.926,-16.602,-36.621,-22.949,-109.375
1689806430.225,-16.113,0.977,-41.992,-15.625,-68.848
1689806430.225,-18.066,-1.953,-39.551,-24.902,-135.742
1689806430.229,-17.090,-27.344,-42.480,-32.715,-68.359
1689806430.233,-19.043,-19.531,-20.020,-26.855,45.410
1689806430.237,-26.855,7.812,-17.578,-22.461,-92.773
1689806430.241,-20.020,20.020,-51.758,-10.254,-120.117
1689806430.245,-13.672,6.348,-46.875,-1.953,32.227
1689806430.249,-15.137,-0.977,-25.879,-8.301,281.250
1689806430.252,-15.625,13.672,-20.020,-16.113,224.121
1689806430.256,-18.066,28.320,-15.137,-9.277,-106.445
1689806430.260,-21.973,20.508,-21.484,0.000,-97.656
1689806430.264,-20.508,16.113,-36.133,-7.324,47.852
1689806430.268,-18.555,29.785,-41.504,-27.832,-114.746
1689806430.285,-22.461,21.973,-29.297,-34.180,-229.004
1689806430.289,-27.832,4.395,-10.742,-25.879,-158.691
1689806430.293,-29.297,6.348,-21.484,-21.973,-91.797
1689806430.297,-24.414,0.488,-27.344,-18.066,-57.129
1689806430.301,-18.066,-0.488,-15.137,-25.391,-65.430
1689806430.305,-15.625,3.906,-29.785,-29.785,76.660
1689806430.309,-9.277,4.883,-39.551,-17.090,394.043
1689806430.312,-10.742,3.906,-24.414,-11.230,50.781
1689806430.316,-11.719,-11.230,-16.602,-7.812,-170.898
1689806430.320,-2.441,-10.254,-5.371,-10.742,-19.043
1689806430.324,2.441,1.465,-9.277,-11.719,-138.184
1689806430.328,3.418,15.625,-20.996,4.395,-226.074
1689806430.329,9.277,24.902,-24.414,25.391,-151.855
1689806430.333,11.230,30.762,-33.203,30.762,-67.383
1689806430.337,5.371,26.367,-31.738,12.207,-94.238
1689806430.341,11.719,20.996,-32.715,16.602,-190.918
1689806430.345,22.461,10.254,-28.320,32.227,-149.902
1689806430.349,21.484,0.000,-20.508,39.062,62.012
1689806430.353,20.996,14.648,-16.602,46.875,83.496
1689806430.356,25.391,15.625,-14.160,33.203,-3.418
1689806430.360,25.879,5.859,-13.672,19.043,-14.160
1689806430.364,21.484,3.906,-10.742,19.531,255.859
1689806430.368,12.207,10.254,-12.695,22.461,284.668
1689806430.372,6.348,14.160,-11.230,22.949,-75.195
1689806430.376,0.488,2.930,-3.418,6.836,-134.277
1689806430.380,-9.766,-1.465,1.953,-17.090,-122.559
1689806430.384,-20.508,-2.441,-5.859,-23.926,-206.543
1689806430.388,-20.020,-16.602,-25.879,-16.113,-203.613
1689806430.392,-19.531,-0.488,-36.621,-5.371,-111.328
1689806430.396,-25.879,11.719,-29.297,-12.695,46.875
1689806430.400,-34.180,7.812,-23.438,-34.668,41.016
1689806430.403,-36.621,5.859,-17.090,-34.668,-221.191
1689806430.407,-37.109,-9.766,-37.109,-21.973,-0.488
1689806430.411,-31.250,-17.090,-72.754,-12.207,468.262
1689806430.415,-27.344,-10.254,-47.852,-14.160,83.008
1689806430.419,-31.250,2.930,8.789,-26.855,-230.469
1689806430.420,-39.551,16.602,14.160,-40.039,-140.625
1689806430.424,-47.852,23.438,-9.766,-31.250,-153.809
1689806430.428,-41.992,22.949,-21.973,-18.555,-128.418
1689806430.432,-32.715,15.137,-28.320,-14.648,-51.270
1689806430.436,-27.832,10.742,-26.367,-21.484,-50.293
1689806430.440,-36.133,15.137,-29.785,-37.598,-38.574
1689806430.444,-38.086,21.973,-32.227,-36.621,-74.707
1689806430.447,-30.273,27.832,-37.598,-18.555,-57.129
1689806430.451,-30.273,18.066,-51.270,-17.090,329.590
1689806430.455,-41.992,28.320,-41.504,-46.387,289.551
1689806430.459,-58.594,24.902,-32.227,-68.359,-142.578
1689806430.463,-59.570,1.465,-42.480,-51.270,-163.086
1689806430.466,-54.199,5.371,-52.246,-33.691,-20.508
1689806430.470,-59.082,9.766,-43.457,-55.176,-98.145
1689806430.474,-61.035,16.113,-33.203,-78.613,-187.500
1689806430.478,-67.383,25.391,-35.645,-88.379,-139.648
1689806430.482,-74.707,32.227,-46.387,-88.379,-77.637
1689806430.486,-63.477,10.254,-33.203,-71.289,35.156
1689806430.490,-51.270,-7.324,-7.812,-61.523,66.406
1689806430.493,-54.688,4.395,-22.461,-72.266,109.375
1689806430.497,-45.410,31.250,-25.391,-68.359,139.160
1689806430.501,-42.480,39.062,-16.602,-63.965,-102.539
1689806430.505,-53.711,25.879,-20.508,-67.871,-154.297
1689806430.509,-47.363,21.973,-32.227,-51.758,43.945
1689806430.510,-50.781,24.414,-50.781,-57.129,-18.555
1689806430.514,-62.012,25.879,-41.504,-77.637,-178.223
1689806430.518,-59.570,22.461,-32.715,-68.359,-73.242
1689806430.522,-58.105,18.555,-35.645,-58.105,102.539
1689806430.526,-66.895,20.508,-20.508,-58.594,73.242
1689806430.530,-80.078,10.254,-1.953,-78.125,7.812
1689806430.534,-91.309,4.883,-2.441,-103.027,-5.859
1689806430.537,-107.422,-0.488,-4.883,-104.004,378.906
1689806430.541,-135.254,2.930,-13.184,-117.188,375.000
1689806430.545,-153.809,12.207,-31.250,-144.531,-98.145
1689806430.549,-165.527,10.254,-21.484,-168.945,-207.520
1689806430.553,-184.082,10.742,-13.672,-197.754,-166.992
1689806430.556,-201.660,7.812,-26.855,-222.656,-166.504
1689806430.560,-215.332,16.113,-41.992,-229.004,-166.016
1689806430.564,-212.891,17.090,-47.852,-220.703,-99.121
1689806430.568,-212.402,3.418,-32.227,-229.492,-89.355
1689806430.572,-218.262,0.488,-25.391,-241.699,-123.535
1689806430.576,-218.262,8.301,-24.414,-241.699,-87.891
1689806430.580,-206.543,9.277,-8.301,-226.562,56.152
1689806430.583,-173.340,13.184,4.395,-193.848,345.215
1689806430.587,-165.039,30.273,-20.508,-191.895,47.852
1689806430.591,-157.715,19.531,-27.344,-199.707,-227.051
1689806430.595,-136.230,8.789,-27.344,-187.988,-96.191
1689806430.599,-125.000,18.555,-44.922,-161.621,-53.711
1689806430.599,-127.930,14.160,-37.109,-147.461,-124.023
1689806430.603,-127.930,9.766,-33.203,-150.879,-147.461
1689806430.607,-118.164,17.090,-32.715,-149.902,-86.914
1689806430.611,-109.375,30.273,-41.016,-141.113,-98.633
1689806430.615,-104.980,44.434,-48.828,-131.348,-92.773
1689806430.619,-121.094,23.926,-30.273,-135.742,48.828
1689806430.623,-135.254,5.371,-22.949,-141.113,342.773
1689806430.626,-126.953,29.297,-18.066,-146.973,185.547
1689806430.630,-115.234,40.527,-17.578,-158.691,-146.973
1689806430.634,-106.445,48.340,-30.762,-149.902,-88.379
1689806430.638,-97.168,53.223,-35.156,-123.535,217.773
1689806430.642,-97.656,51.758,-83.496,-123.047,85.938
1689806430.675,-109.375,36.133,-67.871,-140.625,-170.898
1689806430.679,-115.234,21.973,0.977,-149.414,-164.551
1689806430.683,-104.492,35.156,9.277,-121.582,-140.625
1689806430.687,-118.652,27.832,-12.207,-118.652,-153.320
1689806430.691,-111.816,25.879,-16.602,-119.629,-144.531
1689806430.695,-93.262,44.922,-3.906,-114.258,48.340
1689806430.699,-83.984,60.547,-3.418,-118.652,45.410
1689806430.702,-74.707,72.754,-6.348,-107.910,-170.898
1689806430.706,-104.492,69.824,-12.695,-114.258,-196.289
1689806430.710,-101.074,42.480,-20.996,-107.910,122.559
1689806430.714,-65.918,39.551,-31.250,-89.355,229.492
1689806430.718,-74.707,55.664,-36.133,-107.422,-157.227
1689806430.704,-98.145,47.363,-18.555,-113.281,-237.305
1689806430.708,-82.031,34.668,-10.742,-79.102,-53.711
1689806430.712,-65.918,24.414,-32.227,-60.547,-50.293
1689806430.716,-69.336,10.254,-30.762,-69.336,-147.949
1689806430.720,-72.754,16.602,-26.855,-74.707,-70.801
1689806430.724,-84.473,27.344,-26.367,-77.148,63.477
1689806430.728,-64.453,29.785,-22.461,-42.480,-19.531
1689806430.731,-60.059,15.137,-33.203,-22.461,-64.453
1689806430.735,-90.820,2.441,-18.555,-53.223,23.438
1689806430.739,-88.379,6.836,23.438,-69.336,36.133
1689806430.743,-79.590,7.812,24.414,-63.965,-117.676
1689806430.747,-72.754,8.301,3.906,-42.969,-107.422
1689806430.751,-57.617,0.488,9.277,-23.926,20.020
1689806430.755,-54.199,-11.230,4.883,-35.645,354.980
1689806430.759,-52.734,-5.371,-17.578,-47.363,313.965
1689806430.763,-55.176,-5.859,-20.020,-44.434,-140.137
1689806430.767,-66.895,-16.602,-2.441,-46.387,-162.109
1689806430.771,-48.828,-25.879,0.977,-26.855,-3.906
1689806430.775,-42.480,-46.387,-9.277,-24.414,29.785
1689806430.778,-40.527,-71.777,-13.184,-40.039,-176.270
1689806430.782,-43.945,-91.309,-0.488,-41.992,-108.887
1689806430.786,-48.340,-81.055,5.371,-25.391,63.477
1689806430.790,-40.039,-53.711,1.953,-8.789,-196.289
1689806430.794,-38.086,-48.340,-11.230,-17.090,-257.324
1689806430.795,-39.551,-46.387,-19.531,-28.320,-127.441
1689806430.799,-43.457,-42.480,-16.602,-26.367,-106.445
1689806430.803,-35.645,-44.922,-27.832,-9.766,-78.613
1689806430.807,-36.621,-44.434,-33.203,-2.930,-39.551
1689806430.811,-43.945,-44.434,-22.949,-14.160,138.184
1689806430.815,-33.691,-45.898,-28.809,-13.672,105.957
1689806430.819,-33.691,-50.781,-29.297,-22.461,9.766
1689806430.822,-41.016,-47.363,-33.203,-22.949,27.344
1689806430.826,-35.156,-42.969,-32.227,-2.930,276.855
1689806430.830,-24.414,-17.090,-3.418,13.672,262.695
1689806430.834,-21.484,11.719,-1.465,-6.836,-148.926
1689806430.838,-23.926,10.742,-7.812,-27.832,-209.473
1689806430.841,-24.902,-7.812,-11.230,-25.391,-145.508
1689806430.845,-18.066,-34.668,-27.832,-6.836,-189.941
1689806430.849,-19.531,-35.156,-16.602,-0.488,-160.156
1689806430.853,-23.926,-32.715,4.883,-7.812,-93.262
1689806430.857,-12.207,-42.969,-1.465,-5.371,-85.449
1689806430.861,-11.230,-37.109,-19.043,-6.348,-93.750
1689806430.865,-33.691,-25.391,-37.598,-13.184,-38.574
1689806430.868,-27.832,-28.809,-35.156,2.441,205.078
1689806430.872,-0.488,-30.762,-37.109,17.090,401.367
1689806430.876,9.277,-7.812,-25.879,4.395,20.020
1689806430.880,12.207,-20.996,-14.160,18.555,-222.656
1689806430.884,17.090,-26.367,-29.785,39.062,-80.566
1689806430.884,10.254,4.883,-16.113,23.438,-101.562
1689806430.888,11.230,-8.789,9.277,12.695,-191.895
1689806430.892,23.438,-20.508,-10.254,12.207,-128.418
1689806430.896,27.832,9.277,-62.988,11.719,-67.871
1689806430.900,26.855,24.902,-57.129,21.973,-108.887
1689806430.904,35.645,20.020,-28.320,27.344,-74.219
1689806430.908,41.992,8.301,-35.156,19.531,-36.133
1689806430.911,49.316,0.977,-36.621,11.719,349.609
1689806430.915,46.875,19.043,-57.617,8.789,509.277
1689806430.919,30.762,24.902,-64.453,4.395,36.621
1689806430.923,43.945,15.625,-37.109,13.184,-192.383
1689806430.927,60.547,19.531,-37.598,18.066,-114.258
1689806430.931,59.082,22.949,-60.059,12.207,-185.547
1689806430.935,51.270,14.648,-66.895,21.973,-194.336
1689806430.939,72.266,14.648,-83.496,57.129,-39.551
1689806430.943,95.215,23.926,-72.754,79.102,-49.805
1689806430.947,105.469,21.484,-55.176,89.844,-83.008
1689806430.951,112.793,20.020,-58.105,100.586,-55.176
1689806430.955,103.027,14.648,-61.035,91.309,34.668
1689806430.958,101.074,13.184,-67.871,89.844,193.359
1689806430.962,111.816,3.906,-79.590,107.910,-61.035
1689806430.966,112.793,-10.742,-46.387,113.770,-111.816
1689806430.970,115.723,-3.906,-30.762,101.562,124.512
1689806430.974,110.352,7.812,-44.922,87.402,-34.180
1689806430.974,89.844,12.695,-42.480,82.031,-185.547
1689806430.978,81.543,2.930,-51.758,87.891,-83.984
1689806430.982,84.961,-23.926,-50.781,92.773,-39.551
1689806430.986,90.820,-31.250,-32.227,84.961,-90.820
1689806430.990,90.820,-5.859,-43.945,76.172,-110.840
1689806430.994,76.660,1.465,-67.871,65.430,23.926
1689806430.998,80.078,-0.488,-61.523,78.613,318.848
1689806431.001,90.332,6.836,-50.293,93.262,218.262
1689806431.005,71.777,-1.953,-39.551,68.848,-109.375
1689806431.009,48.828,-9.766,-46.875,44.922,-139.160
1689806431.013,41.016,-7.812,-41.016,46.387,36.133
1689806431.017,44.922,-6.348,-18.555,62.988,-66.406
1689806431.035,51.270,-4.883,-15.137,67.871,-182.617
1689806431.039,52.734,0.000,-18.066,54.199,-113.770
1689806431.043,37.598,12.207,-27.344,40.039,-59.570
1689806431.047,33.691,4.883,-55.664,41.016,-184.570
1689806431.051,44.434,-0.977,-52.246,56.641,-191.406
1689806431.055,45.410,0.000,-20.996,62.988,23.438
1689806431.059,28.320,-10.254,-34.180,33.203,70.801
1689806431.062,19.531,-22.461,-11.719,10.254,-169.922
1689806431.066,14.648,-24.902,4.395,11.719,-227.539
1689806431.070,11.719,-28.320,-3.418,29.785,13.184
1689806431.074,16.113,-23.926,-3.418,41.016,109.375
1689806431.078,4.883,-29.785,-12.695,15.625,-20.020
1689806431.079,-11.230,-43.945,-29.785,-3.906,-78.613
1689806431.083,-6.836,-42.969,-39.062,6.836,-65.430
1689806431.087,-3.418,-31.250,-39.551,12.207,10.254
1689806431.091,-16.602,-17.578,-22.461,5.859,-7.324
1689806431.095,-10.254,-19.531,-14.648,-0.977,-99.121
1689806431.099,-6.348,-32.715,-37.598,-12.207,190.430
1689806431.103,-10.254,-27.344,-50.781,-12.207,91.309
1689806431.106,-14.648,-34.668,-20.508,-2.930,-159.668
1689806431.110,-20.996,-47.363,-14.160,-4.883,-2.930
1689806431.114,-10.742,-43.457,-28.809,-5.859,254.883
1689806431.118,-12.207,-20.020,-24.414,-15.625,98.633
1689806431.122,-16.602,-16.113,-9.277,-28.809,-204.590
1689806431.126,-11.230,-33.691,-1.953,-18.066,-158.203
1689806431.130,-11.230,-37.598,-18.066,-6.836,-61.035
1689806431.134,-1.953,-11.230,-14.648,1.465,-78.125
1689806431.138,-1.953,-2.441,-33.691,-6.836,-168.945
1689806431.142,-8.789,-8.301,-50.293,-18.066,-143.066
1689806431.146,-10.742,-12.695,-36.133,-16.113,-14.160
1689806431.150,-15.137,-30.273,-43.457,-7.324,46.875
1689806431.153,-18.066,-16.602,-60.059,-11.719,29.785
1689806431.157,-11.719,15.625,-52.734,-12.695,140.137
1689806431.161,-12.207,12.695,-43.945,-7.324,347.656
1689806431.165,-13.184,-8.301,-29.785,1.953,8.301
1689806431.169,10.742,-14.160,-18.066,30.762,-183.594
1689806431.169,-2.930,-1.953,-27.344,8.789,-97.168
1689806431.173,-22.461,10.254,-19.531,-32.715,-191.895
1689806431.177,-20.996,3.906,-3.906,-41.016,-274.902
1689806431.181,-9.277,2.441,-12.695,-28.320,-204.590
1689806431.185,5.371,12.695,-33.691,-7.324,-90.332
1689806431.189,3.418,9.766,-32.715,3.906,-40.527
1689806431.193,8.301,-0.488,-10.254,6.348,-27.832
1689806431.196,1.953,0.000,-15.137,-5.859,-61.035
1689806431.200,-14.160,-18.066,-28.320,-12.695,303.223
1689806431.204,-8.301,-30.273,-32.715,-8.789,457.520
1689806431.208,-9.277,3.906,-13.672,-12.695,9.766
1689806431.212,-19.043,18.066,-4.883,-26.855,-129.883
1689806431.229,-19.043,19.531,-21.973,-41.504,-135.742
1689806431.233,-15.137,15.625,-23.926,-33.203,-234.863
1689806431.237,-13.184,8.301,-17.090,-10.742,-188.477
1689806431.241,0.488,4.395,-42.969,12.207,-84.473
1689806431.245,9.766,-3.418,-85.938,14.160,-57.129
1689806431.249,2.930,4.883,-70.801,-4.395,-22.949
1689806431.253,-5.371,19.043,-22.461,-6.836,-20.508
1689806431.256,-13.184,1.953,6.836,-1.953,57.129
1689806431.260,-28.809,-11.230,9.766,-11.230,207.520
1689806431.264,-38.086,-3.906,-2.441,-26.855,-26.855
1689806431.268,-30.273,8.301,-16.113,-40.527,-129.395
1689806431.272,-20.508,-4.395,-25.879,-37.109,0.000
1689806431.260,-23.438,0.000,-26.367,-20.020,-76.660
1689806431.264,-22.461,18.066,-32.715,-10.254,-182.129
1689806431.268,-14.160,5.859,-54.199,-9.766,-142.090
1689806431.272,-25.879,-5.859,-68.848,-31.250,-105.469
1689806431.276,-34.180,-24.414,-52.734,-46.387,-156.250
1689806431.280,-30.762,-35.645,-36.621,-33.691,-171.387
1689806431.284,-44.922,-30.762,-13.184,-32.715,-10.742
1689806431.287,-54.199,-27.832,-10.254,-43.457,349.121
1689806431.291,-60.547,-15.625,-41.504,-67.383,178.711
1689806431.295,-51.758,-18.066,-51.758,-64.941,-180.176
1689806431.299,-47.852,-21.484,-36.621,-49.316,-122.070
1689806431.303,-61.035,-21.484,-25.879,-47.852,179.688
1689806431.308,-60.059,-18.555,-5.859,-54.688,129.395
1689806431.312,-50.781,-0.488,-9.766,-62.500,-80.566
1689806431.316,-49.805,8.789,-20.020,-60.059,-94.727
1689806431.320,-48.828,8.789,-19.043,-41.016,-57.129
1689806431.324,-37.598,-5.371,-21.484,-19.043,-118.164
1689806431.328,-27.344,-17.090,-14.160,-15.137,-103.516
1689806431.332,-21.484,-19.531,-19.531,-24.902,91.309
1689806431.335,-24.902,-10.742,-52.246,-34.180,174.805
1689806431.339,-29.785,3.418,-61.035,-27.344,-117.188
1689806431.343,-26.367,1.465,-31.738,-15.137,-213.867
1689806431.347,-21.973,4.395,-49.316,-17.090,-62.500
1689806431.351,-18.555,-19.043,-42.969,-19.531,-53.223
1689806431.349,-20.508,-37.109,-27.832,-28.320,-162.109
1689806431.353,-24.414,-9.277,-31.250,-31.250,-166.992
1689806431.357,-22.461,9.277,-36.133,-19.043,40.039
1689806431.361,-26.855,4.883,-53.223,-28.320,106.445
1689806431.365,-31.250,-20.996,-42.969,-39.062,-26.855
1689806431.369,-27.344,-25.879,-57.129,-34.180,-45.898
1689806431.373,-20.508,-5.859,-44.922,-23.926,290.039
1689806431.376,-28.809,-6.348,-23.438,-27.344,524.414
1689806431.380,-42.969,-16.113,-3.906,-37.109,95.703
1689806431.384,-40.527,-29.785,20.996,-38.574,-176.758
1689806431.388,-35.645,-12.207,-0.488,-41.016,-164.062
1689806431.392,-34.668,0.488,3.418,-33.691,-235.352
1689806431.410,-36.133,-7.812,-20.996,-28.320,-247.559
1689806431.414,-41.992,-1.465,-49.805,-35.645,-169.434
