timestamps,TP9,AF7,AF8,TP10,Right AUX
1689275098.881,-36.133,-28.809,-38.086,-36.621,-74.707
1689275098.885,-47.852,-27.344,-39.062,-44.434,-128.418
1689275098.889,-45.898,-26.367,-35.645,-54.199,-101.074
1689275098.893,-35.156,-25.879,-35.156,-61.523,-54.199
1689275098.897,-45.410,-24.414,-37.598,-48.340,-98.145
1689275098.901,-49.805,-26.855,-36.621,-22.949,-94.727
1689275098.905,-52.246,-25.879,-34.668,-21.973,-71.777
1689275098.908,-52.246,-26.855,-34.180,-38.086,215.332
1689275098.912,-37.109,-27.832,-33.691,-52.734,379.883
1689275098.916,-44.922,-27.832,-27.344,-55.664,-112.793
1689275098.920,-58.105,-26.855,-27.344,-49.805,-213.867
1689275098.924,-49.805,-21.973,-34.668,-42.480,-41.016
1689275098.940,-46.875,-20.996,-37.598,-40.527,-135.254
1689275098.944,-45.898,-22.461,-36.133,-45.898,-217.773
1689275098.948,-43.945,-23.926,-31.738,-59.570,-172.363
1689275098.952,-51.270,-27.344,-29.297,-46.875,-124.512
1689275098.956,-49.805,-30.762,-32.715,-29.297,-177.246
1689275098.960,-34.668,-33.203,-35.645,-28.320,-80.566
1689275098.964,-39.551,-32.227,-34.668,-38.574,136.230
1689275098.967,-49.805,-29.297,-32.227,-44.922,81.543
1689275098.971,-47.852,-28.809,-32.227,-33.203,-107.910
1689275098.975,-46.387,-27.832,-33.203,-13.672,-146.973
1689275098.979,-49.805,-31.738,-30.762,-30.273,45.410
1689275098.983,-61.523,-33.203,-38.086,-67.871,176.758
1689275098.971,-51.270,-28.320,-36.621,-58.594,-126.465
1689275098.975,-45.410,-28.320,-34.180,-39.551,-102.051
1689275098.979,-49.316,-29.297,-37.598,-44.922,66.406
1689275098.983,-42.969,-26.855,-33.691,-35.645,-35.156
1689275098.987,-38.574,-25.391,-33.691,-35.156,-153.320
1689275098.991,-41.504,-26.855,-34.180,-41.016,-63.965
1689275098.995,-41.016,-32.227,-33.691,-36.621,31.250
1689275098.998,-40.039,-29.297,-35.156,-29.785,46.387
1689275099.002,-32.715,-22.949,-33.203,-25.879,-14.648
1689275099.006,-29.297,-20.996,-32.715,-42.969,-160.156
1689275099.010,-29.785,-22.949,-38.086,-37.109,151.855
1689275099.014,-34.668,-24.414,-39.062,-38.086,295.410
1689275099.016,-39.062,-21.484,-36.133,-63.965,-117.188
1689275099.020,-26.855,-19.043,-35.645,-64.453,-158.691
1689275099.024,-34.668,-19.531,-38.086,-59.082,-92.285
1689275099.028,-29.297,-24.414,-39.551,-51.270,-107.422
1689275099.032,-24.414,-23.438,-39.062,-47.363,-176.270
1689275099.036,-33.691,-23.438,-41.016,-46.387,-37.598
1689275099.040,-31.250,-28.809,-41.992,-39.062,375.488
1689275099.043,-49.805,-25.391,-37.598,-13.184,135.254
1689275099.047,-61.523,-27.832,-30.762,-22.461,-199.707
1689275099.051,-53.711,-32.227,-28.809,-65.918,-138.184
1689275099.055,-51.270,-28.320,-34.668,-43.945,-119.141
1689275099.059,-50.293,-24.902,-33.691,-41.016,-138.672
1689275099.075,-52.734,-24.414,-36.621,-43.945,-117.676
1689275099.079,-50.781,-25.391,-37.109,-29.297,-121.094
1689275099.083,-52.734,-27.344,-36.621,-43.457,-147.461
1689275099.087,-54.199,-27.344,-37.109,-45.410,-163.574
1689275099.091,-46.387,-27.832,-30.762,-30.273,-118.164
1689275099.095,-47.852,-29.785,-29.297,-32.715,60.547
1689275099.099,-57.129,-32.227,-31.250,-43.945,60.059
1689275099.102,-51.270,-33.203,-33.691,-62.988,-85.449
1689275099.106,-40.039,-37.109,-34.180,-66.895,-37.598
1689275099.110,-31.250,-33.203,-33.203,-39.551,72.266
1689275099.114,-32.227,-27.344,-30.762,-23.926,-26.367
1689275099.118,-47.852,-28.809,-28.320,-36.621,-107.910
1689275099.150,-50.293,-31.250,-28.809,-42.969,-116.699
1689275099.154,-44.434,-31.250,-35.156,-35.645,227.051
1689275099.158,-49.316,-26.367,-35.645,-30.273,304.199
1689275099.162,-50.293,-22.461,-32.227,-32.715,-112.793
1689275099.166,-41.504,-21.484,-31.738,-32.715,-87.891
1689275099.170,-34.180,-23.438,-29.297,-33.691,-22.461
1689275099.174,-26.855,-23.926,-29.785,-45.410,-29.785
1689275099.177,-27.344,-21.973,-28.320,-43.945,-97.656
1689275099.181,-30.273,-21.973,-26.855,-32.227,2.441
1689275099.185,-16.113,-25.391,-29.297,-23.438,320.312
1689275099.189,-36.621,-22.461,-29.297,-42.480,53.223
1689275099.193,-60.059,-20.996,-29.297,-68.359,-225.586
1689275099.157,-48.828,-26.367,-27.832,-56.152,-91.309
1689275099.161,-41.992,-26.367,-30.762,-47.363,-24.902
1689275099.165,-40.527,-24.414,-35.156,-41.504,-138.184
1689275099.169,-27.832,-25.391,-29.785,-43.945,-175.293
1689275099.173,-12.695,-25.879,-25.879,-37.109,-144.043
1689275099.177,-17.090,-27.344,-25.391,-14.648,-42.969
1689275099.181,-36.133,-32.227,-29.785,-28.809,-7.812
1689275099.184,-28.320,-29.785,-31.250,-30.273,38.574
1689275099.188,-24.902,-29.785,-29.785,-40.527,74.219
1689275099.192,-41.992,-30.762,-34.180,-44.922,-89.355
1689275099.196,-40.527,-29.297,-33.691,-34.180,-153.809
1689275099.200,-28.809,-30.762,-30.273,-45.410,-4.883
1689275099.210,-26.855,-33.691,-32.715,-46.875,59.082
1689275099.214,-49.805,-34.668,-33.691,-45.898,-130.371
1689275099.218,-52.246,-31.738,-32.227,-32.715,-228.027
1689275099.222,-35.156,-36.133,-29.785,-19.043,-105.469
1689275099.226,-36.133,-24.902,-31.738,-30.273,311.523
1689275099.230,-45.410,-12.695,-33.203,-47.852,631.348
1689275099.234,-35.156,-20.508,-35.156,-40.527,255.859
1689275099.237,-31.250,-30.273,-40.527,-22.461,-67.383
1689275099.241,-35.156,-28.320,-39.551,-42.969,-87.891
1689275099.245,-44.434,-19.531,-37.598,-66.895,-219.238
1689275099.249,-60.059,-17.578,-37.109,-44.922,-186.035
1689275099.253,-56.641,-20.508,-35.645,-48.340,-125.488
1689275099.256,-40.039,-22.461,-37.109,-68.848,-133.789
1689275099.260,-40.039,-23.926,-36.621,-48.828,-123.535
1689275099.264,-43.457,-23.926,-36.621,-34.668,-55.664
1689275099.268,-31.250,-25.879,-38.086,-49.316,-33.203
1689275099.272,-41.992,-25.391,-37.598,-50.781,-77.148
1689275099.276,-59.570,-21.484,-40.039,-41.992,-73.730
1689275099.280,-53.223,-24.902,-41.016,-52.246,-91.309
1689275099.283,-45.410,-29.785,-42.480,-73.242,254.883
1689275099.287,-36.621,-30.273,-42.480,-55.664,449.219
1689275099.291,-32.227,-22.949,-36.621,-54.688,-152.832
1689275099.295,-30.273,-20.996,-30.762,-53.711,-321.289
1689275099.299,-36.621,-22.949,-29.785,-21.973,-180.176
1689275099.315,-41.016,-24.414,-29.785,-14.160,-199.707
1689275099.319,-22.461,-24.414,-28.809,-18.555,-211.426
1689275099.323,-24.414,-21.973,-30.762,-30.762,-107.910
1689275099.327,-30.273,-24.902,-31.738,-45.410,-48.828
1689275099.331,-31.738,-25.391,-29.297,-36.621,-61.523
1689275099.335,-40.039,-24.414,-30.762,-29.785,27.344
1689275099.339,-32.715,-27.832,-33.203,-23.438,196.777
1689275099.342,-22.461,-29.785,-31.738,-17.090,406.738
1689275099.346,-25.391,-22.461,-32.715,-34.180,80.566
1689275099.350,-29.785,-15.625,-32.227,-48.340,-257.812
1689275099.354,-27.832,-21.973,-33.691,-38.574,-177.246
1689275099.358,-32.715,-24.414,-32.715,-30.762,-137.207
1689275099.346,-31.738,-22.949,-33.691,-31.250,-159.180
1689275099.350,-31.738,-28.809,-34.668,-27.832,-168.945
1689275099.354,-41.504,-28.809,-33.203,-34.180,-175.781
1689275099.358,-37.598,-26.855,-34.668,-39.551,-127.930
1689275099.362,-33.203,-24.414,-32.715,-32.715,-61.035
1689275099.366,-43.945,-26.855,-30.762,-46.875,59.082
1689275099.370,-46.875,-29.297,-29.297,-65.430,91.309
1689275099.373,-43.457,-31.250,-30.273,-53.711,-47.852
1689275099.377,-39.551,-33.203,-30.762,-36.621,-96.680
1689275099.381,-40.039,-31.250,-32.715,-35.156,-120.117
1689275099.385,-50.293,-21.484,-29.297,-32.227,136.230
1689275099.389,-54.688,-16.113,-26.855,-30.762,354.980
1689275099.391,-46.387,-16.602,-25.879,-55.664,2.441
1689275099.395,-41.504,-19.531,-25.879,-49.805,-150.391
1689275099.399,-41.992,-24.902,-28.809,-40.527,-62.012
1689275099.403,-38.086,-25.391,-29.785,-43.457,-129.883
1689275099.407,-38.574,-23.438,-30.762,-41.992,-222.168
1689275099.411,-52.734,-26.855,-33.203,-36.621,-34.180
1689275099.415,-50.781,-32.715,-29.297,-30.762,115.723
1689275099.418,-45.410,-31.738,-27.344,-38.086,-26.855
1689275099.422,-41.016,-27.832,-27.344,-34.668,-132.324
1689275099.426,-22.461,-24.414,-25.391,-17.090,62.988
1689275099.430,-40.527,-22.461,-27.344,-26.367,261.230
1689275099.434,-55.176,-21.484,-28.809,-48.340,-60.547
1689275099.451,-45.410,-21.484,-26.367,-44.922,-206.055
1689275099.455,-40.527,-25.879,-27.832,-37.598,-125.977
1689275099.459,-44.922,-25.879,-28.320,-34.180,-126.953
1689275099.463,-47.852,-27.344,-24.414,-28.320,-178.711
1689275099.467,-41.992,-29.297,-26.855,-29.785,-146.484
1689275099.471,-40.527,-23.438,-32.715,-39.551,95.703
1689275099.475,-45.410,-20.020,-29.785,-41.992,93.750
1689275099.478,-49.805,-19.043,-26.367,-33.203,-112.305
1689275099.482,-30.762,-19.043,-27.832,-28.809,-154.785
1689275099.486,-29.297,-17.090,-31.738,-45.410,149.902
1689275099.490,-45.410,-16.113,-32.715,-44.434,230.957
1689275099.494,-45.410,-21.484,-34.180,-34.180,-87.402
1689275099.496,-45.898,-22.461,-33.691,-30.762,-59.570
1689275099.500,-40.039,-20.996,-30.273,-25.879,-18.555
1689275099.504,-27.344,-22.461,-26.855,-39.062,-116.211
1689275099.508,-33.691,-27.832,-29.297,-34.180,-190.430
1689275099.512,-31.250,-28.809,-35.156,-25.879,-117.188
1689275099.516,-37.598,-28.320,-33.691,-43.945,23.926
1689275099.520,-45.410,-26.367,-30.762,-39.551,25.391
1689275099.523,-35.645,-26.367,-32.227,-24.902,-165.527
1689275099.527,-37.598,-27.344,-32.227,-20.508,-84.961
1689275099.531,-33.203,-22.949,-32.227,-31.738,203.613
1689275099.535,-17.090,-20.020,-28.320,-27.344,-9.277
1689275099.539,-6.836,-23.926,-29.297,-20.508,-175.293
1689275099.541,-2.441,-30.762,-35.156,-13.184,-137.207
1689275099.545,-7.812,-26.855,-35.645,5.859,-73.730
1689275099.549,-40.039,-19.043,-32.227,-7.812,-28.320
1689275099.553,-52.246,-19.531,-35.156,-33.203,-92.773
1689275099.557,-14.648,-21.973,-41.016,-29.785,-18.555
1689275099.561,0.000,-22.461,-40.039,-16.113,14.648
1689275099.565,1.465,-20.508,-40.527,-13.672,9.766
1689275099.568,11.719,-14.648,-46.875,-6.348,37.109
1689275099.572,32.715,-13.184,-50.781,23.438,235.840
1689275099.576,33.691,-23.926,-43.945,28.809,327.148
1689275099.580,25.391,-23.926,-36.621,22.949,-108.887
1689275099.584,33.691,-20.508,-40.527,21.484,-214.844
1689275099.585,35.645,-27.344,-39.551,11.230,-89.844
1689275099.589,51.270,-25.879,-44.434,14.160,-123.535
1689275099.593,47.852,-20.020,-47.852,26.855,-138.672
1689275099.597,21.484,-19.043,-43.457,45.410,-94.727
1689275099.601,33.691,-18.066,-47.363,37.598,-101.562
1689275099.605,44.434,-18.066,-44.434,26.855,-21.484
1689275099.609,40.039,-25.391,-38.574,37.109,2.441
1689275099.612,42.480,-31.250,-41.992,41.504,59.570
1689275099.616,46.875,-26.367,-40.527,48.828,313.965
1689275099.620,57.129,-22.461,-37.598,60.059,115.723
1689275099.624,60.547,-25.879,-38.086,62.988,-154.297
1689275099.628,60.547,-27.832,-30.762,74.707,-112.793
1689275099.630,54.199,-23.926,-30.762,83.496,-133.301
1689275099.634,48.340,-23.926,-37.109,67.871,-252.930
1689275099.638,53.223,-22.461,-34.668,42.480,-218.750
1689275099.642,46.387,-20.020,-36.133,19.531,-104.004
1689275099.646,28.320,-24.414,-38.574,31.250,-85.938
1689275099.650,28.809,-29.785,-34.668,55.176,-16.602
1689275099.654,33.691,-31.738,-36.133,66.406,-13.184
1689275099.657,27.832,-29.297,-34.180,63.965,214.355
1689275099.661,16.113,-31.250,-32.715,44.922,403.809
1689275099.665,15.625,-31.250,-35.645,26.855,-32.227
1689275099.669,11.230,-30.273,-38.574,19.531,-194.824
1689275099.673,13.184,-34.180,-36.133,25.879,78.613
1689275099.675,12.695,-30.762,-30.273,29.297,-56.641
1689275099.679,11.230,-27.344,-31.250,33.691,-275.391
1689275099.683,6.836,-28.320,-32.715,22.461,-182.129
1689275099.687,7.324,-24.414,-28.809,7.324,-136.230
1689275099.691,14.648,-22.949,-29.297,1.953,-181.152
1689275099.695,16.602,-19.531,-31.738,-2.441,-154.785
1689275099.699,6.348,-20.996,-34.668,-3.418,87.402
1689275099.702,-8.789,-28.320,-34.180,1.953,255.859
1689275099.706,-12.207,-29.297,-31.738,-4.883,-23.926
1689275099.710,-15.137,-22.461,-27.832,-24.902,-161.133
1689275099.714,-16.113,-20.996,-26.855,-24.414,10.742
1689275099.718,-16.113,-25.879,-28.320,-9.766,-20.508
1689275099.721,-14.160,-24.414,-27.832,0.000,-175.781
1689275099.725,-18.555,-22.949,-33.691,3.418,-145.508
1689275099.729,-33.691,-21.973,-31.250,-2.930,-75.195
1689275099.733,-37.598,-21.973,-26.367,-11.719,-69.336
1689275099.737,-36.133,-23.926,-29.785,-20.996,-129.395
1689275099.741,-43.457,-25.879,-30.762,-22.461,-55.664
1689275099.745,-47.852,-28.320,-32.715,-20.508,296.875
1689275099.748,-40.039,-28.320,-32.227,-34.180,265.625
1689275099.752,-34.180,-24.902,-29.297,-40.527,-136.230
1689275099.756,-29.297,-25.391,-30.273,-29.785,-147.949
1689275099.760,-33.691,-27.344,-28.809,-23.438,39.062
1689275099.764,-27.344,-23.438,-27.832,-23.438,20.996
1689275099.780,-20.508,-20.996,-28.809,-34.180,-107.422
1689275099.784,-36.621,-25.879,-32.227,-23.438,-123.047
1689275099.788,-44.434,-29.297,-33.203,-19.043,-30.273
1689275099.792,-39.062,-30.273,-29.297,-24.414,-97.168
1689275099.796,-30.762,-27.832,-26.855,-14.648,-169.922
1689275099.800,-23.438,-19.531,-26.367,-28.320,36.621
1689275099.804,-38.086,-21.973,-25.879,-53.223,211.426
1689275099.807,-46.387,-29.785,-26.367,-26.855,-55.664
1689275099.811,-37.109,-29.785,-24.414,-12.207,-190.430
1689275099.815,-34.668,-33.691,-29.297,-41.992,-21.973
1689275099.819,-35.156,-31.250,-34.180,-49.805,15.625
1689275099.823,-33.203,-23.926,-31.250,-37.598,-153.809
1689275099.841,-16.602,-25.391,-33.203,-31.250,-164.062
1689275099.845,-32.715,-28.320,-34.180,-37.109,-99.609
1689275099.849,-43.945,-27.344,-28.320,-24.902,-22.461
1689275099.853,-30.762,-26.367,-28.809,-15.625,-14.160
1689275099.857,-30.762,-28.320,-34.180,-39.062,-71.289
1689275099.861,-29.297,-31.738,-34.668,-54.199,109.375
1689275099.865,-34.668,-31.738,-31.738,-42.480,157.227
1689275099.868,-27.344,-30.273,-28.320,-20.996,4.395
1689275099.872,-28.320,-31.250,-31.250,-6.348,-153.320
1689275099.876,-36.133,-29.785,-32.715,2.930,104.492
1689275099.880,-31.250,-28.320,-29.785,-17.578,300.293
1689275099.884,-29.785,-26.367,-29.785,-44.922,-117.676
1689275099.885,-30.762,-27.832,-28.809,-43.457,-152.832
1689275099.889,-29.297,-26.855,-35.156,-39.551,-53.223
1689275099.893,-21.973,-24.414,-36.133,-39.551,-134.766
1689275099.897,-18.066,-24.414,-33.691,-36.621,-178.711
1689275099.901,-20.996,-19.531,-31.250,-41.992,-97.656
1689275099.905,-30.273,-21.484,-25.879,-36.133,-2.930
1689275099.909,-20.020,-23.926,-26.367,-34.668,17.090
1689275099.912,-21.973,-26.855,-30.273,-33.203,-17.090
1689275099.916,-27.832,-27.344,-26.367,-15.137,39.551
1689275099.920,-16.113,-22.461,-24.902,2.441,-12.207
1689275099.924,-17.090,-22.461,-27.344,4.883,-114.258
1689275099.928,-19.531,-24.902,-26.855,-19.043,-155.273
1689275099.915,-20.020,-28.320,-30.273,-37.598,17.090
1689275099.919,-33.203,-31.250,-31.738,-33.691,201.172
1689275099.923,-39.062,-34.668,-30.273,-18.066,-94.238
1689275099.927,-36.133,-34.180,-27.832,-17.578,-209.473
1689275099.931,-32.715,-34.180,-30.762,-19.531,-72.754
1689275099.935,-26.855,-35.645,-36.621,-24.902,10.742
1689275099.939,-20.508,-33.203,-34.180,-22.461,-24.902
1689275099.942,-37.109,-32.227,-30.762,-26.367,14.648
1689275099.946,-41.992,-31.738,-29.785,-46.875,97.656
1689275099.950,-30.273,-34.180,-32.715,-44.434,-42.480
1689275099.954,-38.086,-34.180,-32.227,-32.715,-195.312
1689275099.958,-50.293,-29.785,-26.367,-36.621,-233.887
1689275099.960,-38.086,-27.832,-26.855,-23.438,106.934
1689275099.964,-27.832,-27.832,-31.250,-17.578,339.355
1689275099.968,-38.086,-27.344,-27.832,-35.645,-54.199
1689275099.972,-37.598,-24.902,-25.391,-37.598,-187.012
1689275099.976,-38.086,-24.902,-32.715,-23.438,-120.605
1689275099.980,-26.367,-29.297,-34.668,-23.438,-104.004
1689275099.984,-26.367,-28.320,-32.227,-34.180,-82.031
1689275099.987,-48.828,-24.902,-34.180,-30.273,66.406
1689275099.991,-44.434,-30.273,-34.180,-25.391,159.668
1689275099.995,-37.109,-32.715,-31.250,-32.227,-87.402
1689275099.999,-38.574,-27.344,-26.855,-26.855,-179.688
1689275100.003,-41.504,-26.855,-26.367,-17.578,-4.395
1689275100.005,-36.133,-24.902,-31.250,-27.344,20.996
1689275100.009,-32.227,-24.414,-29.297,-39.551,-135.254
1689275100.013,-40.527,-27.344,-30.762,-44.434,-165.039
1689275100.017,-30.762,-22.949,-31.738,-37.598,-102.051
1689275100.021,-14.648,-24.902,-20.508,-1.953,-47.852
1689275100.025,-24.414,-24.902,-14.648,2.930,-31.738
1689275100.029,-57.617,-17.090,-12.207,-41.992,15.137
1689275100.032,-66.895,-16.113,-5.859,-49.316,286.133
1689275100.036,-68.359,-9.766,-11.719,-49.316,356.445
1689275100.040,-91.309,-2.930,-5.859,-86.426,-101.562
1689275100.044,-108.398,-7.324,-3.906,-123.047,-216.797
1689275100.048,-127.930,-1.465,-9.766,-146.973,-115.234
1689275100.051,-156.738,6.348,0.000,-169.922,-158.203
1689275100.055,-193.359,9.277,8.301,-193.848,-241.211
1689275100.059,-226.074,9.766,6.836,-225.098,-101.562
1689275100.063,-263.184,10.254,12.207,-245.605,78.125
1689275100.067,-293.945,19.531,12.695,-281.738,-58.105
1689275100.071,-300.293,20.996,11.230,-322.266,-81.055
1689275100.075,-308.105,18.555,21.484,-329.102,106.445
1689275100.078,-307.617,23.926,24.414,-320.312,270.996
1689275100.082,-312.988,33.203,16.113,-339.844,0.000
1689275100.086,-311.035,32.227,14.160,-351.562,-215.332
1689275100.090,-298.828,31.250,11.230,-338.379,-171.387
1689275100.094,-296.875,36.133,6.836,-329.102,-160.156
1689275100.095,-280.762,26.367,6.348,-324.219,-213.867
1689275100.099,-277.832,18.555,6.348,-320.312,-208.496
1689275100.103,-270.996,19.043,0.977,-310.547,-102.051
1689275100.107,-250.488,16.113,-7.812,-278.320,-54.688
1689275100.111,-243.164,8.301,-3.418,-264.160,-138.184
1689275100.115,-228.516,2.930,-2.930,-247.559,-176.270
1689275100.119,-206.055,-0.977,-14.648,-230.957,148.926
1689275100.122,-178.711,-4.883,-18.066,-220.215,457.031
1689275100.126,-147.949,-3.906,-21.973,-205.078,65.918
1689275100.130,-136.719,-8.301,-30.762,-188.965,-192.383
1689275100.134,-129.883,-17.090,-35.156,-165.527,-47.363
1689275100.138,-120.605,-19.531,-39.062,-145.996,-82.031
1689275100.140,-103.516,-20.508,-46.875,-125.977,-175.293
1689275100.144,-83.008,-24.902,-51.758,-104.492,-82.520
1689275100.148,-83.008,-29.297,-45.898,-92.285,-37.109
1689275100.152,-64.941,-33.691,-46.875,-83.984,-121.582
1689275100.156,-43.457,-32.227,-49.316,-60.059,-140.625
1689275100.160,-35.645,-33.691,-51.270,-26.367,125.488
1689275100.164,-14.160,-39.551,-61.035,-34.668,245.605
1689275100.167,0.000,-44.434,-63.965,-45.410,37.109
1689275100.171,3.418,-42.969,-62.012,-25.391,-95.703
1689275100.175,18.066,-39.551,-63.477,6.348,31.738
1689275100.179,26.367,-46.387,-62.012,24.902,203.613
1689275100.183,23.438,-52.246,-59.570,11.719,-66.895
1689275100.200,23.438,-54.199,-59.570,2.930,-191.895
1689275100.204,33.691,-52.734,-58.105,15.137,-132.812
1689275100.208,37.109,-49.805,-56.641,42.969,-120.117
1689275100.212,43.457,-47.363,-50.781,58.105,-121.094
1689275100.216,40.039,-47.852,-49.316,47.363,-124.512
1689275100.220,21.973,-47.852,-50.293,25.391,-40.527
1689275100.224,36.133,-45.410,-44.434,22.949,11.719
1689275100.227,45.898,-42.480,-41.016,56.152,-32.715
1689275100.231,40.527,-46.387,-44.922,55.664,-55.176
1689275100.235,38.086,-46.875,-46.387,46.387,188.965
1689275100.239,33.203,-47.363,-46.387,45.898,359.863
1689275100.243,38.574,-47.852,-45.410,25.391,-50.293
1689275100.246,29.785,-43.945,-36.621,29.785,-183.594
1689275100.250,18.555,-43.457,-36.133,23.926,-24.902
1689275100.254,30.762,-42.480,-39.551,34.668,-96.680
1689275100.258,27.832,-39.062,-41.016,41.992,-155.762
1689275100.262,25.391,-38.574,-43.457,39.062,-113.281
1689275100.266,26.367,-39.551,-37.598,30.762,7.812
1689275100.270,23.926,-37.598,-33.203,7.812,75.684
1689275100.273,17.090,-36.621,-31.250,14.648,-55.664
1689275100.277,3.418,-35.156,-26.367,22.461,-7.812
1689275100.281,0.977,-39.062,-29.297,9.766,153.320
1689275100.285,-2.930,-38.086,-33.203,4.883,-11.719
1689275100.289,-9.766,-35.156,-31.738,11.230,-124.023
1689275100.306,7.812,-36.133,-31.250,20.996,1.465
1689275100.310,13.184,-34.180,-31.738,21.973,0.977
1689275100.314,-14.160,-36.621,-34.180,7.324,-167.969
1689275100.318,-25.391,-40.527,-33.691,-7.324,-163.574
1689275100.322,-16.113,-39.062,-32.227,-17.090,-72.266
1689275100.326,-9.277,-33.691,-38.086,-24.414,10.742
1689275100.330,-2.930,-33.691,-33.203,-14.648,0.977
1689275100.333,-2.441,-29.297,-22.461,11.230,-60.059
1689275100.337,-16.113,-30.273,-24.902,12.695,232.422
1689275100.341,-16.113,-31.250,-28.320,9.277,380.371
1689275100.345,-8.789,-25.391,-27.344,4.395,-36.133
1689275100.349,-9.277,-24.902,-28.320,-17.578,-161.621
1689275100.336,-5.371,-22.461,-29.297,-18.555,-66.406
1689275100.340,-16.602,-24.902,-30.762,-23.438,-125.977
1689275100.344,-17.578,-33.691,-31.250,-30.273,-257.324
1689275100.348,-10.742,-33.691,-29.785,-14.648,-119.629
1689275100.352,-21.484,-30.273,-26.855,-5.371,24.902
1689275100.356,-19.043,-32.715,-25.879,-1.953,-119.629
1689275100.360,-15.625,-34.668,-32.227,-0.488,-71.289
1689275100.363,0.000,-24.414,-35.156,13.672,87.891
1689275100.367,-15.137,-18.066,-25.879,-10.742,11.719
1689275100.371,-60.059,-22.461,-22.461,-69.336,-107.422
1689275100.375,-53.711,-28.809,-30.273,-66.406,-178.711
1689275100.379,-30.273,-29.785,-27.832,-37.598,15.137
1689275100.380,-50.293,-22.949,-23.926,-51.270,273.926
1689275100.384,-70.312,-16.602,-35.156,-73.242,19.043
1689275100.388,-56.641,-19.043,-38.086,-58.594,-117.676
1689275100.392,-38.574,-27.344,-35.156,-43.945,-35.156
1689275100.396,-44.922,-31.738,-34.668,-43.945,-96.680
1689275100.400,-51.758,-30.762,-33.691,-39.551,-111.328
1689275100.404,-55.664,-28.809,-33.691,-34.668,-86.426
1689275100.407,-53.711,-27.832,-32.227,-36.621,206.055
1689275100.411,-43.945,-27.344,-30.273,-30.273,405.273
1689275100.415,-35.156,-25.879,-25.879,-26.367,-33.203
1689275100.419,-33.203,-23.926,-25.391,-20.996,-203.125
1689275100.423,-25.879,-27.344,-29.785,-18.555,-149.414
1689275100.426,-16.113,-29.785,-31.738,-17.578,-175.781
1689275100.430,-31.738,-35.645,-30.762,-16.602,-202.637
1689275100.434,-47.363,-37.598,-32.715,-29.297,-120.117
1689275100.438,-43.457,-30.762,-30.762,-30.273,-72.266
1689275100.442,-31.738,-27.344,-26.367,-14.648,-93.750
1689275100.446,-18.555,-26.855,-27.832,-7.812,-32.227
1689275100.450,-17.578,-26.855,-28.809,-26.855,89.355
1689275100.453,-41.992,-26.367,-30.762,-33.203,307.617
1689275100.457,-41.992,-28.320,-30.273,-11.719,15.625
1689275100.461,-31.738,-30.762,-27.344,-5.859,-229.980
1689275100.465,-36.621,-31.738,-27.832,-13.672,-41.992
1689275100.469,-41.016,-29.297,-28.809,-7.324,-51.270
1689275100.470,-25.879,-26.855,-25.391,-7.324,-163.574
1689275100.474,-13.184,-29.297,-24.902,-20.508,-174.805
1689275100.478,-29.785,-27.832,-31.250,-31.738,-87.891
1689275100.482,-36.621,-25.391,-40.527,-35.156,-42.969
1689275100.486,-21.484,-26.855,-38.086,-22.949,-85.449
1689275100.490,-14.648,-21.973,-32.715,-15.137,-61.523
1689275100.494,-14.160,-19.043,-33.691,-9.277,167.480
1689275100.497,-21.484,-27.344,-32.715,-3.906,262.207
1689275100.501,-30.273,-32.715,-34.668,-12.695,34.180
1689275100.505,-27.832,-30.762,-32.227,-12.695,-96.680
1689275100.509,-30.762,-28.320,-26.367,-29.297,131.348
1689275100.513,-36.621,-27.344,-28.809,-29.785,160.645
1689275100.516,-22.949,-23.926,-25.391,-3.418,-212.402
1689275100.520,-21.973,-24.414,-26.367,-15.625,-155.762
1689275100.524,-14.648,-25.391,-29.297,-26.855,-70.312
1689275100.528,-8.789,-26.855,-25.391,-20.020,-186.523
1689275100.532,-30.273,-29.785,-28.809,-19.043,-255.371
1689275100.536,-33.203,-28.809,-28.320,-17.578,72.754
1689275100.540,-32.715,-30.273,-23.438,-33.203,309.570
1689275100.543,-32.715,-31.738,-21.973,-35.156,30.762
1689275100.547,-30.273,-28.320,-20.020,-18.066,-170.898
1689275100.551,-23.926,-28.320,-17.578,-14.160,-78.613
1689275100.555,-9.277,-39.062,-19.043,1.465,-16.113
1689275100.559,-16.113,-27.344,-26.367,-5.371,-87.891
1689275100.575,-46.387,-7.324,-33.203,-46.875,-143.066
1689275100.579,-47.852,-13.672,-36.133,-57.129,-79.590
1689275100.583,-45.410,-14.160,-33.203,-34.668,-45.898
1689275100.587,-48.828,-9.277,-33.691,-25.391,-183.594
1689275100.591,-44.434,-8.301,-39.062,-44.922,-160.645
1689275100.595,-35.645,-5.859,-42.480,-54.199,14.160
1689275100.599,-31.738,-8.789,-46.387,-63.965,12.695
1689275100.602,-56.152,-9.277,-48.828,-69.824,-50.781
1689275100.606,-59.570,-13.672,-44.922,-50.293,-132.324
1689275100.610,-37.109,-20.020,-39.551,-43.945,148.926
1689275100.614,-33.691,-24.902,-41.504,-50.293,346.191
1689275100.618,-38.574,-21.973,-41.992,-54.688,-76.660
1689275100.620,-43.457,-15.137,-38.086,-43.945,-158.203
1689275100.624,-41.016,-19.043,-34.180,-28.809,-22.949
1689275100.628,-33.203,-22.949,-31.738,-23.926,-77.148
1689275100.632,-27.832,-25.391,-31.738,-49.805,-197.754
1689275100.636,-19.043,-27.344,-35.645,-53.223,-79.590
1689275100.640,-26.855,-27.832,-37.598,-32.715,117.188
1689275100.644,-34.180,-28.320,-35.645,-24.414,121.094
1689275100.647,-14.160,-30.762,-36.621,-22.461,-33.203
1689275100.651,-9.766,-32.227,-33.203,-22.461,14.648
1689275100.655,-40.527,-30.762,-33.691,-36.621,218.262
1689275100.659,-49.316,-32.227,-39.551,-43.945,-61.523
1689275100.663,-36.133,-41.016,-38.086,-20.508,-227.051
1689275100.665,-19.043,-39.062,-34.668,-5.371,-110.840
1689275100.669,-7.324,-33.203,-33.691,-24.414,-78.613
1689275100.673,-4.395,-33.203,-33.203,-33.203,-177.734
1689275100.677,-16.602,-33.203,-34.180,-16.113,-157.715
1689275100.681,-32.715,-30.762,-35.645,-12.207,56.641
1689275100.685,-27.832,-26.367,-33.691,-20.996,63.965
1689275100.689,-25.879,-25.391,-33.691,-21.484,-10.254
1689275100.692,-30.762,-27.344,-31.738,-20.508,-57.129
1689275100.696,-22.461,-31.250,-30.273,-17.578,124.512
1689275100.700,-21.484,-30.762,-33.203,-15.625,259.766
1689275100.704,-23.438,-31.738,-34.668,-27.832,-122.070
1689275100.708,-20.508,-34.668,-27.344,-33.691,-133.301
1689275100.710,-40.527,-33.203,-23.438,-18.555,-35.645
1689275100.714,-51.758,-32.227,-26.855,-17.090,-144.043
1689275100.718,-45.898,-31.738,-33.203,-40.527,-202.637
1689275100.722,-35.645,-31.250,-29.785,-47.852,-134.766
1689275100.726,-27.344,-30.273,-28.320,-38.086,-33.691
1689275100.730,-23.438,-28.809,-30.762,-44.922,-32.715
1689275100.734,-23.438,-31.738,-30.273,-51.758,-96.680
1689275100.737,-35.645,-32.715,-36.133,-43.945,19.043
1689275100.741,-46.387,-31.738,-34.668,-29.297,379.883
1689275100.745,-27.832,-29.297,-28.320,-18.555,152.832
1689275100.749,-27.832,-27.832,-29.297,-28.320,-155.273
1689275100.753,-36.133,-27.832,-30.762,-30.762,-83.496
1689275100.755,-28.809,-25.879,-30.762,-21.484,-128.906
1689275100.759,-32.227,-25.879,-29.785,-31.738,-198.730
1689275100.763,-52.734,-27.832,-30.273,-36.621,-153.320
1689275100.767,-58.594,-30.762,-30.273,-38.574,-91.309
1689275100.771,-46.875,-30.273,-29.785,-40.527,-83.496
1689275100.775,-34.668,-27.344,-30.273,-35.156,0.488
1689275100.779,-28.320,-27.344,-30.273,-16.113,0.000
1689275100.782,-23.438,-28.809,-30.273,-9.277,203.125
1689275100.786,-20.020,-30.273,-32.227,-22.949,516.113
1689275100.790,-29.297,-27.832,-36.133,-28.809,93.262
1689275100.794,-27.344,-24.414,-34.180,-36.133,-277.832
1689275100.798,-32.227,-24.414,-28.320,-38.574,-132.812
1689275100.800,-44.922,-24.902,-30.762,-32.715,-149.902
1689275100.804,-43.945,-26.855,-29.297,-22.949,-203.613
1689275100.808,-36.621,-29.297,-28.320,-31.250,-119.629
1689275100.812,-31.250,-25.879,-32.715,-31.738,-99.609
1689275100.816,-25.391,-23.438,-38.086,-20.996,-184.570
1689275100.820,-25.391,-25.391,-36.133,-17.578,-142.090
1689275100.824,-34.668,-24.902,-31.738,-33.691,38.086
1689275100.827,-42.969,-26.855,-32.227,-34.668,208.496
1689275100.831,-47.363,-27.832,-33.691,-27.344,-47.852
1689275100.835,-41.016,-25.879,-34.180,-51.270,-249.023
1689275100.839,-38.574,-25.879,-34.668,-40.039,-132.324
1689275100.843,-45.410,-25.879,-31.250,-33.203,-31.738
1689275100.846,-26.367,-21.484,-26.367,-12.695,-88.867
1689275100.850,-27.832,-26.855,-30.273,5.371,-119.141
1689275100.854,-36.621,-31.738,-33.691,-25.879,-11.719
1689275100.858,-21.484,-26.367,-36.133,-35.645,15.137
1689275100.862,-22.949,-24.902,-35.645,-33.691,-113.281
1689275100.866,-25.879,-28.809,-28.809,-32.227,-92.773
1689275100.870,-41.504,-31.250,-30.762,-31.738,274.902
1689275100.873,-37.109,-33.203,-33.203,-24.414,321.777
1689275100.877,-30.273,-37.109,-33.203,-32.227,-25.391
1689275100.881,-32.715,-38.086,-32.227,-57.617,-94.238
1689275100.885,-42.969,-34.180,-30.762,-47.852,26.855
1689275100.889,-59.570,-32.715,-33.203,-27.832,-8.301
1689275100.891,-48.828,-29.297,-36.133,-39.062,-170.898
1689275100.895,-33.203,-29.297,-34.180,-19.531,-82.031
1689275100.899,-25.391,-30.273,-33.203,-11.230,19.531
1689275100.903,-30.762,-21.484,-37.598,-47.363,-122.070
1689275100.907,-38.086,-19.043,-35.156,-53.711,-196.289
1689275100.911,-36.133,-23.926,-28.809,-45.410,-34.180
1689275100.915,-40.527,-42.480,-28.809,-46.387,214.355
1689275100.918,-44.434,-41.992,-27.832,-39.062,71.289
1689275100.922,-34.668,-26.367,-28.320,-22.461,-113.770
1689275100.926,-31.738,-24.414,-32.227,-24.902,27.832
1689275100.930,-41.016,-25.879,-34.668,-40.527,4.395
1689275100.934,-39.062,-24.902,-34.668,-37.598,-172.852
1689275100.950,-41.504,-22.949,-31.738,-33.203,-144.531
1689275100.954,-38.574,-20.020,-31.250,-51.758,-111.816
1689275100.958,-32.227,-18.555,-29.785,-56.152,-163.574
1689275100.962,-36.621,-14.160,-27.832,-44.434,-236.816
1689275100.966,-22.949,-16.113,-30.762,-46.387,-184.570
1689275100.970,-20.020,-24.414,-34.668,-42.969,206.543
1689275100.974,-43.945,-23.926,-31.738,-41.992,252.441
1689275100.977,-50.781,-22.949,-32.227,-37.109,-95.215
1689275100.981,-46.875,-24.414,-31.738,-26.367,-181.152
1689275100.985,-38.574,-26.367,-33.691,-30.762,95.215
1689275100.989,-25.879,-24.414,-29.297,-15.137,129.395
1689275100.993,-27.344,-26.855,-25.879,-3.418,-195.312
1689275100.995,-24.414,-27.832,-32.227,-22.461,-167.969
1689275100.999,-30.273,-31.250,-27.344,-39.551,-138.672
1689275101.003,-31.250,-27.344,-24.414,-26.855,-174.805
1689275101.007,-26.367,-20.996,-27.344,-14.648,-218.262
1689275101.011,-39.062,-25.879,-28.320,-30.273,-75.684
1689275101.015,-44.434,-28.320,-32.715,-41.504,68.848
1689275101.019,-37.109,-26.367,-33.203,-33.691,-51.758
1689275101.022,-32.227,-21.484,-31.250,-30.273,-125.977
1689275101.026,-27.344,-21.973,-24.902,-30.762,4.395
1689275101.030,-27.832,-22.461,-23.438,-16.113,311.035
1689275101.034,-30.762,-22.949,-27.344,-27.832,85.449
1689275101.038,-30.762,-25.391,-28.809,-43.457,-254.883
1689275101.041,-27.344,-22.949,-27.344,-30.273,-179.688
1689275101.045,-20.996,-20.508,-22.461,-16.602,-130.371
1689275101.049,-23.926,-27.344,-29.297,-10.742,-187.988
1689275101.053,-21.484,-28.809,-33.691,-30.762,-148.926
1689275101.057,-18.066,-25.391,-33.691,-30.762,-116.211
1689275101.061,-5.859,-29.785,-33.203,-12.207,-6.348
1689275101.065,-15.625,-32.715,-32.227,-30.762,57.129
1689275101.068,-44.922,-31.738,-36.133,-35.645,-59.570
1689275101.072,-41.016,-29.785,-38.574,-20.508,215.820
1689275101.076,-22.461,-24.414,-44.922,-3.906,548.340
1689275101.080,-21.973,-24.902,-40.039,6.348,121.094
1689275101.084,-43.457,-31.250,-22.461,-19.043,-148.438
1689275101.085,-49.316,-36.133,-17.578,-37.598,-17.578
1689275101.089,-34.668,-35.645,-20.020,-21.484,-123.047
1689275101.093,-28.809,-33.203,-27.832,-15.625,-223.633
1689275101.097,-30.273,-32.227,-27.344,-26.855,-165.527
1689275101.101,-28.320,-35.156,-24.414,-27.344,-93.750
1689275101.105,-42.480,-41.992,-28.320,-28.809,-10.742
1689275101.109,-43.945,-45.898,-26.855,-28.809,50.781
1689275101.112,-38.574,-41.992,-25.391,-18.066,157.227
1689275101.116,-46.875,-36.133,-26.855,-15.625,261.230
1689275101.120,-27.344,-34.180,-26.855,-8.301,-7.324
1689275101.124,-19.531,-31.738,-25.879,-11.719,-130.859
1689275101.128,-32.715,-35.645,-27.832,-9.766,43.945
1689275101.130,-33.691,-37.109,-26.367,-4.395,22.949
1689275101.134,-25.391,-33.691,-27.344,-11.230,-140.137
1689275101.138,-22.949,-33.203,-29.297,-5.371,-99.609
1689275101.142,-17.578,-29.297,-25.391,-4.883,-8.789
1689275101.146,-14.648,-27.832,-26.855,-16.602,-26.367
1689275101.150,-26.367,-27.344,-27.832,-33.203,-0.488
1689275101.154,-30.762,-28.809,-29.785,-18.555,-20.020
1689275101.157,-20.996,-30.762,-29.785,21.973,197.754
1689275101.161,-6.836,-24.902,-23.438,31.738,377.930
1689275101.165,-20.020,-16.602,-22.461,15.137,-62.012
1689275101.169,-31.250,-17.578,-19.043,5.859,-204.102
1689275101.173,-27.344,-24.902,-20.020,-0.977,-121.582
1689275101.176,-28.320,-23.926,-28.320,-3.906,-194.336
1689275101.180,-21.973,-23.438,-34.180,-20.020,-191.406
1689275101.184,-19.043,-26.855,-31.250,-30.762,17.578
1689275101.188,-25.879,-26.367,-27.832,-24.414,77.148
1689275101.192,-27.832,-28.320,-30.762,-16.602,-123.047
1689275101.196,-24.414,-26.855,-33.203,-0.977,-140.625
1689275101.200,-24.414,-23.438,-28.320,2.441,113.281
1689275101.203,-26.855,-28.809,-23.438,-9.277,280.762
1689275101.207,-32.227,-30.762,-23.926,-24.414,-21.484
1689275101.211,-34.180,-23.438,-25.391,-32.715,-214.355
1689275101.215,-37.109,-21.973,-26.367,-26.855,-168.457
1689275101.219,-34.180,-23.926,-25.391,-15.625,-198.730
1689275101.220,-24.902,-27.344,-27.344,-32.227,-233.887
1689275101.224,-20.508,-26.855,-29.785,-35.156,-192.383
1689275101.228,-27.344,-27.344,-27.832,-22.461,-107.422
1689275101.232,-45.898,-32.227,-23.926,-30.762,-80.078
1689275101.236,-39.551,-29.297,-30.762,-30.762,-124.512
1689275101.240,-19.531,-29.785,-34.180,-19.043,-105.957
1689275101.244,-22.461,-27.344,-34.668,-5.371,217.285
1689275101.247,-34.180,-26.855,-37.598,3.906,509.277
1689275101.251,-40.527,-32.715,-34.668,-21.484,32.715
1689275101.255,-42.480,-34.180,-35.645,-37.598,-215.820
1689275101.259,-38.574,-28.320,-36.621,-22.461,-8.789
1689275101.263,-30.273,-31.250,-36.621,-23.926,-97.168
1689275101.266,-39.551,-38.086,-37.109,-26.855,-178.223
1689275101.270,-56.641,-38.086,-41.016,-35.156,-84.473
1689275101.274,-54.688,-36.621,-39.062,-55.176,-28.809
1689275101.278,-54.199,-33.691,-34.180,-47.852,-119.141
1689275101.282,-55.664,-31.738,-34.668,-45.410,-160.645
1689275101.286,-42.480,-32.715,-34.668,-53.711,69.336
1689275101.290,-38.574,-29.785,-36.621,-45.410,217.773
1689275101.293,-41.504,-24.902,-35.645,-42.480,62.012
1689275101.297,-41.504,-29.785,-40.039,-52.734,-99.609
1689275101.301,-41.016,-33.691,-39.062,-41.016,26.855
1689275101.305,-39.062,-24.902,-31.250,-23.926,187.012
1689275101.309,-43.457,-23.926,-32.227,-40.039,-88.379
1689275101.325,-49.316,-33.203,-31.250,-26.855,-153.320
1689275101.329,-41.016,-35.645,-29.297,-22.461,-103.027
1689275101.333,-37.109,-32.715,-30.762,-40.527,-94.238
1689275101.337,-39.551,-27.832,-33.691,-39.062,-157.715
1689275101.341,-36.621,-24.902,-33.203,-41.504,-203.125
1689275101.345,-35.156,-27.832,-29.297,-21.973,-36.133
1689275101.349,-37.109,-31.738,-31.738,-19.043,89.844
1689275101.352,-38.574,-32.227,-30.273,-21.973,77.148
1689275101.356,-48.340,-31.738,-29.785,-23.438,-21.973
1689275101.360,-42.480,-34.180,-30.273,-12.695,169.434
1689275101.364,-41.992,-38.574,-30.273,-0.977,423.828
1689275101.368,-56.152,-38.086,-32.227,-9.277,53.711
1689275101.370,-55.664,-35.645,-33.203,-4.883,-141.113
1689275101.374,-41.016,-31.738,-29.297,-4.395,-92.773
1689275101.378,-31.738,-27.832,-27.832,-6.836,-168.457
1689275101.382,-40.527,-34.180,-33.203,-13.672,-255.859
1689275101.386,-40.527,-35.156,-33.203,-0.488,-193.848
1689275101.390,-32.715,-33.203,-30.762,3.906,47.363
1689275101.394,-28.809,-35.156,-28.320,-0.488,46.387
1689275101.397,-34.668,-35.645,-31.738,6.836,-156.250
1689275101.401,-37.109,-36.621,-30.273,-5.859,-77.637
1689275101.405,-28.809,-29.297,-25.879,-11.719,213.867
1689275101.409,-29.297,-26.855,-27.344,-14.160,12.207
1689275101.413,-27.344,-26.855,-32.227,-6.348,-205.566
1689275101.415,-42.969,-27.832,-32.227,-7.812,0.977
1689275101.419,-37.598,-34.180,-30.273,-14.648,17.090
1689275101.423,-11.230,-29.297,-36.621,-1.465,-132.812
1689275101.427,-22.461,-25.391,-25.391,5.859,-91.309
1689275101.431,-39.551,-33.203,-15.137,-8.789,-28.320
1689275101.435,-48.340,-34.180,-10.742,-16.113,-1.465
1689275101.439,-61.035,-24.902,-4.395,-31.250,14.160
1689275101.442,-67.871,-25.879,-5.859,-38.086,-3.418
1689275101.446,-55.176,-35.645,-6.348,-25.391,229.980
1689275101.450,-60.547,-39.062,6.348,-35.645,401.367
1689275101.454,-88.867,-34.668,19.043,-53.711,-20.508
1689275101.458,-105.469,-33.203,19.531,-65.430,-171.387
1689275101.461,-113.770,-38.086,25.879,-77.637,-101.562
1689275101.465,-128.418,-33.203,20.508,-98.633,-144.531
1689275101.469,-150.391,-29.785,17.578,-129.395,-101.562
1689275101.473,-156.738,-25.879,22.461,-144.531,-80.566
1689275101.477,-153.320,-11.719,26.367,-141.113,-42.480
1689275101.481,-164.062,-10.742,28.809,-138.672,-94.727
1689275101.485,-167.480,-21.973,28.809,-140.137,-131.836
1689275101.488,-161.133,-26.855,29.785,-133.789,3.418
1689275101.492,-173.828,-18.066,15.137,-144.043,147.461
1689275101.496,-166.992,-8.789,-0.488,-169.434,-71.289
1689275101.500,-150.879,-10.742,-8.789,-154.785,-224.121
1689275101.504,-146.973,-13.184,-21.973,-133.789,-145.508
1689275101.505,-127.441,-14.160,-34.668,-138.672,-145.996
1689275101.509,-105.957,-12.207,-43.945,-134.766,-146.484
1689275101.513,-79.102,-10.254,-47.852,-117.676,-145.020
1689275101.517,-57.617,-12.695,-52.734,-81.543,-104.980
1689275101.521,-47.363,-12.207,-55.664,-59.570,-50.293
1689275101.525,-38.574,-8.789,-57.617,-57.129,-31.250
1689275101.529,-35.645,-9.766,-68.848,-39.551,-7.812
1689275101.532,-24.902,-14.648,-79.590,-40.527,235.840
1689275101.536,-10.254,-16.602,-82.520,-33.203,393.555
1689275101.540,2.441,-15.625,-78.613,-20.508,-9.766
1689275101.544,17.090,-11.719,-79.590,-5.859,-230.469
1689275101.548,32.715,-11.719,-76.660,10.742,-164.062
1689275101.550,38.574,-18.066,-71.777,9.766,-218.262
1689275101.554,30.273,-23.438,-71.289,15.137,-252.930
1689275101.558,40.039,-27.344,-64.453,21.973,-159.180
1689275101.562,44.434,-28.809,-62.500,20.020,-82.520
1689275101.566,28.809,-26.367,-63.965,23.926,-109.863
1689275101.570,30.762,-35.156,-62.500,26.855,-70.801
1689275101.574,31.738,-42.480,-62.500,25.391,87.402
1689275101.577,17.090,-38.574,-61.523,34.668,341.309
1689275101.581,19.531,-36.133,-52.734,27.344,89.355
1689275101.585,11.230,-36.621,-49.316,17.578,-198.242
1689275101.589,-0.977,-33.691,-51.758,14.160,-47.852
1689275101.593,8.789,-32.227,-53.223,17.090,-29.785
1689275101.595,19.531,-29.785,-46.387,33.691,-172.363
1689275101.599,28.320,-25.391,-36.621,35.645,-142.090
1689275101.603,21.973,-27.832,-39.551,41.992,-51.270
1689275101.607,13.184,-32.715,-38.574,43.457,-45.410
1689275101.611,8.301,-32.227,-38.086,48.828,-116.699
1689275101.615,6.836,-37.598,-43.945,27.344,-134.766
1689275101.619,-0.977,-39.062,-44.922,11.230,207.520
1689275101.622,-4.883,-30.762,-41.504,19.043,357.910
1689275101.626,4.395,-25.879,-39.062,9.277,-75.684
1689275101.630,9.277,-23.438,-40.039,8.301,-229.004
1689275101.634,10.742,-29.297,-42.480,7.324,145.996
1689275101.638,0.488,-33.203,-41.504,6.348,203.125
1689275101.641,-0.488,-24.414,-35.156,16.602,-153.320
1689275101.645,-7.324,-23.926,-30.762,7.324,-133.789
1689275101.649,-16.602,-26.855,-32.227,-1.953,-92.285
1689275101.653,-11.719,-25.879,-31.738,3.906,-139.160
1689275101.657,-14.160,-28.809,-27.832,1.465,-185.547
1689275101.661,-15.625,-31.250,-30.273,-20.020,71.777
1689275101.665,-1.953,-25.879,-34.180,-23.438,262.207
1689275101.668,-5.859,-22.949,-32.715,-20.020,-48.828
1689275101.672,-21.973,-22.461,-31.738,-9.277,-188.965
1689275101.676,-15.137,-25.391,-26.855,6.348,-30.762
1689275101.680,0.000,-30.762,-24.902,2.930,23.438
1689275101.684,-23.926,-18.066,-24.902,-20.020,-166.016
1689275101.700,-50.293,-11.719,-30.273,-37.598,-122.559
1689275101.704,-35.645,-17.090,-32.715,-27.832,42.969
1689275101.708,-29.785,-23.438,-27.344,-39.062,-11.719
1689275101.712,-41.992,-24.414,-31.250,-57.129,-109.375
1689275101.716,-55.176,-16.113,-41.016,-48.340,-99.121
1689275101.720,-60.547,-20.508,-39.062,-36.133,33.203
1689275101.724,-44.434,-29.785,-34.180,-27.832,72.754
1689275101.727,-29.297,-30.762,-36.621,-30.273,14.160
1689275101.731,-33.691,-32.227,-35.645,-17.578,-36.621
1689275101.735,-33.691,-30.762,-34.668,-13.672,171.387
1689275101.739,-41.016,-29.785,-32.227,-41.992,286.621
1689275101.743,-38.086,-32.715,-32.227,-43.457,-144.043
1689275101.746,-37.109,-30.273,-29.297,-15.137,-201.172
1689275101.750,-41.016,-24.414,-22.461,-11.719,-119.629
1689275101.754,-32.715,-28.809,-24.414,-26.367,-152.832
1689275101.758,-34.180,-30.273,-24.414,-34.668,-185.547
1689275101.762,-42.969,-22.461,-26.367,-32.227,-90.332
1689275101.766,-41.504,-22.949,-31.738,-41.016,80.078
1689275101.770,-43.457,-27.344,-30.273,-54.199,82.031
1689275101.773,-45.898,-27.832,-31.738,-43.457,-27.344
1689275101.777,-34.668,-22.461,-33.203,-28.809,44.434
1689275101.781,-31.738,-21.973,-33.203,-19.531,206.543
1689275101.785,-30.762,-23.926,-33.691,-14.648,-53.711
1689275101.789,-26.855,-20.508,-33.203,-22.461,-138.672
1689275101.790,-30.273,-22.949,-30.273,-18.555,-101.074
1689275101.794,-35.645,-28.320,-28.320,-17.090,-144.043
1689275101.798,-30.762,-33.691,-31.738,-35.645,-169.922
1689275101.802,-34.180,-29.297,-31.738,-23.438,-103.516
1689275101.806,-43.457,-25.879,-26.367,-30.762,-26.367
1689275101.810,-36.133,-29.297,-22.461,-38.574,17.578
1689275101.814,-33.203,-25.879,-24.902,-33.691,6.348
1689275101.817,-24.414,-22.461,-25.879,-35.645,-75.684
1689275101.821,-33.203,-26.367,-26.855,-24.902,217.773
1689275101.825,-46.387,-29.785,-27.344,-12.207,555.664
1689275101.829,-41.504,-25.391,-24.414,-20.508,128.906
1689275101.833,-38.574,-25.879,-26.367,-36.133,-226.074
1689275101.850,-38.086,-31.250,-25.391,-28.320,-170.898
1689275101.854,-30.762,-29.297,-27.344,-39.551,-193.359
1689275101.858,-38.574,-26.367,-31.250,-44.922,-194.336
1689275101.862,-33.203,-28.320,-32.227,-19.531,-55.176
1689275101.866,-19.043,-26.367,-32.227,-33.203,-46.387
1689275101.870,-32.227,-29.785,-33.203,-43.945,-154.297
1689275101.874,-39.062,-32.227,-35.156,-36.621,-125.000
1689275101.877,-34.668,-28.809,-35.156,-34.180,23.438
1689275101.881,-35.645,-25.391,-33.203,-21.484,397.461
1689275101.885,-30.762,-26.855,-34.180,-27.832,173.340
1689275101.889,-18.555,-27.832,-33.691,-40.039,-212.891
1689275101.893,-39.062,-26.367,-32.227,-41.504,-119.141
1689275101.880,-53.223,-27.344,-31.250,-46.387,-87.891
1689275101.884,-41.504,-33.203,-31.738,-49.316,-157.227
1689275101.888,-35.156,-29.785,-34.668,-38.086,-172.852
1689275101.892,-26.855,-25.391,-33.203,-30.762,-107.910
1689275101.896,-20.508,-27.344,-30.273,-17.090,-139.648
1689275101.900,-28.809,-24.902,-30.762,-12.207,-155.762
1689275101.904,-36.621,-20.996,-26.855,-24.414,-60.547
1689275101.907,-35.645,-20.508,-27.344,-15.625,83.984
1689275101.911,-39.062,-32.715,-30.762,-23.438,17.578
1689275101.915,-39.062,-36.621,-33.691,-36.133,-164.062
1689275101.919,-35.645,-31.738,-32.715,-37.109,-100.586
1689275101.923,-35.645,-33.691,-31.250,-36.621,243.164
1689275101.925,-38.574,-35.645,-30.762,-7.324,453.125
1689275101.929,-38.086,-38.086,-27.832,-16.113,38.086
1689275101.933,-30.762,-37.598,-28.809,-49.316,-222.168
1689275101.937,-35.156,-34.180,-30.273,-43.457,-141.602
1689275101.941,-15.137,-29.785,-42.969,-14.160,-162.109
1689275101.945,-4.395,-27.344,-39.062,-8.301,-118.652
1689275101.949,-28.320,-37.598,-22.461,-23.438,73.730
1689275101.952,-46.387,-42.480,-23.438,-12.695,206.543
1689275101.956,-42.969,-39.062,-23.438,-10.254,-69.336
1689275101.960,-36.621,-44.434,-18.066,-11.719,-212.891
1689275101.964,-40.039,-47.852,-18.066,-10.742,-95.215
1689275101.968,-41.992,-49.805,-19.043,-5.859,-108.887
1689275101.971,-42.969,-49.805,-16.113,-12.207,-90.332
1689275101.975,-25.879,-51.270,-14.160,-27.832,-60.059
1689275101.979,-28.320,-53.711,-15.137,-31.738,23.438
1689275101.983,-48.340,-47.852,-12.695,-17.090,50.293
1689275101.987,-31.738,-50.293,-16.113,-4.395,-104.004
1689275101.991,-24.902,-53.223,-19.531,-5.859,-146.484
1689275101.995,-42.969,-47.852,-17.578,-15.137,177.246
1689275101.998,-38.574,-47.852,-16.113,-29.297,359.375
1689275102.002,-34.180,-46.387,-10.254,-3.418,34.180
1689275102.006,-46.875,-40.039,-14.160,-6.836,-118.652
1689275102.010,-48.828,-40.527,-19.531,-35.156,10.254
1689275102.014,-41.504,-41.016,-21.484,-20.996,-42.480
1689275102.015,-40.039,-39.062,-23.926,-4.883,-215.332
1689275102.019,-38.086,-36.621,-24.414,-6.348,-142.578
1689275102.023,-30.273,-34.668,-26.367,-28.809,-74.707
1689275102.027,-41.992,-37.598,-27.344,-33.691,-114.258
1689275102.031,-45.410,-36.621,-24.902,-28.809,-195.312
1689275102.035,-34.668,-36.133,-22.949,-23.926,-43.945
1689275102.039,-30.762,-40.039,-26.367,-10.742,367.188
1689275102.042,-35.645,-37.598,-28.809,-15.625,134.766
1689275102.046,-45.410,-39.062,-23.438,-26.855,-215.820
1689275102.050,-30.762,-39.062,-25.879,-23.438,-99.609
1689275102.054,-23.438,-33.203,-33.203,-18.555,-89.355
1689275102.058,-47.363,-30.762,-35.156,-29.297,-158.691
1689275102.075,-51.758,-31.250,-31.738,-41.504,-99.609
1689275102.079,-45.410,-28.320,-27.344,-31.738,-95.215
1689275102.083,-40.039,-27.832,-29.297,-34.668,-146.484
1689275102.087,-32.715,-30.273,-27.344,-27.344,-135.742
1689275102.091,-44.434,-31.250,-29.785,-28.809,-61.523
1689275102.095,-50.293,-33.203,-33.203,-45.898,47.363
1689275102.099,-45.898,-30.762,-29.785,-42.969,81.055
1689275102.102,-42.969,-29.785,-24.902,-35.156,11.230
1689275102.106,-45.410,-30.273,-22.949,-27.344,-97.168
1689275102.110,-35.645,-32.715,-26.367,-19.531,197.266
1689275102.114,-29.785,-33.203,-28.320,-9.766,436.035
1689275102.118,-62.500,-25.879,-23.438,-19.043,20.996
1689275102.120,-70.312,-28.320,-23.926,-35.645,-190.430
1689275102.124,-57.129,-29.785,-26.855,-40.527,-105.957
1689275102.128,-53.223,-31.250,-30.762,-43.457,-120.117
1689275102.132,-44.922,-36.621,-30.273,-41.504,-152.344
1689275102.136,-40.527,-30.762,-27.832,-49.316,-90.820
1689275102.140,-35.156,-27.832,-30.273,-45.898,4.395
1689275102.144,-39.551,-32.227,-29.785,-47.852,64.453
1689275102.147,-49.316,-34.668,-28.809,-36.133,-26.367
1689275102.151,-31.250,-32.715,-25.391,-36.133,40.039
1689275102.155,-28.809,-28.320,-23.926,-39.551,339.844
1689275102.159,-34.180,-28.320,-25.879,-33.203,65.430
1689275102.163,-32.715,-31.250,-28.809,-43.945,-220.703
1689275102.165,-41.504,-27.344,-29.785,-56.152,-138.672
1689275102.169,-35.156,-24.902,-30.762,-48.340,-97.656
1689275102.173,-26.855,-23.926,-32.227,-29.297,-158.691
1689275102.177,-32.715,-22.461,-24.414,-36.133,-185.547
1689275102.181,-38.574,-23.926,-21.484,-32.715,-103.516
1689275102.185,-38.574,-21.484,-29.297,-36.133,23.438
1689275102.189,-19.043,-20.020,-29.297,-36.133,6.348
1689275102.192,-16.602,-20.508,-26.367,-30.273,-76.660
1689275102.196,-24.902,-25.391,-28.320,-26.855,178.711
1689275102.200,-23.438,-28.320,-33.691,-18.555,271.484
1689275102.204,-46.387,-25.391,-29.785,-23.438,-60.059
1689275102.208,-59.570,-28.320,-26.367,-44.922,-77.637
1689275102.210,-58.105,-27.344,-28.809,-39.551,1.465
1689275102.214,-37.109,-26.855,-29.785,-35.645,-165.527
1689275102.218,-20.020,-29.297,-35.645,-41.504,-291.992
1689275102.222,-32.715,-26.367,-36.133,-28.320,-175.293
1689275102.226,-35.156,-28.320,-32.227,-18.066,-15.625
1689275102.230,-33.203,-24.414,-31.738,-20.508,-62.500
1689275102.234,-38.086,-20.996,-35.645,-31.738,-82.031
1689275102.237,-38.086,-24.414,-39.551,-32.715,46.387
1689275102.241,-35.645,-22.949,-35.645,-22.949,188.477
1689275102.245,-25.391,-22.461,-32.715,-32.227,6.348
1689275102.249,-25.879,-22.461,-34.668,-27.344,-121.582
1689275102.253,-24.414,-19.043,-29.785,-32.227,-78.125
1689275102.256,-16.113,-21.973,-27.344,-38.574,-88.379
1689275102.260,-20.996,-27.832,-29.785,-13.672,-19.043
1689275102.264,-20.020,-26.855,-30.273,-7.324,-46.387
1689275102.268,-14.648,-24.414,-28.809,-20.996,-15.625
1689275102.272,-25.879,-26.367,-32.227,-32.227,10.742
1689275102.276,-30.762,-28.320,-34.180,-30.273,-82.031
1689275102.280,-42.480,-27.832,-29.297,-28.320,-95.703
1689275102.283,-47.852,-26.367,-28.320,-40.527,202.148
1689275102.287,-39.062,-27.832,-32.715,-48.340,420.410
1689275102.291,-34.180,-25.391,-28.809,-41.504,-50.293
1689275102.295,-21.973,-20.020,-21.484,-21.973,-208.984
1689275102.299,-15.137,-24.902,-28.809,-26.855,-119.629
1689275102.300,-9.766,-27.832,-32.227,-36.621,-186.035
1689275102.304,-6.348,-25.879,-28.320,-33.691,-161.621
1689275102.308,-5.371,-28.809,-28.809,-31.738,-109.863
1689275102.312,-11.230,-30.762,-33.691,-25.391,-36.621
1689275102.316,-24.414,-28.809,-33.203,-14.160,-27.832
1689275102.320,-26.367,-28.809,-29.785,-13.184,4.395
1689275102.324,-27.832,-32.227,-26.367,-36.621,151.367
1689275102.327,-52.246,-30.762,-24.902,-38.086,363.281
1689275102.331,-52.246,-29.297,-26.855,-27.832,123.535
1689275102.335,-40.527,-31.250,-27.344,-23.438,-226.074
1689275102.339,-44.922,-31.738,-32.227,-10.254,-132.812
1689275102.343,-41.992,-28.320,-34.180,-17.578,-131.836
1689275102.346,-40.527,-26.855,-30.762,-30.762,-183.594
1689275102.350,-50.781,-31.738,-26.367,-29.785,-211.426
1689275102.354,-43.457,-29.785,-26.855,-26.855,-175.293
1689275102.358,-25.391,-23.438,-29.297,-15.625,-123.047
1689275102.362,-30.762,-19.531,-25.391,-6.836,-107.910
1689275102.366,-33.691,-18.066,-23.438,-24.414,-106.934
1689275102.370,-13.184,-24.414,-30.273,-29.297,146.484
1689275102.373,2.930,-21.484,-36.133,-13.672,231.934
1689275102.377,-38.086,-29.297,-26.367,-21.484,14.160
1689275102.381,-65.430,-36.133,-14.648,-48.340,-14.648
1689275102.385,-55.176,-30.273,-16.113,-47.852,159.668
1689275102.389,-41.016,-31.250,-21.973,-38.574,82.031
1689275102.390,-42.969,-35.156,-19.043,-33.691,-250.977
1689275102.394,-45.898,-40.527,-16.113,-27.344,-145.508
1689275102.398,-41.992,-39.551,-11.719,-30.762,-47.363
1689275102.402,-53.711,-37.109,-7.324,-38.574,-80.566
1689275102.406,-52.246,-40.527,-10.254,-29.297,-133.301
1689275102.410,-30.762,-38.086,-16.113,-16.113,60.547
1689275102.414,-31.738,-35.156,-16.602,-12.207,216.309
1689275102.417,-49.316,-35.645,-16.602,-19.531,-19.043
1689275102.421,-52.734,-37.109,-16.113,-25.879,-152.344
1689275102.425,-49.805,-39.062,-18.555,-39.551,49.316
1689275102.429,-44.434,-32.715,-24.902,-29.297,140.625
1689275102.433,-44.922,-29.297,-24.902,-31.250,-126.465
1689275102.451,-32.715,-32.227,-26.855,-49.805,-191.406
1689275102.455,-20.996,-34.668,-29.785,-48.828,-56.641
1689275102.459,-25.391,-37.598,-27.344,-35.645,-20.020
1689275102.463,-26.367,-35.645,-26.855,-13.672,-140.625
1689275102.467,-21.973,-31.738,-29.297,-13.184,-131.836
1689275102.471,-32.715,-26.367,-28.320,-28.809,39.551
1689275102.475,-40.039,-27.832,-28.809,-29.785,48.828
1689275102.478,-37.109,-29.785,-33.203,-33.691,-40.039
1689275102.482,-26.855,-25.391,-29.297,-36.621,-192.383
1689275102.486,-27.344,-24.414,-30.273,-22.949,52.734
1689275102.490,-23.926,-25.391,-34.180,-31.738,274.902
1689275102.494,-24.414,-22.461,-32.715,-34.668,-108.887
1689275102.495,-37.109,-22.461,-30.762,-22.461,-170.410
1689275102.499,-23.438,-20.996,-27.344,-28.809,-59.570
1689275102.503,-20.996,-18.066,-24.902,-35.156,-133.301
1689275102.507,-21.484,-20.020,-27.832,-22.949,-180.176
1689275102.511,-23.926,-22.949,-26.855,-7.324,-66.406
1689275102.515,-32.227,-23.926,-23.438,-9.766,36.133
1689275102.519,-25.391,-16.602,-28.809,-16.602,-32.715
1689275102.522,-27.344,-15.625,-33.691,-27.344,-107.910
1689275102.526,-30.273,-21.973,-32.715,-26.367,10.254
1689275102.530,-26.855,-21.973,-33.691,-20.020,233.398
1689275102.534,-18.066,-23.438,-34.668,-32.715,-28.320
1689275102.538,-26.367,-26.855,-33.691,-42.480,-231.445
1689275102.541,-44.434,-28.809,-35.156,-54.199,-135.254
1689275102.545,-50.293,-27.832,-35.156,-48.340,-56.152
1689275102.549,-46.875,-23.438,-33.691,-32.227,-32.715
1689275102.553,-42.480,-22.949,-32.715,-37.598,-112.305
1689275102.557,-39.551,-26.367,-33.203,-43.457,-1.953
1689275102.561,-40.527,-27.344,-33.203,-34.180,143.555
1689275102.565,-41.504,-30.273,-30.273,-34.668,-6.836
1689275102.568,-27.344,-31.250,-29.785,-43.457,-128.906
1689275102.572,-37.109,-30.273,-27.832,-28.320,162.109
1689275102.576,-41.504,-29.785,-23.438,-13.672,313.477
1689275102.580,-41.992,-22.461,-24.902,-45.410,-72.754
1689275102.584,-42.969,-19.531,-29.785,-62.012,-208.496
1689275102.585,-35.645,-21.973,-28.809,-42.480,-93.750
1689275102.589,-42.480,-25.879,-28.809,-37.598,-91.797
1689275102.593,-41.992,-30.273,-30.273,-32.227,-191.895
1689275102.597,-27.344,-28.809,-35.156,-23.438,-144.043
1689275102.601,-38.574,-29.297,-35.645,-17.090,-15.137
1689275102.605,-33.203,-30.762,-33.691,-27.344,-5.371
1689275102.609,-22.949,-24.902,-32.715,-33.691,-32.227
1689275102.612,-39.062,-17.578,-32.227,-34.180,16.113
1689275102.616,-36.621,-19.531,-38.086,-37.109,130.859
1689275102.620,-40.039,-27.344,-35.645,-27.344,-69.336
1689275102.624,-41.504,-26.367,-34.180,-29.297,-228.027
1689275102.628,-23.926,-28.809,-36.133,-25.391,42.969
1689275102.630,-2.441,-32.715,-29.785,-16.113,152.832
1689275102.634,-17.578,-20.020,-26.855,-29.297,-116.699
1689275102.638,-60.059,-15.625,-31.250,-59.082,-162.598
1689275102.642,-72.266,-24.414,-33.691,-71.289,-107.422
1689275102.646,-68.359,-21.484,-34.180,-72.266,-101.562
1689275102.650,-63.965,-16.602,-30.273,-69.824,-99.121
1689275102.654,-57.617,-18.066,-32.227,-84.961,-114.746
1689275102.657,-43.945,-20.020,-34.668,-76.172,182.617
1689275102.661,-45.410,-20.508,-32.715,-51.758,492.188
1689275102.665,-61.523,-19.531,-30.273,-48.340,45.410
1689275102.669,-55.176,-25.391,-30.273,-48.828,-242.676
1689275102.673,-40.039,-26.855,-30.273,-44.922,-107.422
1689275102.675,-28.809,-29.297,-32.715,-40.527,-124.512
1689275102.679,-21.484,-32.715,-34.668,-45.898,-216.797
1689275102.683,-37.598,-33.203,-34.668,-49.316,-103.027
1689275102.687,-50.781,-32.715,-35.156,-41.992,-17.578
1689275102.691,-38.086,-25.879,-36.133,-29.785,-61.523
1689275102.695,-24.414,-27.344,-38.086,-32.227,-85.938
1689275102.699,-27.344,-31.738,-38.086,-43.457,92.285
1689275102.702,-37.109,-28.809,-38.574,-26.855,285.645
1689275102.706,-39.062,-25.879,-38.086,-22.949,9.277
1689275102.710,-30.273,-25.879,-35.156,-38.574,-199.707
1689275102.714,-40.527,-31.738,-36.621,-43.945,-41.504
1689275102.718,-50.293,-34.668,-38.086,-35.645,-10.742
1689275102.720,-37.598,-32.227,-35.156,-36.621,-131.836
1689275102.724,-26.367,-25.391,-31.250,-53.223,-125.977
1689275102.728,-15.625,-19.531,-31.738,-42.969,-94.238
1689275102.732,-26.367,-25.391,-34.180,-45.410,-102.051
1689275102.736,-41.016,-28.809,-34.180,-38.086,-133.789
1689275102.740,-40.039,-24.902,-36.133,-26.367,-67.383
1689275102.744,-31.738,-23.926,-33.203,-34.180,205.566
1689275102.747,-23.926,-26.367,-31.738,-33.691,254.395
1689275102.751,-31.738,-25.391,-31.250,-24.902,-71.777
1689275102.755,-40.039,-27.832,-26.367,-18.066,-165.039
1689275102.759,-30.273,-31.738,-25.391,-30.273,-12.695
1689275102.763,-28.320,-23.438,-25.879,-38.574,54.199
1689275102.766,-27.344,-18.555,-25.879,-39.551,-126.465
1689275102.770,-25.391,-25.879,-26.855,-50.293,-181.152
1689275102.774,-29.785,-29.785,-31.738,-44.922,-25.391
1689275102.778,-44.922,-31.250,-31.738,-30.273,-87.402
1689275102.782,-54.688,-32.227,-34.180,-38.574,-227.051
1689275102.786,-39.062,-31.250,-33.691,-40.039,-28.809
1689275102.790,-34.180,-34.180,-30.273,-47.363,185.547
1689275102.793,-40.039,-30.762,-37.109,-54.688,-64.941
1689275102.797,-31.250,-28.809,-37.598,-39.062,-206.543
1689275102.801,-29.785,-27.832,-32.715,-37.598,-16.602
1689275102.805,-34.668,-29.297,-28.809,-37.598,12.207
1689275102.809,-42.969,-31.738,-29.785,-40.527,-144.043
1689275102.826,-43.457,-30.762,-32.227,-41.504,-114.258
1689275102.830,-42.480,-28.809,-28.320,-35.156,-32.715
1689275102.834,-42.969,-28.320,-32.227,-37.109,-5.371
1689275102.838,-31.738,-30.273,-35.156,-32.715,-74.219
1689275102.842,-38.086,-25.879,-30.273,-22.949,-185.547
1689275102.846,-49.316,-25.391,-29.297,-2.930,123.535
1689275102.850,-35.156,-24.414,-32.715,-17.090,367.188
1689275102.853,-32.715,-24.414,-32.715,-46.387,74.707
1689275102.857,-40.039,-29.785,-28.320,-35.645,-51.758
1689275102.861,-46.875,-32.227,-29.297,-37.598,-66.895
1689275102.865,-35.645,-26.855,-28.809,-34.668,-158.203
1689275102.869,-27.344,-27.344,-28.320,-21.484,-195.312
1689275102.870,-30.273,-32.715,-24.414,-30.762,-94.238
1689275102.874,-29.785,-33.203,-27.832,-25.391,178.711
1689275102.878,-33.691,-35.645,-30.762,-6.348,105.957
1689275102.882,-7.812,-39.062,-20.020,5.859,-221.680
1689275102.886,-18.066,-26.855,-21.973,-3.906,-81.055
1689275102.890,-51.270,-20.020,-27.832,-30.762,95.215
1689275102.894,-43.945,-27.344,-30.273,-36.621,-21.973
1689275102.897,-28.809,-26.367,-38.086,-24.902,-111.328
1689275102.901,-15.625,-27.344,-44.922,-20.020,-41.016
1689275102.905,-13.184,-32.227,-40.527,-13.184,218.262
1689275102.909,-14.160,-30.762,-40.527,-14.160,76.172
1689275102.913,-4.883,-27.832,-46.387,-28.809,-185.547
1689275102.915,-4.883,-26.855,-45.410,-39.551,-157.715
1689275102.919,-21.973,-26.855,-42.480,-16.602,-126.953
1689275102.923,-26.367,-29.785,-41.992,-8.789,-119.629
1689275102.927,-9.766,-28.320,-40.527,-34.180,-126.953
1689275102.931,0.488,-20.020,-37.109,-26.367,-97.168
1689275102.935,-0.488,-15.137,-30.762,-15.625,-0.488
1689275102.939,-12.695,-20.020,-30.273,-27.832,-63.965
1689275102.942,-26.367,-27.344,-31.738,-26.855,-131.348
1689275102.946,-24.414,-25.391,-27.832,-13.672,221.680
1689275102.950,-25.391,-21.484,-29.785,-13.184,245.117
1689275102.954,-30.273,-20.996,-29.297,-20.996,-152.344
1689275102.958,-25.879,-20.508,-25.391,-15.137,-218.262
1689275102.961,-25.391,-15.625,-28.320,-15.137,135.742
1689275102.965,-29.297,-15.625,-36.621,-7.812,261.230
1689275102.969,-28.320,-17.578,-34.668,-12.695,-112.793
1689275102.973,-23.438,-16.602,-30.762,-35.645,-172.363
1689275102.977,-26.855,-22.461,-33.203,-27.344,-158.203
1689275102.981,-25.879,-21.973,-31.250,-9.277,-118.164
1689275102.985,-20.508,-20.020,-27.344,-22.461,-72.266
1689275102.988,-17.578,-24.902,-24.902,-22.461,-9.766
1689275102.992,-32.715,-23.926,-28.320,-24.902,162.109
1689275102.996,-41.016,-25.879,-30.273,-42.969,73.242
1689275103.000,-31.738,-32.227,-28.809,-45.898,-89.844
1689275103.004,-32.227,-31.738,-26.855,-40.039,4.395
1689275103.005,-23.438,-28.320,-28.320,-20.508,42.480
1689275103.009,-17.090,-26.855,-27.832,-31.250,-144.043
1689275103.013,-36.621,-25.879,-27.832,-43.945,-157.227
1689275103.017,-33.203,-21.973,-32.227,-17.578,-89.355
1689275103.021,3.418,-21.484,-35.645,11.719,-94.727
1689275103.025,-15.625,-28.809,-29.297,-8.301,-36.621
1689275103.029,-57.129,-28.809,-19.043,-61.523,20.508
1689275103.032,-66.406,-29.297,-15.625,-68.848,203.125
1689275103.036,-63.965,-30.273,-14.160,-46.875,364.258
1689275103.040,-64.941,-29.297,-14.648,-57.617,-41.992
1689275103.044,-75.195,-35.156,-16.113,-85.938,-209.473
1689275103.048,-74.219,-37.109,-19.043,-80.078,-140.137
1689275103.051,-71.289,-33.203,-18.555,-51.270,-136.230
1689275103.055,-70.312,-33.203,-16.602,-51.758,-182.617
1689275103.059,-62.988,-30.762,-20.508,-56.152,-143.555
1689275103.063,-45.898,-28.809,-24.902,-43.945,16.113
1689275103.067,-47.852,-30.762,-25.879,-44.922,-82.031
1689275103.071,-73.242,-31.250,-24.902,-56.152,-136.719
1689275103.075,-62.500,-37.109,-26.367,-38.086,40.039
1689275103.078,-50.293,-39.551,-28.320,-34.180,226.074
1689275103.082,-52.734,-34.180,-28.809,-58.105,23.926
1689275103.086,-43.457,-33.691,-27.832,-51.270,-167.969
1689275103.090,-36.621,-35.156,-31.250,-52.734,-94.727
1689275103.094,-21.973,-33.691,-31.738,-51.270,-92.773
1689275103.097,-18.066,-33.203,-29.785,-34.180,-160.645
1689275103.101,-39.062,-33.203,-25.879,-24.414,-154.297
1689275103.105,-43.457,-30.273,-28.809,-39.551,32.715
1689275103.109,-42.969,-30.273,-39.062,-49.316,32.227
1689275103.113,-39.062,-31.250,-42.969,-35.156,-172.852
1689275103.117,-46.387,-31.250,-37.109,-25.879,-62.988
1689275103.121,-42.480,-30.762,-34.180,-21.973,254.395
1689275103.124,-20.508,-25.879,-35.156,-23.926,391.602
1689275103.128,-25.879,-25.879,-33.691,-39.062,20.020
1689275103.132,-22.461,-29.297,-26.855,-31.250,-238.281
1689275103.136,-12.695,-31.738,-29.297,-28.320,-125.977
1689275103.140,-15.137,-30.762,-32.227,-34.180,-113.281
1689275103.140,-18.066,-32.227,-30.273,-23.926,-197.754
1689275103.144,-27.832,-29.785,-31.250,-35.156,-126.953
1689275103.148,-20.020,-26.367,-26.855,-33.203,-132.324
1689275103.152,-8.789,-27.344,-27.344,-17.090,-179.199
1689275103.156,-20.508,-22.949,-28.809,-33.203,-197.266
1689275103.160,-26.367,-21.484,-27.832,-36.621,-35.156
1689275103.164,-22.949,-21.973,-26.855,-15.625,226.562
1689275103.167,-39.062,-25.879,-30.273,-22.461,2.441
1689275103.171,-47.852,-28.320,-31.738,-20.508,-249.023
1689275103.175,-40.039,-27.344,-30.762,-16.602,-10.254
1689275103.179,-28.320,-27.344,-26.367,-34.668,201.172
1689275103.183,-26.367,-28.809,-29.297,-40.527,-41.016
1689275103.200,-38.574,-29.297,-30.762,-24.414,-120.117
1689275103.204,-34.180,-27.832,-30.273,-20.996,-61.035
1689275103.208,-31.738,-29.297,-37.109,-32.715,-57.129
1689275103.212,-33.203,-27.344,-38.574,-34.180,-72.266
1689275103.216,-33.691,-23.926,-33.203,-33.691,-83.984
1689275103.220,-47.852,-26.367,-33.691,-40.039,10.254
1689275103.224,-45.898,-28.320,-31.250,-47.363,74.707
1689275103.227,-36.621,-30.762,-28.320,-38.574,71.777
1689275103.231,-29.785,-29.297,-37.598,-33.691,44.922
1689275103.235,-20.996,-24.902,-34.668,-16.602,223.633
1689275103.239,-36.133,-30.273,-25.391,-11.230,383.789
1689275103.243,-57.129,-35.156,-17.578,-41.016,-23.926
1689275103.246,-55.664,-35.645,-15.625,-58.105,-202.637
1689275103.250,-42.969,-39.551,-22.461,-39.551,-130.371
1689275103.254,-45.898,-41.504,-21.973,-43.945,-170.410
1689275103.258,-46.875,-40.039,-15.625,-50.293,-190.918
1689275103.262,-49.316,-35.156,-21.484,-35.645,-166.016
1689275103.266,-50.781,-31.738,-28.320,-34.180,-36.621
1689275103.270,-31.250,-30.762,-28.320,-30.762,40.039
1689275103.273,-17.578,-25.879,-31.250,-23.926,-37.598
1689275103.277,-26.367,-20.508,-31.738,-22.461,-40.039
1689275103.281,-33.691,-20.996,-34.668,-20.996,207.031
1689275103.285,-33.691,-26.855,-27.344,-18.066,40.527
1689275103.289,-29.785,-30.762,-22.949,-29.785,-260.254
1689275103.290,-34.180,-33.691,-30.273,-45.898,-63.477
1689275103.294,-39.062,-31.250,-30.273,-48.340,-9.277
1689275103.298,-38.086,-32.715,-27.344,-38.574,-191.406
1689275103.302,-25.879,-39.062,-26.855,-27.832,-206.543
1689275103.306,-28.809,-37.598,-29.297,-22.461,-145.020
1689275103.310,-43.945,-32.715,-29.297,-23.926,-17.090
1689275103.314,-33.203,-30.762,-29.785,-32.715,87.891
1689275103.317,-28.320,-29.297,-30.273,-35.156,-10.254
1689275103.321,-36.621,-25.391,-29.297,-29.297,151.367
1689275103.325,-41.992,-24.902,-28.809,-22.461,377.930
1689275103.329,-27.344,-24.902,-25.391,-32.715,27.344
1689275103.333,-20.996,-26.367,-26.367,-32.227,-183.594
1689275103.335,-26.855,-28.320,-26.855,-28.809,-74.219
1689275103.339,-25.391,-21.973,-24.902,-41.992,-69.336
1689275103.343,-29.785,-13.672,-28.320,-39.062,-175.293
1689275103.347,-42.480,-19.531,-25.391,-24.414,-82.520
1689275103.351,-34.668,-23.438,-20.020,-28.809,30.762
1689275103.355,-27.832,-23.926,-21.484,-33.203,-73.730
1689275103.359,-34.668,-26.367,-24.902,-25.391,-82.520
1689275103.362,-35.645,-29.297,-23.438,-22.461,20.996
1689275103.366,-28.809,-28.809,-23.926,-20.020,107.910
1689275103.370,-26.367,-26.855,-30.762,-22.461,-91.797
1689275103.374,-25.879,-28.809,-34.180,-28.320,-255.859
1689275103.378,-30.273,-29.297,-35.156,-35.156,-87.402
1689275103.380,-43.457,-26.367,-34.180,-46.875,26.367
1689275103.384,-28.809,-25.391,-33.691,-56.641,-121.094
1689275103.388,-21.973,-27.344,-31.250,-57.129,-105.957
1689275103.392,-36.621,-30.273,-27.832,-42.480,73.242
1689275103.396,-39.062,-29.785,-29.297,-34.668,26.367
1689275103.400,-41.016,-27.832,-31.738,-47.363,-113.770
1689275103.404,-36.133,-27.832,-33.691,-56.152,-21.973
1689275103.407,-31.738,-28.320,-31.250,-36.133,226.074
1689275103.411,-27.832,-28.809,-24.902,-35.156,111.328
1689275103.415,-29.785,-31.738,-26.367,-51.758,-160.645
1689275103.419,-42.480,-33.691,-28.809,-38.086,-172.852
1689275103.423,-39.062,-35.156,-23.926,-34.180,130.371
1689275103.440,-32.227,-36.133,-22.949,-33.691,241.699
1689275103.444,-36.621,-30.762,-26.855,-32.227,-131.836
1689275103.448,-33.203,-23.926,-27.344,-51.270,-165.527
1689275103.452,-34.668,-21.973,-29.785,-56.152,-93.262
1689275103.456,-49.316,-27.832,-29.297,-41.016,-131.836
1689275103.460,-48.828,-34.180,-24.414,-38.574,-114.258
1689275103.464,-42.969,-31.738,-26.367,-35.645,21.973
1689275103.467,-34.668,-21.484,-26.367,-23.438,417.480
1689275103.471,-31.250,-20.996,-26.855,-10.254,270.508
1689275103.475,-39.551,-21.973,-28.809,-18.555,-118.164
1689275103.479,-33.203,-26.855,-28.809,-45.410,-83.008
1689275103.483,-26.855,-30.273,-26.367,-32.715,-128.906
1689275103.471,-35.156,-23.926,-23.438,-14.648,-223.633
1689275103.475,-38.574,-24.414,-23.926,-20.996,-222.168
1689275103.479,-41.992,-25.879,-23.926,-23.926,-111.816
1689275103.483,-41.992,-28.320,-26.855,-26.855,-30.762
1689275103.487,-30.273,-28.809,-27.832,-18.555,-106.445
1689275103.491,-31.738,-30.273,-28.320,-41.016,-58.594
1689275103.495,-29.297,-28.320,-29.785,-54.199,41.016
1689275103.498,-18.066,-23.438,-32.227,-38.574,-16.602
1689275103.502,-40.527,-22.461,-34.668,-33.203,-37.109
1689275103.506,-53.711,-25.391,-32.715,-21.484,-135.254
1689275103.510,-40.527,-24.902,-33.203,-32.715,68.359
1689275103.514,-28.809,-23.926,-35.645,-41.992,422.852
1689275103.515,-24.902,-27.344,-35.645,-37.598,112.305
1689275103.519,-16.602,-29.785,-32.715,-27.344,-146.484
1689275103.523,-14.648,-26.367,-28.320,-16.602,-81.055
1689275103.527,-22.461,-23.926,-22.949,-27.344,-112.305
1689275103.531,-19.531,-24.902,-24.902,-25.391,-226.562
1689275103.535,-30.762,-27.832,-24.902,-3.418,11.230
1689275103.539,-41.992,-30.273,-25.391,-13.672,272.461
1689275103.542,-43.457,-27.344,-28.320,-40.527,-49.316
1689275103.546,-49.805,-26.855,-24.414,-32.715,-277.832
1689275103.550,-44.922,-28.809,-20.020,-14.648,-106.445
1689275103.554,-39.062,-28.809,-16.602,-8.789,93.750
1689275103.558,-40.527,-29.297,-20.508,-25.879,-84.961
1689275103.575,-39.551,-32.715,-26.367,-37.109,-203.613
1689275103.579,-38.086,-29.785,-26.855,-37.109,-54.688
1689275103.583,-30.273,-25.391,-26.855,-28.809,-27.832
1689275103.587,-12.695,-26.855,-33.203,-9.766,-131.348
1689275103.591,-8.789,-28.809,-38.574,-18.066,-52.246
1689275103.595,-33.203,-28.809,-34.180,-20.020,118.652
1689275103.599,-49.805,-30.762,-32.227,-31.738,82.031
1689275103.602,-42.480,-34.180,-31.250,-50.293,-24.414
1689275103.606,-39.551,-31.738,-26.367,-35.156,-87.402
1689275103.610,-40.039,-29.785,-27.344,-21.484,122.559
1689275103.614,-38.574,-35.156,-28.809,-25.879,254.395
1689275103.618,-30.762,-33.203,-31.738,-27.832,-151.367
1689275103.621,-26.855,-31.250,-32.227,-27.832,-220.215
1689275103.625,-46.387,-32.715,-32.227,-22.949,-23.438
1689275103.629,-43.457,-31.250,-30.762,-21.973,-40.039
1689275103.633,-35.645,-31.250,-24.902,-17.578,-171.387
1689275103.637,-29.297,-28.809,-26.367,-15.625,-74.707
1689275103.641,-16.113,-29.297,-29.297,-28.320,98.145
1689275103.645,-7.812,-26.855,-27.344,-43.457,4.883
1689275103.648,-18.066,-26.855,-30.273,-46.875,-166.504
1689275103.652,-46.875,-27.832,-33.203,-46.387,-20.996
1689275103.656,-46.387,-26.855,-30.273,-48.340,229.492
1689275103.660,-31.250,-28.320,-35.156,-44.922,2.441
1689275103.664,-25.391,-28.809,-34.668,-39.062,-150.391
1689275103.666,-17.090,-27.832,-30.762,-39.551,-34.668
1689275103.670,-22.949,-30.762,-35.156,-30.762,-57.129
1689275103.674,-40.039,-28.809,-38.086,-25.391,-169.434
1689275103.678,-26.367,-24.902,-35.156,-28.320,-145.996
1689275103.682,-16.113,-27.344,-29.297,-39.062,-58.105
1689275103.686,-42.969,-25.879,-29.785,-39.062,-16.602
1689275103.690,-41.504,-23.438,-28.809,-19.531,-10.742
1689275103.693,-32.227,-28.320,-23.926,-27.344,-69.336
1689275103.697,-42.969,-31.738,-29.785,-35.645,117.676
1689275103.701,-41.016,-29.785,-32.227,-23.926,349.609
1689275103.705,-32.227,-25.391,-29.785,-28.809,4.883
1689275103.709,-20.996,-28.809,-29.785,-41.016,-161.133
1689275103.711,-16.602,-31.250,-30.273,-51.758,-107.422
1689275103.715,-34.668,-32.227,-33.203,-47.363,-180.664
1689275103.719,-48.828,-32.715,-33.691,-45.410,-190.430
1689275103.723,-46.875,-38.086,-30.273,-45.410,-145.996
1689275103.727,-38.574,-37.109,-30.273,-33.203,-81.055
1689275103.731,-44.922,-31.738,-35.156,-34.180,67.383
1689275103.735,-61.035,-31.738,-31.738,-38.574,62.500
1689275103.738,-50.293,-26.367,-27.344,-38.574,36.133
1689275103.742,-35.645,-23.438,-28.320,-45.898,320.801
1689275103.746,-45.898,-27.344,-27.832,-39.062,142.090
1689275103.750,-45.410,-27.344,-28.320,-41.992,-170.410
1689275103.754,-36.621,-28.809,-33.691,-55.176,-88.867
1689275103.755,-39.551,-32.715,-38.574,-50.781,-127.930
1689275103.759,-34.668,-29.785,-34.668,-55.176,-206.055
1689275103.763,-36.621,-29.297,-32.715,-45.898,-127.930
1689275103.767,-45.410,-31.250,-34.668,-50.293,-61.035
1689275103.771,-51.758,-34.180,-36.621,-71.777,-93.750
1689275103.775,-52.246,-35.645,-32.715,-60.059,-31.250
1689275103.779,-43.945,-31.250,-30.273,-44.434,2.441
1689275103.782,-48.340,-29.785,-30.762,-44.922,229.492
1689275103.786,-47.363,-35.645,-29.297,-47.852,470.703
1689275103.790,-37.109,-40.039,-30.762,-55.664,-11.719
1689275103.794,-37.109,-36.133,-26.855,-53.223,-273.926
1689275103.798,-38.086,-29.785,-26.367,-53.223,-124.023
1689275103.800,-39.062,-28.809,-28.809,-40.039,-172.852
1689275103.804,-36.621,-27.832,-29.785,-41.504,-222.656
1689275103.808,-32.715,-31.738,-35.156,-60.547,-127.441
1689275103.812,-29.785,-31.738,-33.203,-54.688,-46.875
1689275103.816,-32.227,-25.391,-27.344,-39.062,-81.543
1689275103.820,-31.738,-24.902,-25.391,-29.785,-119.141
1689275103.824,-27.344,-28.809,-23.438,-23.926,22.949
1689275103.827,-39.551,-35.156,-23.926,-25.391,235.352
1689275103.831,-36.621,-31.738,-29.297,-38.574,-49.805
1689275103.835,-13.672,-32.715,-30.762,-29.785,-255.371
1689275103.839,-22.461,-33.691,-31.250,-21.484,-91.309
1689275103.843,-41.016,-27.832,-38.086,-31.738,-34.180
1689275103.846,-40.527,-21.484,-39.062,-33.203,-130.859
1689275103.850,-28.320,-24.902,-35.645,-20.996,-150.391
1689275103.854,-28.320,-30.762,-38.574,-25.879,-75.195
1689275103.858,-33.691,-28.809,-40.039,-40.527,-81.543
1689275103.862,-31.738,-27.832,-37.109,-29.785,-121.094
1689275103.866,-29.785,-28.809,-33.691,-16.602,-69.336
1689275103.870,-28.809,-33.691,-30.762,-17.578,192.871
1689275103.873,-31.250,-35.645,-34.180,-30.273,296.387
1689275103.877,-34.668,-28.320,-35.645,-25.879,-11.230
1689275103.881,-34.180,-25.879,-32.715,-16.113,-166.016
1689275103.885,-28.809,-22.949,-29.297,-11.230,-3.418
1689275103.889,-20.996,-18.555,-26.367,-15.137,11.230
1689275103.891,-18.066,-22.461,-27.832,-23.438,-170.410
1689275103.895,-29.785,-30.273,-30.762,-17.090,-34.180
1689275103.899,-38.574,-33.691,-30.762,-23.926,108.887
1689275103.903,-30.762,-29.297,-30.273,-27.344,-55.176
1689275103.907,-26.367,-28.320,-30.762,-37.109,-186.523
1689275103.911,-25.391,-29.297,-29.785,-34.668,14.160
1689275103.915,-23.926,-27.344,-31.738,-23.438,227.539
1689275103.918,-21.484,-26.855,-30.762,-38.086,-0.488
1689275103.922,-29.785,-28.320,-30.762,-33.203,-166.992
1689275103.926,-28.320,-30.762,-27.832,-22.461,-26.855
1689275103.930,-36.133,-29.297,-28.320,-30.273,-14.648
1689275103.934,-55.176,-31.738,-33.203,-23.926,-166.504
1689275103.951,-25.391,-41.992,-26.367,4.883,-151.367
1689275103.955,-8.789,-27.832,-25.391,-3.906,-63.477
1689275103.959,-49.316,-3.418,-32.715,-61.523,-47.852
1689275103.963,-58.594,-2.930,-35.645,-84.961,-46.387
1689275103.967,-49.805,-6.836,-35.645,-65.918,-74.219
1689275103.971,-69.336,-9.766,-38.086,-68.359,233.887
1689275103.975,-83.008,-14.160,-41.016,-83.008,417.969
1689275103.978,-89.355,-8.789,-41.992,-93.750,17.578
1689275103.982,-86.914,-6.836,-45.898,-110.840,-173.828
1689275103.986,-71.777,-12.207,-46.875,-101.074,21.973
1689275103.990,-59.082,-12.207,-44.434,-95.215,116.699
1689275103.994,-60.547,-9.277,-41.992,-90.332,-174.805
1689275103.995,-58.594,-9.277,-38.086,-69.824,-240.723
1689275103.999,-57.129,-14.160,-39.062,-68.848,-202.148
1689275104.003,-46.387,-15.137,-45.410,-67.871,-182.617
1689275104.007,-34.668,-21.484,-41.504,-65.918,-156.738
1689275104.011,-37.598,-23.438,-37.109,-57.129,-24.902
1689275104.015,-38.086,-19.043,-36.621,-47.852,86.914
1689275104.019,-26.855,-22.461,-37.598,-47.363,-23.926
1689275104.022,-25.879,-27.344,-33.691,-41.992,-97.656
1689275104.026,-34.668,-28.320,-31.250,-38.574,-38.574
1689275104.030,-26.367,-30.273,-30.273,-33.691,274.414
1689275104.034,-19.531,-33.203,-28.809,-32.715,139.648
1689275104.038,-29.785,-29.785,-31.250,-34.668,-191.406
1689275104.056,-42.480,-29.297,-29.785,-23.926,-163.574
1689275104.060,-40.039,-31.250,-30.762,-22.949,-141.602
1689275104.064,-33.691,-31.738,-32.715,-20.996,-157.227
1689275104.068,-30.762,-23.926,-32.715,-27.344,-112.793
1689275104.072,-30.273,-20.020,-31.738,-36.133,-74.219
1689275104.076,-23.438,-27.832,-34.668,-33.691,-2.930
1689275104.080,-14.648,-22.949,-34.180,-30.762,23.438
1689275104.083,-18.066,-22.461,-29.785,-32.715,-53.223
1689275104.087,-25.879,-29.785,-26.855,-24.414,167.480
1689275104.091,-30.762,-31.250,-29.297,-21.973,187.012
1689275104.095,-34.180,-26.855,-29.785,-16.113,-161.621
1689275104.099,-31.250,-22.949,-26.855,-20.508,-209.961
1689275104.085,-27.344,-19.531,-21.973,-48.340,166.992
1689275104.089,-32.227,-20.996,-19.531,-28.809,308.594
1689275104.093,-30.273,-21.484,-21.484,-25.391,-109.863
1689275104.097,-22.461,-19.043,-23.926,-24.902,-189.941
1689275104.101,-25.391,-22.461,-26.367,-11.719,-107.910
1689275104.105,-23.438,-26.367,-25.391,-23.438,-72.266
1689275104.109,-16.602,-31.250,-27.832,-16.113,-42.969
1689275104.112,-18.555,-29.785,-29.785,-22.949,-12.207
1689275104.116,-36.621,-25.391,-23.926,-47.852,-33.691
1689275104.120,-60.059,-23.926,-27.344,-52.246,-116.211
1689275104.124,-63.965,-22.949,-30.273,-58.105,-142.090
1689275104.128,-60.059,-26.367,-24.902,-76.172,51.270
1689275104.130,-55.176,-30.273,-23.926,-66.895,375.977
1689275104.134,-58.594,-32.227,-22.949,-62.012,65.918
1689275104.138,-55.664,-30.273,-20.508,-69.336,-235.840
1689275104.142,-35.156,-32.715,-23.438,-65.918,-118.652
1689275104.146,-35.645,-35.645,-27.344,-60.547,-130.859
1689275104.150,-42.969,-31.738,-32.715,-49.316,-108.398
1689275104.154,-41.016,-29.297,-37.598,-56.152,-49.805
1689275104.157,-45.898,-29.785,-34.180,-50.781,181.641
1689275104.161,-43.457,-32.227,-35.156,-24.414,381.348
1689275104.165,-44.434,-31.738,-31.738,-36.133,38.086
1689275104.169,-47.363,-29.297,-20.508,-48.828,-192.383
1689275104.173,-40.527,-32.715,-21.484,-25.391,-202.148
1689275104.176,-39.062,-34.668,-22.949,-20.020,-203.125
1689275104.180,-41.504,-34.668,-25.879,-23.926,-115.723
1689275104.184,-33.691,-35.645,-28.320,-23.926,10.254
1689275104.188,-26.855,-37.109,-28.809,-19.531,8.301
1689275104.192,-25.879,-34.180,-32.715,-23.926,-125.000
1689275104.196,-26.855,-30.273,-33.203,-23.438,-159.180
1689275104.200,-24.414,-29.785,-35.156,-24.902,41.504
1689275104.203,-23.926,-30.273,-33.203,-33.203,238.281
1689275104.207,-27.832,-28.320,-28.809,-33.203,64.453
1689275104.211,-33.691,-27.344,-26.855,-31.738,-110.840
1689275104.215,-34.668,-27.832,-24.902,-29.297,-103.516
1689275104.219,-26.367,-24.414,-25.879,-29.785,-72.754
1689275104.220,-21.973,-22.461,-26.855,-21.484,-82.520
1689275104.224,-26.367,-26.855,-27.344,-22.461,-93.750
1689275104.228,-24.414,-25.879,-31.250,-22.949,-78.613
1689275104.232,-31.250,-24.414,-28.809,-29.785,-66.895
1689275104.236,-33.203,-27.344,-26.855,-32.227,29.297
1689275104.240,-25.391,-22.461,-22.461,-8.789,34.180
1689275104.244,-31.250,-19.043,-22.461,-17.090,215.332
1689275104.247,-25.391,-24.902,-29.297,-37.598,432.129
1689275104.251,-35.156,-27.344,-26.855,-37.109,21.973
1689275104.255,-42.969,-23.926,-29.297,-33.203,-226.074
1689275104.259,-28.320,-21.973,-27.832,-20.508,-86.426
1689275104.263,-33.203,-23.438,-27.344,-15.625,-89.844
1689275104.265,-35.645,-29.785,-29.297,-20.020,-216.309
1689275104.269,-14.648,-39.551,-23.926,-7.324,-176.270
1689275104.273,4.883,-29.297,-26.855,-0.977,-60.547
1689275104.277,-14.160,-12.207,-34.180,-23.926,-92.773
1689275104.281,-44.922,-10.742,-35.645,-41.992,-143.066
1689275104.285,-46.875,-10.742,-33.691,-51.758,-8.789
1689275104.289,-47.363,-10.254,-36.621,-62.012,150.879
1689275104.292,-39.551,-9.766,-38.086,-49.805,-18.066
1689275104.296,-28.320,-3.418,-40.039,-38.086,-188.477
1689275104.300,-31.250,0.000,-48.340,-50.293,-39.551
1689275104.304,-23.438,-1.465,-51.270,-54.199,83.008
1689275104.308,-19.043,0.000,-51.270,-51.270,-109.863
1689275104.325,-27.832,0.000,-52.246,-64.453,-182.617
1689275104.329,-16.113,-2.441,-50.781,-74.707,-59.570
1689275104.333,-11.230,-1.465,-49.316,-62.500,-49.316
1689275104.337,-16.602,-4.395,-51.270,-30.762,-126.953
1689275104.341,-14.160,-19.043,-51.270,-16.113,-144.531
1689275104.345,-18.066,-24.902,-52.734,-57.129,8.789
1689275104.349,-15.137,-18.066,-49.316,-79.102,98.633
1689275104.352,-20.996,-20.020,-45.898,-52.734,23.438
1689275104.356,-22.461,-20.996,-47.363,-41.016,-60.059
1689275104.360,-16.602,-17.090,-44.434,-37.598,131.836
1689275104.364,-21.973,-21.484,-42.480,-27.832,369.141
1689275104.368,-21.484,-22.461,-39.551,-31.738,41.016
1689275104.370,-21.973,-23.926,-33.691,-24.902,-171.387
1689275104.374,-22.461,-29.785,-33.203,-20.020,-125.977
1689275104.378,-19.531,-28.809,-35.156,-43.457,-187.012
1689275104.382,-19.531,-30.273,-33.691,-19.531,-247.070
1689275104.386,-7.812,-31.738,-31.250,-1.465,-128.906
1689275104.390,-7.812,-28.320,-29.297,-18.555,75.684
1689275104.394,-16.602,-26.367,-28.320,-20.508,-15.625
1689275104.397,-15.137,-26.367,-30.273,-19.043,-201.172
1689275104.401,-7.324,-27.832,-34.180,-14.160,-48.340
1689275104.405,-6.348,-24.414,-36.621,-5.371,221.191
1689275104.409,-25.391,-22.461,-33.691,-14.160,6.348
1689275104.413,-24.902,-22.949,-30.273,-28.320,-141.602
1689275104.415,-31.738,-23.926,-29.785,-37.598,8.301
1689275104.419,-31.250,-27.832,-30.762,-25.879,-7.812
1689275104.423,-30.762,-28.320,-30.762,-10.742,-185.547
1689275104.427,-37.598,-24.414,-22.461,-21.973,-142.090
1689275104.431,-31.738,-23.438,-20.508,-26.855,-43.457
1689275104.435,-34.668,-25.391,-24.414,-34.668,-31.250
1689275104.439,-27.832,-28.809,-24.902,-34.180,-19.531
1689275104.442,-16.113,-29.785,-29.297,-26.367,-37.598
1689275104.446,-11.719,-30.273,-33.203,-25.879,224.609
1689275104.450,-22.949,-27.832,-26.855,-14.648,370.605
1689275104.454,-46.387,-25.391,-24.414,-15.625,-33.691
1689275104.458,-40.527,-28.320,-26.855,-21.973,-160.156
1689275104.461,-20.020,-28.809,-26.367,-23.926,-108.398
1689275104.465,-26.855,-28.320,-23.926,-28.809,-141.113
1689275104.469,-35.156,-33.203,-21.484,-37.109,-96.191
1689275104.473,-40.527,-33.691,-26.855,-42.480,-40.527
1689275104.477,-41.992,-36.621,-30.273,-33.691,-35.645
1689275104.481,-31.250,-38.574,-25.879,-15.625,26.367
1689275104.485,-37.598,-29.297,-27.832,-38.574,-1.465
1689275104.488,-47.363,-22.949,-27.832,-59.082,-38.574
1689275104.492,-40.527,-24.414,-26.855,-33.203,182.617
1689275104.496,-27.344,-25.391,-25.879,-26.367,-40.039
1689275104.500,-25.879,-25.391,-30.273,-33.691,-218.262
1689275104.504,-23.926,-27.344,-32.227,-46.875,-63.965
1689275104.506,-23.926,-25.879,-31.250,-40.039,-45.898
1689275104.510,-37.109,-27.344,-29.297,-16.113,-121.582
1689275104.514,-31.250,-30.762,-30.273,-41.504,-122.070
1689275104.518,-42.480,-32.715,-35.645,-47.363,-123.535
1689275104.522,-58.105,-30.273,-32.715,-26.367,-69.824
1689275104.526,-40.527,-29.785,-27.344,-21.973,14.648
1689275104.530,-33.203,-35.645,-31.250,-25.879,-80.078
1689275104.533,-29.785,-36.621,-31.738,-26.367,139.648
1689275104.537,-15.625,-33.691,-27.832,-23.926,267.578
1689275104.541,-15.625,-27.832,-29.785,-30.273,-102.539
1689275104.545,-32.715,-26.367,-28.809,-34.668,-221.680
1689275104.549,-38.086,-28.320,-24.902,-41.504,91.797
1689275104.550,-38.086,-26.855,-24.414,-37.598,151.367
1689275104.554,-38.574,-26.855,-22.949,-36.621,-189.453
1689275104.558,-38.086,-30.273,-22.949,-36.621,-174.316
1689275104.562,-34.180,-29.785,-23.926,-26.855,-63.965
1689275104.566,-26.855,-24.414,-27.344,-18.555,-83.496
1689275104.570,-7.812,-24.414,-27.344,-15.137,-78.613
1689275104.574,-17.090,-25.879,-25.879,-22.949,-58.105
1689275104.577,-44.922,-24.414,-29.785,-32.715,273.926
1689275104.581,-37.109,-23.438,-27.832,-34.668,186.035
1689275104.585,-34.180,-22.949,-23.438,-23.926,-227.051
1689275104.589,-33.203,-22.949,-26.855,-19.531,-108.887
1689275104.593,-29.297,-21.973,-28.320,-24.902,-90.332
1689275104.595,-27.832,-20.996,-24.414,-23.438,-185.059
1689275104.599,-17.090,-21.973,-22.949,-27.832,-162.598
1689275104.603,-13.184,-27.344,-30.273,-35.645,-79.102
1689275104.607,-27.344,-31.738,-34.180,-34.180,-75.684
1689275104.611,-28.320,-28.809,-33.203,-25.391,-151.855
1689275104.615,-29.785,-29.785,-33.691,-22.949,-107.910
1689275104.619,-37.109,-32.227,-31.738,-27.832,75.684
1689275104.622,-30.273,-28.320,-31.250,-23.438,145.020
1689275104.626,-35.156,-24.902,-34.180,-23.926,-18.066
1689275104.630,-44.434,-30.273,-32.227,-43.945,-189.453
1689275104.634,-27.832,-34.180,-27.832,-29.785,93.750
1689275104.638,-23.926,-29.785,-28.320,-17.578,292.480
1689275104.640,-45.898,-22.949,-32.227,-48.340,-76.172
1689275104.644,-52.734,-20.508,-30.273,-54.688,-198.242
1689275104.648,-40.039,-22.461,-30.762,-36.133,136.230
1689275104.652,-36.133,-20.020,-33.203,-29.785,96.191
1689275104.656,-42.969,-22.461,-33.691,-46.387,-239.746
1689275104.660,-33.691,-24.902,-35.156,-61.523,-3.418
1689275104.664,-21.973,-22.461,-30.762,-57.129,255.371
1689275104.667,-30.273,-24.902,-27.344,-39.551,-28.809
1689275104.671,-41.992,-24.902,-26.855,-37.598,-251.953
1689275104.675,-53.223,-23.438,-27.832,-61.523,-125.977
1689275104.679,-56.152,-24.414,-32.227,-59.082,-105.469
1689275104.683,-45.898,-24.414,-30.762,-31.250,-202.637
1689275104.686,-36.621,-25.879,-29.785,-27.344,-183.594
1689275104.690,-37.109,-28.320,-30.762,-36.133,-7.812
1689275104.694,-41.016,-24.902,-30.762,-37.598,40.527
1689275104.698,-25.879,-21.973,-26.855,-31.250,-116.699
1689275104.702,-23.926,-28.320,-25.391,-38.086,-119.629
1689275104.706,-45.898,-31.738,-25.879,-36.133,12.207
1689275104.710,-46.387,-37.598,-26.367,-33.691,52.734
1689275104.713,-30.762,-36.621,-25.391,-34.180,1.465
1689275104.717,-27.344,-27.832,-23.438,-37.598,-75.195
1689275104.721,-37.598,-28.809,-27.832,-39.551,57.129
1689275104.725,-40.527,-27.832,-28.809,-34.180,220.703
1689275104.729,-35.156,-23.438,-27.344,-35.156,-84.961
1689275104.746,-36.621,-25.879,-28.320,-31.250,-189.453
1689275104.750,-27.344,-24.902,-27.832,-29.785,-50.781
1689275104.754,-18.555,-25.391,-27.344,-38.086,-52.734
1689275104.758,-30.273,-30.273,-31.250,-50.781,-152.344
1689275104.762,-28.320,-28.809,-30.273,-40.527,-108.887
1689275104.766,-23.926,-26.855,-25.391,-16.113,71.289
1689275104.770,-24.414,-26.367,-22.461,-30.273,-9.277
1689275104.773,-29.785,-24.902,-28.320,-36.621,-192.383
1689275104.777,-25.879,-21.973,-29.297,-26.367,-73.242
1689275104.781,-13.184,-20.996,-24.414,-32.715,71.777
1689275104.785,-17.090,-21.484,-23.926,-40.527,-98.145
1689275104.789,-24.902,-24.902,-24.902,-31.738,-155.762
1689275104.790,-26.367,-30.273,-25.391,-30.762,24.902
1689275104.794,-39.062,-26.367,-22.461,-33.691,110.352
1689275104.798,-51.270,-24.902,-29.297,-36.621,-129.395
1689275104.802,-41.016,-21.973,-28.809,-39.551,-163.574
1689275104.806,-38.574,-24.902,-24.414,-29.297,-0.488
1689275104.810,-45.410,-28.320,-27.344,-29.297,119.141
1689275104.814,-43.945,-29.297,-24.414,-41.992,108.398
1689275104.817,-42.969,-31.738,-20.996,-57.129,39.551
1689275104.821,-49.316,-28.809,-20.996,-39.062,183.105
1689275104.825,-48.828,-28.809,-20.508,-24.414,443.848
1689275104.829,-30.762,-31.738,-19.531,-29.297,146.973
1689275104.833,-30.273,-33.691,-21.484,-18.066,-149.414
1689275104.835,-42.480,-33.691,-22.949,-11.719,-139.160
1689275104.839,-30.762,-32.715,-25.391,-25.879,-138.672
1689275104.843,-34.180,-34.668,-21.484,-37.598,-148.438
1689275104.847,-39.062,-36.133,-23.926,-18.555,-119.629
1689275104.851,-28.809,-24.902,-34.668,-23.926,-58.594
1689275104.855,-33.203,-17.090,-33.691,-50.781,-103.516
1689275104.859,-32.715,-24.902,-32.227,-50.781,-147.461
1689275104.862,-38.086,-25.391,-30.762,-50.781,-130.371
1689275104.866,-50.781,-21.484,-31.250,-40.039,222.168
1689275104.870,-46.387,-20.508,-35.645,-25.879,107.910
1689275104.874,-33.691,-19.043,-36.133,-41.504,-291.504
1689275104.878,-44.922,-20.996,-35.645,-57.617,-194.336
1689275104.880,-50.293,-22.461,-32.227,-51.758,-73.730
1689275104.884,-31.250,-22.461,-33.203,-52.246,-120.117
1689275104.888,-28.809,-23.926,-34.668,-47.852,-168.457
1689275104.892,-30.762,-26.367,-32.227,-31.738,-118.652
1689275104.896,-35.156,-28.809,-32.227,-33.691,-124.023
1689275104.900,-32.715,-27.832,-28.809,-26.855,-27.832
1689275104.904,-26.367,-23.438,-21.973,-15.137,11.719
1689275104.907,-34.668,-23.926,-22.461,-32.715,231.934
1689275104.911,-31.250,-27.344,-28.320,-43.945,451.172
1689275104.915,-37.109,-23.926,-27.832,-47.363,27.344
1689275104.919,-45.898,-26.367,-24.414,-48.340,-149.414
1689275104.923,-36.621,-29.297,-21.973,-42.969,-26.367
1689275104.925,-28.809,-29.785,-22.949,-36.133,-90.332
1689275104.929,-36.133,-32.715,-23.926,-37.598,-187.012
1689275104.933,-40.527,-34.180,-23.926,-29.785,-182.617
1689275104.937,-32.715,-29.297,-24.902,-30.273,-133.301
1689275104.941,-31.738,-22.949,-23.438,-42.480,-132.324
1689275104.945,-33.203,-24.414,-25.391,-44.922,-62.012
1689275104.949,-26.855,-32.227,-35.645,-45.410,69.824
1689275104.952,-30.273,-33.203,-38.574,-34.668,203.613
1689275104.956,-25.879,-23.438,-35.645,-30.273,-7.324
1689275104.960,-6.348,-21.973,-35.645,-38.086,-184.082
1689275104.964,-20.508,-29.785,-33.203,-39.551,-73.730
1689275104.968,-46.875,-32.227,-27.832,-38.574,-85.938
1689275104.971,-47.363,-31.250,-28.320,-41.016,-119.141
1689275104.975,-41.016,-29.297,-31.738,-43.457,-117.676
1689275104.979,-39.551,-28.320,-30.762,-38.086,22.461
1689275104.983,-37.598,-27.344,-30.273,-35.156,80.078
1689275104.987,-26.367,-22.949,-30.273,-38.574,-76.172
1689275104.991,-28.809,-28.320,-25.391,-36.133,-79.590
1689275104.995,-26.367,-29.785,-26.367,-35.156,145.020
1689275104.998,-32.227,-29.785,-33.203,-26.367,245.605
1689275105.002,-47.852,-34.180,-33.203,-37.109,-40.039
1689275105.006,-36.621,-30.762,-32.227,-40.039,-200.195
1689275105.010,-29.297,-26.367,-31.250,-24.902,-28.320
1689275105.014,-33.691,-29.785,-31.250,-26.367,-2.930
1689275105.016,-27.344,-28.809,-31.250,-39.062,-133.301
1689275105.020,-32.715,-28.809,-31.738,-40.039,-114.746
1689275105.024,-51.270,-37.598,-31.738,-40.039,-20.020
1689275105.028,-50.293,-34.668,-30.273,-37.598,17.578
1689275105.032,-41.016,-30.762,-32.227,-17.578,-139.160
1689275105.036,-37.109,-30.273,-27.832,-35.156,-61.523
1689275105.040,-27.344,-26.367,-28.320,-46.387,385.742
1689275105.043,-16.602,-25.879,-31.250,-44.434,196.777
1689275105.047,-20.020,-25.879,-31.250,-43.945,-228.516
1689275105.051,-38.086,-23.926,-31.250,-20.996,-162.598
1689275105.055,-40.527,-26.855,-29.785,-19.531,-160.645
1689275105.059,-30.273,-28.809,-31.738,-20.996,-176.758
1689275105.076,-29.785,-29.297,-31.738,-21.484,-125.977
1689275105.080,-28.320,-31.738,-27.832,-35.645,-122.070
1689275105.084,-32.715,-33.203,-25.879,-40.527,-152.344
1689275105.088,-35.156,-32.715,-25.391,-24.902,-126.953
1689275105.092,-28.320,-32.715,-26.367,-25.879,-89.844
1689275105.096,-32.227,-31.250,-27.344,-27.344,69.824
1689275105.100,-21.484,-31.250,-25.391,-20.996,103.516
1689275105.103,-21.973,-33.691,-27.344,-20.996,-32.227
1689275105.107,-45.410,-31.250,-26.367,-31.738,-24.902
1689275105.111,-40.527,-27.344,-20.508,-35.156,235.840
1689275105.115,-34.180,-26.367,-23.438,-14.648,444.824
1689275105.119,-37.598,-23.926,-26.367,-13.184,56.152
1689275105.120,-34.668,-25.879,-23.926,-18.555,-197.266
1689275105.124,-20.996,-24.414,-22.949,-23.438,-123.047
1689275105.128,-19.043,-21.973,-28.320,-32.227,-114.746
1689275105.132,-25.391,-30.273,-29.785,-31.738,-136.719
1689275105.136,-23.926,-33.203,-28.809,-21.973,-93.262
1689275105.140,-19.043,-24.902,-31.250,-20.996,57.129
1689275105.144,-25.879,-17.090,-33.203,-31.250,48.828
1689275105.147,-43.457,-14.648,-38.574,-51.758,-78.613
1689275105.151,-41.992,-20.508,-36.133,-40.039,-18.555
1689275105.155,-25.879,-26.855,-33.203,-29.785,250.488
1689275105.159,-31.738,-23.438,-36.621,-42.480,75.195
1689275105.163,-45.898,-25.879,-36.133,-42.480,-280.762
1689275105.165,-42.969,-30.273,-35.645,-30.273,-57.617
1689275105.169,-42.480,-29.297,-33.203,-31.738,88.379
1689275105.173,-38.574,-24.902,-28.320,-44.434,-158.203
1689275105.177,-25.391,-23.926,-29.785,-43.457,-220.215
1689275105.181,-24.902,-27.344,-25.879,-37.109,-104.492
1689275105.185,-36.621,-29.785,-25.391,-38.086,-39.551
1689275105.189,-34.180,-29.297,-27.832,-28.809,11.719
1689275105.192,-37.109,-23.438,-29.297,-25.879,10.742
1689275105.196,-42.480,-25.391,-28.320,-41.016,135.742
1689275105.200,-37.109,-28.320,-28.809,-47.363,317.871
1689275105.204,-29.785,-27.344,-27.832,-56.641,29.297
1689275105.208,-21.973,-25.879,-24.902,-31.250,-129.883
1689275105.210,-19.043,-24.414,-20.996,-3.418,-2.441
1689275105.214,-21.484,-23.926,-20.020,-17.090,-69.824
1689275105.218,-40.039,-28.809,-24.902,-32.227,-198.730
1689275105.222,-51.270,-32.715,-30.273,-41.504,-123.535
1689275105.226,-40.527,-34.180,-31.250,-35.156,-70.801
1689275105.230,-37.109,-36.621,-26.367,-26.855,-27.832
1689275105.234,-22.461,-33.691,-23.926,-31.738,-25.879
1689275105.237,-13.672,-35.645,-23.438,-34.668,-23.438
1689275105.241,-20.996,-39.551,-25.879,-15.137,188.477
1689275105.245,-21.484,-33.691,-28.809,-19.043,40.527
1689275105.249,-21.484,-24.414,-32.227,-35.645,-147.461
1689275105.253,-20.508,-25.879,-36.621,-36.133,-108.887
1689275105.257,-29.297,-26.855,-31.738,-42.969,-79.102
1689275105.261,-39.551,-28.320,-26.367,-35.645,-87.402
1689275105.265,-35.645,-28.809,-27.832,-36.621,-141.113
1689275105.269,-33.203,-24.414,-28.320,-45.410,40.527
1689275105.273,-33.691,-21.484,-26.855,-33.203,46.387
1689275105.277,-36.133,-28.320,-30.762,-31.250,-102.051
1689275105.281,-33.203,-27.344,-33.203,-37.109,-61.035
1689275105.284,-27.344,-24.902,-29.785,-27.832,281.738
1689275105.288,-30.273,-27.344,-31.250,-21.973,489.746
1689275105.292,-34.180,-26.855,-33.203,-17.578,-26.855
1689275105.296,-34.180,-25.879,-32.227,-32.715,-286.133
1689275105.300,-40.527,-27.344,-31.738,-51.270,-207.520
1689275105.301,-41.016,-30.273,-26.367,-42.480,-207.520
1689275105.305,-52.734,-28.320,-29.297,-45.410,-187.988
1689275105.309,-63.965,-28.809,-33.203,-44.434,-121.094
1689275105.313,-61.035,-31.738,-32.715,-41.016,-41.992
1689275105.317,-53.223,-27.344,-30.273,-43.945,-91.797
1689275105.321,-47.363,-24.414,-34.668,-41.016,-3.906
1689275105.325,-52.246,-23.926,-38.086,-29.785,121.582
1689275105.328,-44.434,-22.461,-30.273,-22.949,330.078
1689275105.332,-38.574,-18.066,-29.297,-34.180,216.309
1689275105.336,-45.898,-22.461,-30.762,-43.945,-250.977
1689275105.340,-48.828,-31.250,-28.809,-36.133,-147.461
1689275105.344,-52.734,-25.391,-24.902,-34.180,-20.996
1689275105.345,-62.988,-21.484,-25.879,-35.156,-220.703
1689275105.349,-56.641,-19.531,-23.438,-27.344,-259.277
1689275105.353,-46.387,-20.020,-20.508,-22.949,-172.363
1689275105.357,-44.922,-26.367,-25.879,-43.945,-126.953
1689275105.361,-37.109,-31.250,-32.227,-61.035,-117.676
1689275105.365,-36.621,-30.273,-29.297,-23.926,-107.422
1689275105.369,-46.875,-29.297,-27.344,-16.602,187.012
1689275105.372,-61.035,-26.855,-29.785,-57.129,310.547
1689275105.376,-64.453,-24.414,-24.902,-61.035,17.578
1689275105.380,-59.082,-26.855,-24.902,-48.340,-118.652
1689275105.384,-46.387,-22.949,-29.785,-49.316,68.359
1689275105.388,-29.297,-18.066,-31.738,-52.246,94.727
1689275105.390,-27.344,-20.996,-33.203,-44.434,-251.465
1689275105.394,-17.578,-26.367,-29.297,-26.367,-206.543
1689275105.398,-18.066,-29.785,-25.391,-32.715,-107.910
1689275105.402,-40.527,-30.762,-26.855,-31.738,-115.234
1689275105.406,-49.805,-30.762,-24.414,-40.527,-119.629
1689275105.410,-53.711,-30.273,-19.043,-50.293,21.484
1689275105.414,-54.688,-26.855,-17.578,-29.785,240.234
1689275105.417,-51.270,-23.438,-18.066,-43.945,42.969
1689275105.421,-45.898,-16.113,-9.277,-48.340,-139.648
1689275105.425,-47.852,-12.207,-15.625,-32.227,15.625
1689275105.429,-39.551,-13.184,-24.902,-34.180,80.566
1689275105.433,-41.016,-12.207,-23.438,-55.176,-129.395
1689275105.450,-62.500,1.465,-16.602,-66.895,-166.504
1689275105.454,-86.914,4.395,-12.695,-83.008,-46.387
1689275105.458,-113.770,5.859,-21.973,-118.164,-44.434
1689275105.462,-122.070,20.996,-20.996,-142.578,-141.602
1689275105.466,-135.254,30.762,-10.254,-147.461,-106.934
1689275105.470,-166.992,30.762,2.930,-150.391,48.828
1689275105.474,-184.570,27.832,8.301,-182.617,69.336
1689275105.477,-191.895,36.621,13.672,-205.566,-19.043
1689275105.481,-200.684,45.898,14.160,-211.426,-176.270
1689275105.485,-207.031,39.062,6.348,-223.145,75.684
1689275105.489,-213.379,28.320,5.371,-222.656,376.953
1689275105.493,-209.473,27.344,11.230,-210.938,59.570
1689275105.495,-207.031,27.344,7.812,-214.355,-145.996
1689275105.499,-204.102,23.926,5.859,-214.844,-41.016
1689275105.503,-189.941,17.578,4.883,-206.055,-82.520
1689275105.507,-174.316,13.184,3.418,-200.684,-153.809
1689275105.511,-172.363,3.418,0.488,-194.336,-99.121
1689275105.515,-169.922,-7.812,-5.371,-173.340,20.508
1689275105.519,-141.113,-13.184,-14.648,-143.555,-32.715
1689275105.522,-128.418,-21.973,-19.531,-134.277,-203.613
1689275105.526,-121.582,-33.203,-20.996,-132.324,-62.988
1689275105.530,-87.891,-38.086,-24.414,-115.723,200.684
1689275105.534,-83.496,-38.574,-25.391,-112.305,52.246
1689275105.538,-79.590,-43.945,-29.785,-93.750,-131.836
1689275105.541,-58.105,-48.340,-34.668,-39.062,-71.289
1689275105.545,-43.457,-53.711,-37.109,-19.531,21.484
1689275105.549,-30.762,-53.711,-40.039,-24.414,-3.418
1689275105.553,-19.531,-55.664,-43.457,-13.184,-98.633
1689275105.557,-5.859,-60.059,-44.922,1.465,-20.996
1689275105.561,2.930,-56.152,-46.875,5.859,102.539
1689275105.565,6.836,-57.617,-48.828,-2.441,-15.137
1689275105.568,20.020,-62.012,-44.434,16.602,-46.387
1689275105.572,42.969,-62.500,-43.457,33.203,66.895
1689275105.576,47.363,-66.895,-45.410,38.574,-84.961
1689275105.580,35.645,-69.336,-48.828,50.293,-230.469
1689275105.584,34.180,-62.988,-48.340,63.477,-167.969
1689275105.585,43.457,-60.547,-42.969,76.172,148.438
1689275105.589,41.992,-62.988,-45.410,72.266,287.598
1689275105.593,39.062,-64.941,-47.852,61.035,-114.746
1689275105.597,48.340,-64.941,-42.480,46.875,-143.066
1689275105.601,52.246,-62.988,-39.062,56.152,-6.836
1689275105.605,50.781,-57.617,-39.062,62.012,-66.895
1689275105.609,40.527,-53.223,-41.504,43.457,-104.980
1689275105.612,34.668,-50.781,-37.598,50.293,-97.168
1689275105.616,37.109,-48.340,-37.109,60.547,178.223
1689275105.620,27.344,-46.875,-40.039,45.898,20.996
1689275105.624,30.273,-47.852,-39.551,37.598,-225.098
1689275105.628,29.785,-44.922,-35.156,32.715,-91.309
1689275105.630,20.996,-46.875,-30.762,26.855,-127.930
1689275105.634,28.320,-51.758,-31.250,34.180,-218.750
1689275105.638,28.320,-49.316,-32.715,35.645,-238.770
1689275105.642,30.273,-46.387,-26.367,39.062,-162.109
1689275105.646,38.574,-42.480,-24.414,50.781,-83.008
1689275105.650,23.438,-41.992,-29.297,55.176,-40.527
1689275105.654,6.836,-43.457,-32.715,41.992,-75.195
1689275105.657,4.883,-42.969,-37.109,27.344,156.250
1689275105.661,2.930,-43.945,-35.645,30.273,558.105
1689275105.665,-4.883,-44.434,-33.203,19.531,200.195
1689275105.669,10.254,-38.086,-34.180,17.578,-185.547
1689275105.673,29.297,-34.668,-29.785,21.484,-137.207
1689275105.676,14.160,-35.645,-24.902,13.184,-156.250
1689275105.680,1.465,-37.109,-25.879,18.555,-219.727
1689275105.684,-8.301,-37.109,-31.250,-4.395,-122.070
1689275105.688,-17.578,-36.133,-32.227,-11.230,-30.273
1689275105.692,-1.465,-35.645,-35.156,4.395,-148.438
1689275105.696,1.465,-32.715,-36.133,-18.066,-179.688
1689275105.700,-5.371,-30.273,-30.273,-16.113,8.301
1689275105.703,-1.465,-31.250,-29.785,0.977,251.953
1689275105.707,1.465,-32.227,-30.273,-3.418,97.656
1689275105.711,-1.465,-31.738,-23.438,2.441,-118.164
1689275105.715,-16.113,-35.156,-20.996,-0.977,-49.316
1689275105.719,-27.344,-40.527,-25.879,-21.484,44.922
1689275105.720,-25.879,-34.668,-25.879,-29.297,-77.637
1689275105.724,-23.438,-31.250,-22.461,-26.855,-104.492
1689275105.728,-28.809,-29.785,-26.855,-30.273,-77.148
1689275105.732,-30.762,-32.715,-30.762,-32.227,-107.422
1689275105.736,-22.949,-37.598,-28.320,-21.484,-110.840
1689275105.740,-29.297,-37.109,-27.344,-21.973,-91.309
1689275105.744,-41.992,-34.668,-26.855,-13.184,172.363
1689275105.747,-39.551,-34.180,-26.855,-10.254,270.508
1689275105.751,-28.809,-30.273,-24.902,-16.602,-118.652
1689275105.755,-19.531,-26.855,-24.902,-14.160,-272.949
1689275105.759,-14.648,-32.715,-25.879,-21.484,-46.875
1689275105.763,-16.602,-31.738,-22.949,-29.785,57.129
1689275105.766,-13.672,-20.996,-23.438,-32.227,-121.582
1689275105.770,-22.949,-22.461,-30.273,-9.766,-139.648
1689275105.774,-31.250,-27.344,-28.320,-5.859,4.395
1689275105.778,-25.391,-26.367,-28.320,-32.227,-2.441
1689275105.782,-26.367,-25.879,-32.715,-38.086,-98.633
1689275105.786,-16.602,-23.438,-26.855,-33.691,46.875
1689275105.790,-10.254,-23.926,-27.344,-27.344,287.598
1689275105.793,-21.484,-26.367,-30.273,-16.113,115.723
1689275105.797,-24.902,-25.391,-25.879,-23.438,-224.609
1689275105.801,-28.809,-26.367,-23.926,-13.184,-120.605
1689275105.805,-38.574,-29.297,-29.785,-2.441,20.508
1689275105.809,-42.480,-28.320,-29.297,-20.020,-176.270
1689275105.811,-20.996,-35.156,-25.391,-17.578,-236.816
1689275105.815,-17.578,-32.715,-26.367,-30.762,16.113
1689275105.819,-44.434,-25.391,-26.367,-47.852,85.449
1689275105.823,-49.805,-28.320,-28.320,-48.340,-101.074
1689275105.827,-47.852,-25.879,-32.227,-53.223,-149.902
1689275105.831,-32.715,-25.391,-32.227,-29.785,115.723
1689275105.835,-31.738,-28.809,-36.621,-27.344,204.102
1689275105.838,-37.109,-26.855,-37.598,-42.969,75.195
1689275105.842,-34.180,-17.090,-36.133,-39.551,-37.109
1689275105.846,-32.715,-14.160,-38.574,-36.133,81.543
1689275105.850,-12.695,-14.160,-41.992,-41.992,195.801
1689275105.854,-13.184,-15.625,-39.551,-27.832,-145.508
1689275105.870,-38.086,-25.391,-37.109,-13.672,-151.855
1689275105.874,-31.738,-29.785,-37.598,-29.785,-38.086
1689275105.878,-28.809,-28.320,-35.645,-34.180,-89.844
1689275105.882,-32.227,-24.414,-33.691,-33.203,-147.949
1689275105.886,-21.973,-23.926,-33.203,-33.691,-13.184
1689275105.890,-14.160,-25.391,-31.250,-20.996,316.406
1689275105.894,-11.230,-24.414,-32.227,-23.438,137.207
1689275105.897,-18.066,-21.484,-30.762,-32.227,-237.305
1689275105.901,-24.414,-23.438,-29.297,-22.949,-127.930
1689275105.905,-24.902,-27.832,-31.250,-22.949,-8.301
1689275105.909,-26.855,-29.297,-31.250,-29.785,-147.949
1689275105.913,-29.297,-29.785,-31.250,-22.949,-240.723
1689275105.915,-30.762,-30.762,-30.273,-20.996,-22.461
1689275105.919,-28.320,-30.273,-27.344,-26.855,99.609
1689275105.923,-24.902,-28.320,-27.832,-31.738,-152.832
1689275105.927,-31.738,-24.902,-33.691,-31.250,-207.520
1689275105.931,-40.039,-27.344,-34.180,-29.785,-101.074
1689275105.935,-39.062,-28.809,-32.227,-40.039,-45.410
1689275105.939,-35.156,-29.785,-32.715,-47.363,-43.457
1689275105.942,-35.156,-32.227,-32.715,-39.062,-5.859
1689275105.946,-43.457,-33.691,-26.367,-28.320,213.379
1689275105.950,-48.828,-38.086,-23.926,-35.645,528.809
1689275105.954,-49.805,-35.156,-26.367,-38.086,190.918
1689275105.958,-50.781,-32.227,-25.879,-39.551,-225.586
1689275105.960,-49.805,-33.691,-26.855,-41.992,-201.660
1689275105.964,-43.457,-29.785,-29.785,-31.738,-140.137
1689275105.968,-36.621,-25.391,-27.832,-17.578,-140.625
1689275105.972,-39.062,-28.320,-24.902,-22.949,-130.371
1689275105.976,-34.180,-27.344,-25.391,-34.668,-73.730
1689275105.980,-23.926,-24.414,-31.250,-23.926,-18.066
1689275105.984,-32.227,-28.320,-32.227,-12.207,-80.566
1689275105.987,-33.203,-26.855,-29.297,-15.137,-67.871
1689275105.991,-14.648,-24.414,-30.273,-22.949,169.922
1689275105.995,-5.371,-24.902,-29.785,-25.391,27.832
1689275105.999,-18.555,-25.391,-29.297,-17.578,-170.898
1689275106.003,-23.438,-23.926,-33.691,-23.438,-11.719
1689275106.005,-20.020,-24.414,-32.715,-34.180,4.883
1689275106.009,-16.602,-27.832,-24.902,-16.113,-178.711
1689275106.013,-18.066,-25.879,-20.020,-14.648,-147.949
1689275106.017,-42.480,-18.066,-23.438,-50.293,-71.289
1689275106.021,-54.688,-18.555,-33.691,-56.152,-77.148
1689275106.025,-41.504,-25.391,-33.691,-22.949,-34.668
1689275106.029,-41.016,-23.438,-35.156,-15.625,-8.301
1689275106.032,-43.945,-19.043,-36.133,-21.973,216.309
1689275106.036,-50.781,-23.926,-32.227,-27.344,379.395
1689275106.040,-49.316,-24.414,-34.180,-39.062,20.508
1689275106.044,-41.016,-22.461,-33.203,-33.691,-164.062
1689275106.048,-41.992,-24.902,-31.738,-43.945,-44.434
1689275106.050,-38.086,-19.043,-33.691,-46.387,-102.539
1689275106.054,-31.738,-17.090,-34.668,-33.203,-276.855
1689275106.058,-26.367,-22.461,-33.203,-28.809,-194.824
1689275106.062,-20.996,-22.461,-32.715,-39.551,-7.812
1689275106.066,-26.367,-24.902,-35.645,-42.969,-68.848
1689275106.070,-41.016,-25.879,-36.621,-26.855,-162.598
1689275106.074,-49.805,-25.879,-35.156,-23.438,13.184
1689275106.077,-41.992,-28.320,-34.668,-28.809,212.402
1689275106.081,-36.133,-24.902,-35.645,-24.902,37.109
1689275106.085,-42.969,-25.879,-36.621,-25.391,-112.305
1689275106.089,-38.574,-24.902,-34.668,-30.762,-97.656
1689275106.093,-29.785,-26.367,-32.227,-24.414,-131.836
1689275106.096,-21.484,-27.344,-26.367,-21.973,-173.828
1689275106.100,-23.438,-22.461,-22.949,-36.621,-148.438
1689275106.104,-28.809,-24.902,-23.438,-32.227,97.168
1689275106.108,-26.855,-28.809,-26.367,-21.973,68.359
1689275106.112,-32.227,-27.832,-25.391,-30.762,-154.297
1689275106.116,-37.598,-28.809,-23.926,-34.668,-136.230
1689275106.120,-26.367,-27.344,-28.320,-27.832,177.246
1689275106.123,-20.996,-26.367,-31.250,-27.344,365.234
1689275106.127,-22.949,-28.320,-27.832,-29.785,-5.859
1689275106.131,-23.926,-29.297,-27.832,-36.133,-192.871
1689275106.135,-24.902,-24.902,-28.320,-39.062,-10.742
1689275106.139,-24.414,-26.855,-25.879,-30.762,-0.977
1689275106.140,-30.273,-29.785,-24.902,-37.598,-174.805
1689275106.144,-31.738,-26.855,-26.367,-48.828,-128.418
1689275106.148,-31.738,-30.762,-29.785,-44.434,-22.461
1689275106.152,-34.180,-29.785,-32.715,-50.781,-50.781
1689275106.156,-35.645,-25.391,-38.086,-29.297,-65.918
1689275106.160,-30.273,-20.508,-32.227,-10.742,57.129
1689275106.164,-27.832,-22.949,-25.391,-41.992,423.340
1689275106.167,-34.180,-32.227,-29.297,-38.574,255.859
1689275106.171,-25.391,-34.180,-27.344,-18.066,-239.746
1689275106.175,-26.367,-30.273,-28.809,-32.715,-137.695
1689275106.179,-30.762,-27.832,-28.809,-43.457,-88.867
1689275106.183,-29.785,-28.320,-23.926,-36.133,-200.684
1689275106.200,-38.086,-31.250,-26.855,-28.809,-225.586
1689275106.204,-38.086,-28.320,-28.320,-20.020,-153.320
1689275106.208,-36.621,-22.461,-27.832,-21.484,-51.270
1689275106.212,-32.227,-26.367,-33.203,-34.668,-86.426
1689275106.216,-37.109,-28.809,-34.180,-35.156,-161.133
1689275106.220,-45.898,-28.320,-36.133,-40.527,11.719
1689275106.224,-35.156,-25.879,-40.039,-46.387,32.227
1689275106.227,-38.574,-30.273,-35.645,-37.598,-79.590
1689275106.231,-45.898,-34.180,-30.273,-37.598,-71.289
1689275106.235,-40.039,-34.668,-33.203,-41.992,147.461
1689275106.239,-36.133,-36.133,-35.156,-39.062,377.930
1689275106.243,-43.457,-35.645,-31.250,-41.504,1.953
1689275106.246,-46.387,-32.715,-28.809,-51.270,-199.707
1689275106.250,-41.504,-32.715,-31.250,-43.945,-112.793
1689275106.254,-36.621,-35.645,-32.227,-30.273,-143.555
1689275106.258,-24.902,-30.273,-34.180,-33.203,-185.059
1689275106.262,-25.391,-31.250,-38.086,-31.250,-133.789
1689275106.266,-25.391,-37.598,-41.504,-44.922,52.246
1689275106.270,-30.273,-32.715,-40.039,-45.898,103.027
1689275106.273,-43.945,-20.996,-39.551,-43.945,-72.754
1689275106.277,-46.875,-22.949,-39.062,-50.781,-94.727
1689275106.281,-40.527,-26.855,-28.809,-35.156,229.492
1689275106.285,-37.598,-22.949,-23.926,-30.762,116.699
1689275106.289,-24.902,-21.973,-23.926,-28.320,-139.160
1689275106.290,-18.066,-22.461,-20.508,-24.902,-38.086
1689275106.294,-21.484,-20.508,-20.508,-45.898,-43.457
1689275106.298,-19.531,-20.508,-25.391,-46.875,-176.270
1689275106.302,-12.695,-26.855,-26.855,-26.855,-181.152
1689275106.306,-18.555,-29.785,-26.855,-25.879,-94.238
1689275106.310,-27.832,-20.508,-25.391,-31.250,29.785
1689275106.314,-32.227,-19.531,-27.832,-29.297,70.801
1689275106.317,-37.598,-25.879,-31.738,-35.156,-86.426
1689275106.321,-42.969,-27.832,-28.809,-32.715,78.613
1689275106.325,-43.945,-28.809,-25.879,-39.062,317.383
1689275106.329,-37.598,-23.926,-20.508,-43.457,-6.348
1689275106.333,-29.297,-20.996,-24.902,-29.297,-184.082
1689275106.335,-25.879,-23.438,-24.902,-23.926,-110.352
1689275106.339,-23.926,-23.438,-21.484,-19.043,-154.297
1689275106.343,-23.926,-22.949,-25.391,-22.461,-157.715
1689275106.347,-26.855,-22.461,-22.949,-14.160,-37.598
1689275106.351,-31.738,-22.949,-19.043,-9.277,6.836
1689275106.355,-32.227,-24.414,-20.996,-34.180,-56.152
1689275106.359,-21.484,-22.949,-25.879,-36.621,-36.133
1689275106.362,-32.715,-24.414,-29.785,-43.457,16.602
1689275106.366,-41.504,-25.391,-30.762,-55.176,225.098
1689275106.370,-34.668,-21.484,-33.691,-49.805,66.406
1689275106.374,-33.203,-23.438,-35.645,-42.969,-217.285
1689275106.378,-30.273,-26.855,-30.762,-32.715,-173.828
1689275106.381,-24.902,-23.438,-27.832,-33.691,-123.535
1689275106.385,-23.926,-26.367,-31.738,-41.992,-152.832
1689275106.389,-25.391,-28.320,-33.203,-47.852,-135.742
1689275106.393,-26.855,-21.484,-31.738,-46.875,32.227
1689275106.397,-27.832,-25.391,-31.250,-50.293,18.066
1689275106.401,-25.879,-25.879,-27.832,-48.828,-33.203
1689275106.405,-38.086,-20.020,-24.902,-28.809,-59.570
1689275106.408,-42.480,-25.879,-27.344,-20.996,141.113
1689275106.412,-38.574,-34.180,-30.762,-39.062,403.320
1689275106.416,-36.133,-34.180,-30.762,-38.086,4.395
1689275106.420,-31.738,-33.691,-28.320,-25.391,-173.828
1689275106.424,-34.180,-31.738,-28.809,-21.484,-70.801
1689275106.426,-27.344,-32.227,-25.879,-22.949,-129.883
1689275106.430,-28.809,-30.762,-22.461,-28.320,-199.219
1689275106.434,-40.527,-30.762,-23.926,-27.832,-146.973
1689275106.438,-41.504,-32.227,-27.832,-38.574,-84.473
1689275106.442,-35.156,-30.273,-29.297,-41.016,-63.965
1689275106.446,-35.156,-27.832,-30.273,-28.809,-42.480
1689275106.450,-35.645,-29.785,-33.203,-34.180,4.883
1689275106.453,-35.645,-31.250,-30.762,-31.250,384.277
1689275106.457,-35.645,-27.344,-29.785,-34.668,240.234
1689275106.461,-28.809,-22.461,-28.320,-52.734,-195.312
1689275106.465,-26.367,-20.020,-24.414,-35.156,-118.164
1689275106.469,-24.414,-20.020,-25.879,-17.090,-102.051
1689275106.473,-33.691,-24.414,-24.902,-25.391,-165.527
1689275106.477,-34.180,-28.320,-27.344,-34.180,-141.602
1689275106.481,-35.645,-27.344,-32.715,-24.414,-34.668
1689275106.485,-45.410,-31.738,-36.133,-25.391,-62.012
1689275106.489,-45.898,-31.250,-37.598,-50.293,-125.977
1689275106.493,-51.758,-28.320,-33.691,-58.594,-107.910
1689275106.497,-51.270,-26.855,-29.297,-44.434,177.246
1689275106.500,-36.621,-26.367,-29.297,-31.250,311.523
1689275106.504,-34.180,-28.809,-33.691,-35.156,8.301
1689275106.508,-42.480,-26.367,-29.785,-29.785,-71.777
1689275106.512,-41.016,-28.809,-25.391,-26.367,-73.730
1689275106.516,-36.621,-35.156,-29.785,-33.691,-107.422
1689275106.515,-35.645,-32.715,-31.738,-44.922,-192.383
1689275106.519,-34.668,-25.391,-29.785,-52.734,-143.555
1689275106.523,-37.598,-21.973,-25.879,-38.086,9.277
1689275106.527,-41.016,-20.508,-26.367,-35.645,-37.598
1689275106.531,-38.574,-21.973,-28.809,-43.945,-164.551
1689275106.535,-35.645,-28.809,-30.273,-48.828,-33.691
1689275106.539,-21.973,-31.250,-32.715,-48.828,400.391
1689275106.542,-20.020,-30.762,-32.227,-32.227,357.422
1689275106.546,-30.762,-34.180,-29.297,-16.113,-127.441
1689275106.550,-31.250,-31.250,-31.738,-16.602,-148.926
1689275106.554,-31.250,-24.902,-33.203,-35.645,-48.828
1689275106.558,-31.738,-24.902,-28.320,-50.293,-176.758
1689275106.575,-31.250,-29.785,-29.785,-53.223,-250.000
1689275106.579,-29.297,-34.668,-33.203,-52.246,-201.660
1689275106.583,-29.785,-36.133,-30.273,-47.852,-172.852
1689275106.587,-40.527,-30.273,-31.250,-46.387,-208.496
1689275106.591,-43.945,-28.320,-31.738,-50.781,-175.781
1689275106.595,-43.457,-29.785,-33.691,-45.410,8.789
1689275106.599,-41.992,-28.809,-34.180,-30.273,19.043
1689275106.602,-30.762,-25.879,-28.320,-35.156,-159.180
1689275106.606,-25.391,-29.297,-20.508,-33.691,-247.070
1689275106.610,-25.879,-36.133,-21.484,-13.184,29.785
1689275106.614,-26.367,-34.668,-24.902,-17.090,264.160
1689275106.618,-20.508,-29.297,-23.926,-39.551,-108.887
1689275106.621,-18.555,-24.414,-24.414,-31.250,-206.543
1689275106.625,-18.066,-28.320,-25.879,-22.461,-95.703
1689275106.629,-18.066,-32.715,-30.762,-25.879,-144.531
1689275106.633,-23.926,-28.809,-29.785,-14.648,-204.102
1689275106.637,-33.203,-27.344,-27.344,-12.207,-147.461
1689275106.641,-45.898,-26.855,-28.320,-32.227,-19.043
1689275106.645,-52.734,-26.367,-27.344,-32.715,-14.648
1689275106.648,-47.363,-21.484,-28.320,-25.391,-107.422
1689275106.652,-40.527,-17.578,-24.902,-32.227,-86.426
1689275106.656,-45.410,-22.461,-28.320,-28.809,198.730
1689275106.660,-46.875,-27.344,-38.574,-38.086,83.496
1689275106.664,-32.715,-32.227,-42.480,-43.945,-139.648
1689275106.666,-29.785,-30.273,-39.551,-22.461,-43.457
1689275106.670,-45.898,-24.414,-38.574,-27.344,-36.133
1689275106.674,-47.852,-21.973,-37.109,-45.410,-136.719
1689275106.678,-41.992,-22.949,-32.715,-48.828,-161.621
1689275106.682,-43.457,-24.902,-33.203,-50.293,-39.551
1689275106.686,-41.016,-29.297,-31.738,-41.504,178.223
1689275106.690,-33.203,-32.227,-28.809,-42.480,149.902
1689275106.693,-23.438,-32.715,-27.832,-46.875,-10.254
1689275106.697,-30.762,-30.273,-30.273,-41.016,150.879
1689275106.701,-42.969,-31.738,-31.738,-32.715,486.328
1689275106.705,-47.363,-34.180,-31.738,-34.668,245.117
1689275106.709,-43.457,-23.438,-34.180,-42.969,-112.793
1689275106.710,-32.227,-19.043,-29.785,-30.273,-98.145
1689275106.714,-23.438,-25.391,-27.832,-27.832,-146.973
1689275106.718,-22.461,-25.879,-29.297,-25.391,-220.703
1689275106.722,-32.227,-26.367,-28.809,-19.531,-114.746
1689275106.726,-31.738,-28.809,-34.180,-22.949,-19.531
1689275106.730,-22.949,-31.250,-41.504,-17.578,-76.660
1689275106.734,-26.367,-27.344,-38.574,-20.996,-63.965
1689275106.737,-38.574,-22.949,-32.227,-31.738,17.578
1689275106.741,-42.480,-21.973,-29.785,-26.367,291.504
1689275106.745,-41.992,-18.066,-30.273,-15.137,186.035
1689275106.749,-34.180,-23.926,-30.273,-26.855,-154.297
1689275106.753,-30.273,-27.344,-31.250,-48.828,-45.898
1689275106.755,-38.574,-30.273,-31.738,-51.270,-10.254
1689275106.759,-31.738,-34.668,-31.250,-32.227,-108.398
1689275106.763,-18.066,-29.785,-30.273,-12.695,-120.117
1689275106.767,-13.184,-20.020,-28.320,-3.418,25.879
1689275106.771,-21.973,-20.020,-31.738,-20.020,6.836
1689275106.775,-33.203,-25.879,-29.297,-34.180,-162.109
1689275106.779,-32.715,-25.391,-28.320,-35.156,-134.277
1689275106.782,-21.484,-32.715,-31.250,-28.320,118.652
1689275106.786,-26.367,-32.227,-28.809,-8.301,526.367
1689275106.790,-41.992,-24.414,-28.320,-11.719,230.957
1689275106.794,-33.203,-23.438,-27.344,-31.738,-216.309
1689275106.798,-38.574,-23.438,-26.855,-33.691,-171.387
1689275106.800,-40.527,-23.438,-24.902,-26.855,-155.273
1689275106.804,-33.691,-25.879,-22.461,-41.504,-179.199
1689275106.808,-41.992,-28.320,-26.855,-50.781,-174.316
1689275106.812,-46.875,-30.762,-27.832,-41.992,-130.371
1689275106.816,-39.062,-31.250,-26.855,-25.879,-129.883
1689275106.820,-26.855,-29.785,-32.227,-21.484,-90.820
1689275106.824,-35.645,-26.855,-30.273,-37.109,69.336
1689275106.827,-36.621,-25.879,-27.344,-16.602,265.137
1689275106.831,-26.855,-28.809,-31.250,-4.883,24.414
1689275106.835,-34.180,-25.391,-36.621,-26.367,-250.977
1689275106.839,-41.504,-24.902,-35.156,-25.391,20.996
1689275106.843,-35.156,-24.902,-29.297,-20.020,147.949
1689275106.845,-29.785,-24.414,-27.344,-18.555,-119.141
1689275106.849,-26.367,-27.832,-28.809,-13.184,-166.504
1689275106.853,-30.273,-31.250,-32.227,-30.762,-93.750
1689275106.857,-32.227,-31.250,-31.250,-37.598,-108.887
1689275106.861,-29.297,-30.762,-27.344,-13.184,-144.043
1689275106.865,-31.738,-28.809,-27.344,-14.160,-113.281
1689275106.869,-39.551,-27.344,-30.762,-29.785,149.414
1689275106.872,-37.598,-29.297,-30.762,-29.785,332.520
1689275106.876,-26.367,-29.297,-27.832,-18.066,16.602
1689275106.880,-35.645,-27.344,-24.902,-14.160,-147.949
1689275106.884,-40.527,-25.391,-24.902,-29.785,-12.695
1689275106.888,-22.949,-22.461,-23.926,-27.344,-58.105
1689275106.891,-34.668,-26.367,-26.367,-41.016,-132.812
1689275106.895,-52.246,-28.320,-32.715,-51.270,-63.965
1689275106.899,-48.340,-25.879,-30.273,-41.504,-19.043
1689275106.903,-42.969,-25.879,-28.809,-30.273,-38.086
1689275106.907,-42.969,-23.926,-29.297,-28.809,-171.875
1689275106.911,-40.527,-27.832,-29.785,-32.227,-67.871
1689275106.915,-32.715,-28.320,-32.227,-18.066,236.816
1689275106.918,-42.969,-21.484,-33.691,-38.574,70.801
1689275106.922,-41.016,-20.996,-31.250,-41.504,-201.660
1689275106.926,-46.387,-24.902,-27.832,-40.527,-55.176
1689275106.930,-59.082,-29.785,-24.414,-53.711,43.945
1689275106.934,-58.594,-27.344,-26.367,-56.641,-134.766
1689275106.950,-47.852,-26.855,-28.809,-42.969,-125.000
1689275106.954,-33.203,-28.320,-23.926,-35.645,-56.152
1689275106.958,-33.691,-18.555,-24.414,-35.156,-95.703
1689275106.962,-37.109,-20.020,-27.832,-28.320,-81.055
1689275106.966,-39.551,-28.809,-26.855,-38.574,-114.746
1689275106.970,-35.645,-26.855,-22.461,-28.809,63.477
1689275106.974,-40.039,-24.414,-25.391,-16.113,268.066
1689275106.977,-55.664,-25.879,-30.762,-40.039,-1.953
1689275106.981,-58.594,-28.320,-31.738,-54.199,-202.148
1689275106.985,-56.152,-32.227,-34.668,-48.340,33.691
1689275106.989,-55.664,-30.762,-36.621,-33.203,181.152
1689275106.993,-48.340,-25.879,-37.598,-31.738,-92.285
1689275106.996,-41.992,-25.879,-38.086,-50.781,-145.996
1689275107.000,-44.434,-25.879,-34.668,-48.340,-99.609
1689275107.004,-48.340,-31.250,-35.645,-38.086,-110.840
1689275107.008,-44.434,-34.180,-32.227,-35.645,-138.672
1689275107.012,-45.898,-34.180,-27.344,-29.785,-52.246
1689275107.016,-50.781,-37.109,-28.809,-39.551,109.375
1689275107.020,-38.574,-34.668,-34.668,-46.875,51.758
1689275107.023,-34.180,-29.785,-32.715,-41.992,-66.406
1689275107.027,-45.410,-29.785,-35.156,-40.039,-104.492
1689275107.031,-44.434,-24.902,-38.574,-34.668,193.848
1689275107.035,-40.527,-24.414,-34.668,-29.297,104.980
1689275107.039,-37.109,-24.902,-28.809,-25.391,-315.430
1689275107.041,-34.668,-24.414,-28.809,-24.414,-276.855
1689275107.045,-29.297,-24.902,-29.785,-32.715,-187.012
1689275107.049,-26.367,-25.879,-27.344,-24.902,-184.570
1689275107.053,-26.367,-26.367,-29.297,-48.340,-176.758
1689275107.057,-39.062,-23.438,-28.809,-74.219,-157.227
1689275107.061,-44.434,-25.879,-26.855,-44.434,-73.242
1689275107.065,-40.527,-25.391,-33.203,-38.086,8.301
1689275107.068,-47.363,-24.902,-38.086,-48.828,-68.359
1689275107.072,-47.852,-24.902,-32.227,-43.457,87.402
1689275107.076,-41.016,-27.832,-30.762,-39.062,466.797
1689275107.080,-31.250,-29.785,-32.227,-37.109,167.480
1689275107.084,-40.527,-28.809,-31.250,-32.715,-248.535
1689275107.085,-53.223,-28.320,-32.227,-44.434,-177.246
1689275107.089,-44.922,-26.855,-30.273,-59.082,-175.781
1689275107.093,-32.715,-25.391,-27.344,-64.453,-244.629
1689275107.097,-26.855,-19.043,-26.855,-43.457,-183.105
1689275107.101,-27.832,-16.602,-25.391,-13.184,-65.430
1689275107.105,-29.297,-17.578,-27.832,-11.230,-72.266
1689275107.109,-35.156,-22.949,-30.762,-27.344,-18.555
1689275107.112,-28.809,-28.809,-28.320,-40.527,19.531
1689275107.116,-27.832,-29.297,-29.785,-32.227,112.793
1689275107.120,-31.738,-32.227,-29.297,-35.156,-12.695
1689275107.124,-34.668,-32.715,-25.391,-39.062,-174.805
1689275107.128,-40.527,-29.297,-27.344,-43.945,31.738
1689275107.130,-37.109,-31.738,-28.809,-47.363,41.992
1689275107.134,-37.109,-36.133,-31.738,-40.527,-156.250
1689275107.138,-35.645,-32.227,-31.738,-37.598,-183.594
1689275107.142,-33.691,-35.156,-30.273,-33.203,-100.098
1689275107.146,-36.133,-41.504,-29.297,-29.297,-73.730
1689275107.150,-40.039,-35.156,-28.320,-34.668,-46.875
1689275107.154,-36.133,-32.227,-29.297,-29.297,8.789
1689275107.157,-34.668,-39.062,-32.227,-26.367,252.441
1689275107.161,-28.320,-41.016,-37.109,-29.785,309.570
1689275107.165,-23.438,-30.273,-44.434,-26.367,-79.102
1689275107.169,-45.410,-29.785,-41.016,-35.645,-220.215
1689275107.173,-66.406,-45.410,-26.855,-39.062,53.711
1689275107.176,-57.617,-45.410,-25.391,-20.508,131.348
1689275107.180,-46.875,-34.668,-29.297,-20.996,-179.199
1689275107.184,-48.828,-35.645,-28.809,-18.066,-176.758
1689275107.188,-41.016,-42.969,-25.879,-6.348,-47.852
1689275107.192,-30.762,-39.062,-25.391,-16.602,-71.289
1689275107.196,-28.809,-34.180,-30.273,-37.109,-110.840
1689275107.200,-27.344,-35.645,-25.879,-33.203,2.441
1689275107.203,-28.809,-36.621,-19.531,-19.043,276.855
1689275107.207,-25.879,-33.691,-24.902,-23.438,121.582
1689275107.211,-20.996,-30.762,-28.809,-31.738,-196.289
1689275107.215,-12.207,-33.691,-28.320,-23.438,-133.789
1689275107.219,-7.324,-35.156,-30.273,-41.504,-103.516
1689275107.220,-14.648,-35.645,-28.809,-45.898,-155.273
1689275107.224,-13.672,-31.250,-31.738,-20.508,-136.230
1689275107.228,-11.230,-27.832,-29.297,-5.371,-129.395
1689275107.232,-20.508,-30.762,-14.648,2.441,-95.215
1689275107.236,-43.457,-34.180,-13.184,-8.789,-13.672
1689275107.240,-51.270,-37.109,-12.695,-36.621,19.531
1689275107.244,-48.828,-38.574,-9.277,-35.645,188.477
1689275107.247,-52.246,-41.016,-12.695,-21.973,527.832
