timestamps,TP9,AF7,AF8,TP10,Right AUX
1690054054.392,15.137,-25.879,-20.996,-18.555,-123.047
1690054054.396,30.273,-21.484,-22.949,39.551,137.207
1690054054.400,-27.832,-20.996,-30.273,-3.418,71.777
1690054054.404,-101.074,-24.902,-32.227,-96.191,-158.203
1690054054.408,-83.984,-25.391,-30.762,-100.098,-226.562
1690054054.412,-0.977,-25.391,-27.344,-27.344,145.020
1690054054.416,30.273,-24.902,-18.555,30.273,369.629
1690054054.419,-17.578,-22.461,-18.066,14.648,69.824
1690054054.423,-98.145,-30.273,-22.461,-71.777,-151.367
1690054054.427,-95.703,-39.062,-20.508,-100.098,-66.895
1690054054.431,-7.812,-31.250,-17.090,-36.133,-68.359
1690054054.435,43.945,-25.391,-17.578,38.086,-123.535
1690054054.438,-95.215,-28.809,-33.203,-67.383,-78.613
1690054054.442,-102.051,-33.691,-33.691,-106.934,-250.000
1690054054.446,-24.414,-31.738,-26.855,-42.480,-166.504
1690054054.450,34.180,-30.762,-23.438,29.297,186.035
1690054054.454,2.441,-36.133,-24.414,14.648,202.637
1690054054.458,-88.379,-35.156,-33.203,-70.312,-41.504
1690054054.461,-103.516,-37.598,-39.551,-110.840,-147.949
1690054054.465,-14.160,-37.109,-36.133,-53.223,-81.543
1690054054.469,53.711,-30.762,-34.180,33.691,367.676
1690054054.473,27.832,-25.879,-28.320,40.039,318.359
1690054054.477,-59.082,-25.391,-25.879,-42.480,-147.461
1690054054.481,-97.168,-28.320,-25.391,-106.445,-223.145
1690054054.485,-27.344,-31.738,-28.809,-58.105,-226.074
1690054054.489,54.688,-33.691,-29.785,33.203,-200.195
1690054054.493,29.785,-35.156,-20.996,38.086,-62.012
1690054054.497,-62.012,-36.621,-21.484,-39.551,-39.062
1690054054.501,-107.422,-36.621,-25.879,-106.445,-105.957
1690054054.505,-50.293,-34.668,-24.902,-72.266,-83.984
1690054054.508,40.039,-27.344,-21.973,16.602,15.137
1690054054.512,29.297,-30.273,-20.508,38.574,340.332
1690054054.516,-68.848,-30.762,-27.832,-20.508,339.844
1690054054.520,-120.117,-30.273,-25.879,-91.797,-203.125
1690054054.524,-54.199,-32.227,-26.855,-73.730,-268.066
1690054054.524,33.203,-29.297,-27.832,0.977,-99.121
1690054054.528,37.598,-26.855,-19.043,34.668,-76.660
1690054054.532,-35.645,-24.902,-20.996,-6.836,-56.152
1690054054.536,-103.516,-34.180,-26.855,-89.844,-93.750
1690054054.540,-68.848,-39.062,-26.855,-84.473,-118.164
1690054054.544,20.508,-34.180,-27.832,2.441,-12.695
1690054054.548,38.574,-32.227,-30.273,41.992,83.008
1690054054.551,-32.227,-33.691,-27.832,-7.324,114.746
1690054054.555,-110.840,-37.598,-28.320,-93.750,372.559
1690054054.559,-83.496,-34.668,-32.227,-99.609,256.836
1690054054.563,9.766,-26.367,-27.344,-15.137,-166.016
1690054054.567,43.457,-24.902,-26.855,42.480,-101.562
1690054054.570,-20.508,-22.461,-25.879,8.789,-82.031
1690054054.574,-90.820,-24.902,-26.855,-73.242,-258.789
1690054054.578,-67.383,-32.227,-28.809,-94.727,-322.754
1690054054.582,16.113,-30.762,-24.902,-21.973,-221.680
1690054054.586,59.570,-31.250,-22.461,37.109,-116.699
1690054054.590,11.230,-28.320,-22.949,19.531,11.230
1690054054.594,-60.059,-25.391,-21.484,-53.711,14.648
1690054054.597,-57.617,-26.855,-19.043,-82.520,88.379
1690054054.601,17.090,-24.902,-16.602,-20.996,106.445
1690054054.605,68.848,-22.949,-18.555,43.945,-140.625
1690054054.609,21.484,-23.438,-17.578,37.598,-73.242
1690054054.613,-73.242,-23.926,-16.113,-42.969,-1.953
1690054054.614,-94.238,-27.832,-19.531,-89.355,-230.469
1690054054.618,-18.555,-28.809,-19.043,-26.855,-290.039
1690054054.622,38.086,-28.809,-17.578,50.293,-50.781
1690054054.626,0.488,-27.344,-24.414,43.945,71.777
1690054054.630,-73.730,-25.879,-31.738,-39.062,-50.293
1690054054.634,-88.379,-30.762,-27.344,-97.656,-129.883
1690054054.638,-20.508,-24.902,-25.391,-44.434,59.570
1690054054.641,58.594,-22.461,-23.926,45.898,537.598
1690054054.645,38.086,-25.879,-17.090,48.340,388.184
1690054054.649,-63.965,-31.738,-20.996,-33.203,-114.746
1690054054.653,-99.609,-35.645,-24.902,-94.238,-175.781
1690054054.657,-30.762,-31.250,-22.461,-57.129,-168.945
1690054054.677,49.805,-24.414,-19.531,31.250,-161.133
1690054054.681,43.945,-26.367,-20.508,52.246,-24.414
1690054054.685,-41.992,-30.273,-29.785,-14.648,90.820
1690054054.689,-90.332,-29.297,-36.133,-93.750,-61.523
1690054054.693,-35.645,-32.227,-36.621,-70.801,-252.930
1690054054.697,40.527,-35.156,-29.297,19.531,-124.023
1690054054.701,33.691,-32.715,-27.832,52.246,259.766
1690054054.704,-49.805,-37.598,-32.227,-15.625,186.523
1690054054.708,-112.305,-40.527,-31.250,-103.027,-252.930
1690054054.712,-77.148,-36.133,-29.785,-93.262,-247.559
1690054054.716,15.625,-31.738,-26.367,-4.883,-103.027
1690054054.720,38.086,-28.320,-28.809,44.434,-74.219
1690054054.704,-42.969,-31.250,-28.809,-9.766,-99.609
1690054054.708,-111.816,-33.203,-29.297,-105.469,-95.215
1690054054.712,-82.031,-35.645,-32.715,-110.352,-120.605
1690054054.716,6.836,-35.156,-31.738,-20.996,-76.660
1690054054.720,40.039,-32.227,-31.738,36.621,85.449
1690054054.724,-26.367,-38.086,-34.668,3.418,260.742
1690054054.728,-101.562,-37.598,-35.156,-79.590,153.320
1690054054.731,-72.266,-29.297,-32.227,-98.145,-163.086
1690054054.735,18.066,-30.273,-32.227,-18.066,-177.734
1690054054.739,51.270,-33.691,-28.809,49.316,42.969
1690054054.743,-3.418,-32.715,-28.809,33.691,437.500
1690054054.747,-84.473,-34.668,-35.156,-62.012,267.578
1690054054.764,-82.031,-38.086,-35.645,-105.469,-210.449
1690054054.768,2.441,-43.457,-32.227,-37.109,-215.820
1690054054.772,62.988,-40.039,-31.738,29.297,-117.188
1690054054.776,13.672,-36.621,-34.180,16.602,-105.469
1690054054.780,-87.402,-37.598,-31.250,-62.012,-153.809
1690054054.784,-94.727,-38.086,-27.344,-88.867,-99.609
1690054054.788,-5.371,-34.668,-25.391,-22.949,-53.223
1690054054.791,45.410,-33.203,-28.320,46.387,-3.906
1690054054.795,3.906,-32.227,-28.809,39.551,9.766
1690054054.799,-73.730,-31.738,-30.273,-31.738,152.344
1690054054.803,-97.168,-33.203,-36.133,-94.238,93.750
1690054054.807,-28.320,-40.039,-30.762,-55.664,-300.293
1690054054.809,53.711,-46.387,-25.879,49.805,-214.844
1690054054.813,25.879,-41.504,-29.297,47.852,-73.730
1690054054.817,-85.449,-37.598,-37.598,-61.035,-137.207
1690054054.821,-126.953,-34.668,-42.480,-132.324,-276.367
1690054054.825,-41.504,-34.180,-36.133,-78.613,-41.504
1690054054.829,45.410,-35.156,-34.180,14.648,268.066
1690054054.833,23.926,-33.691,-40.527,29.297,128.418
1690054054.836,-59.082,-31.738,-44.434,-42.480,-45.898
1690054054.840,-101.074,-24.902,-39.551,-108.887,-54.199
1690054054.844,-44.922,-18.555,-38.574,-83.008,-30.762
1690054054.848,36.133,-20.996,-41.992,-1.465,-111.328
1690054054.852,35.156,-24.902,-40.039,27.344,-100.586
1690054054.855,-55.176,-28.320,-37.109,-41.016,97.168
1690054054.859,-120.605,-29.785,-36.621,-103.516,184.082
1690054054.863,-63.477,-28.809,-35.645,-83.008,-182.617
1690054054.867,23.438,-28.809,-32.715,0.488,-238.770
1690054054.871,24.902,-29.297,-29.297,47.363,-55.664
1690054054.875,-45.410,-27.832,-30.273,-2.930,-11.719
1690054054.879,-112.305,-30.273,-34.668,-91.309,-65.918
1690054054.882,-88.867,-34.668,-34.668,-95.703,-180.176
1690054054.886,6.836,-31.738,-32.227,-4.395,123.535
1690054054.890,34.668,-24.414,-24.902,41.504,261.719
1690054054.894,-43.457,-26.855,-28.809,-14.160,-95.215
1690054054.898,-115.723,-36.133,-40.527,-91.797,-85.938
1690054054.898,-95.703,-41.992,-41.504,-104.492,-31.250
1690054054.902,-5.859,-39.062,-35.645,-39.551,-124.023
1690054054.906,32.715,-34.668,-30.762,25.879,-78.125
1690054054.910,-30.762,-39.551,-30.273,7.812,-3.418
1690054054.914,-105.469,-41.016,-31.738,-74.707,-16.113
1690054054.918,-91.309,-37.109,-27.832,-102.051,-99.121
1690054054.922,-1.953,-35.645,-24.414,-22.949,-54.688
1690054054.925,55.176,-30.273,-26.855,58.594,114.258
1690054054.929,3.906,-28.320,-25.879,38.086,424.316
1690054054.933,-89.355,-31.738,-24.902,-65.430,178.223
1690054054.937,-90.332,-31.250,-25.879,-103.027,-284.180
1690054054.941,-6.836,-28.320,-20.508,-31.738,-193.848
1690054054.947,41.504,-27.832,-20.996,35.156,-86.914
1690054054.951,5.859,-29.297,-21.973,25.879,-62.500
1690054054.955,-82.520,-29.297,-21.973,-58.594,-107.910
1690054054.959,-110.840,-30.762,-24.414,-108.887,-113.281
1690054054.963,-29.785,-34.180,-25.879,-57.129,-85.449
1690054054.967,44.434,-34.668,-23.438,20.020,-52.734
1690054054.971,6.836,-32.715,-21.484,32.227,34.180
1690054054.974,-76.660,-34.668,-23.926,-37.598,202.148
1690054054.978,-105.469,-32.715,-21.973,-95.703,18.555
1690054054.982,-39.551,-26.855,-22.461,-63.965,-309.082
1690054054.986,34.668,-27.832,-18.066,17.090,-131.836
1690054054.990,22.949,-26.367,-13.672,45.410,21.484
1690054054.989,-63.477,-26.367,-23.926,-29.297,-90.332
1690054054.993,-111.328,-29.785,-28.320,-104.492,-207.520
1690054054.997,-44.434,-28.809,-27.344,-72.266,-158.203
1690054055.001,43.457,-21.484,-25.391,15.625,-49.316
1690054055.005,40.039,-20.020,-25.879,38.574,83.984
1690054055.009,-45.898,-18.555,-28.320,-24.902,127.441
1690054055.013,-102.051,-16.602,-26.367,-104.492,76.172
1690054055.016,-45.410,-27.832,-23.926,-76.172,382.324
1690054055.020,41.016,-34.668,-20.508,7.812,334.473
1690054055.024,38.574,-30.762,-20.996,33.691,-71.777
1690054055.028,-41.504,-29.297,-21.484,-8.789,-84.961
1690054055.032,-101.562,-35.645,-26.855,-94.727,-166.504
1690054055.035,-59.082,-40.527,-31.738,-95.215,-308.594
1690054055.039,22.949,-34.180,-34.668,-2.441,-242.676
1690054055.043,35.645,-29.785,-35.156,45.410,-105.469
1690054055.047,-30.762,-34.668,-31.738,-4.883,-110.352
1690054055.051,-103.027,-38.574,-33.203,-87.891,-239.746
1690054055.055,-76.660,-37.109,-33.691,-95.215,-227.539
1690054055.059,15.137,-35.156,-33.691,-19.531,231.445
1690054055.062,40.527,-35.645,-33.203,39.551,417.480
1690054055.066,-30.273,-36.621,-32.715,5.859,33.203
1690054055.070,-104.980,-31.250,-36.133,-82.031,-131.836
1690054055.074,-76.172,-30.273,-31.738,-97.168,-125.000
1690054055.078,14.160,-28.320,-23.438,-26.855,-122.559
1690054055.079,60.059,-21.973,-27.344,40.527,-110.352
1690054055.083,8.301,-25.879,-32.227,17.090,-46.875
1690054055.087,-81.543,-32.715,-34.668,-80.566,-76.172
1690054055.091,-88.379,-34.180,-40.527,-109.375,-207.031
1690054055.095,-7.812,-33.203,-38.574,-39.062,-138.672
1690054055.099,40.527,-32.715,-32.715,35.645,144.043
1690054055.103,-16.113,-34.668,-31.250,13.672,535.645
1690054055.106,-97.168,-34.180,-35.156,-75.684,229.004
1690054055.110,-98.145,-34.180,-40.039,-113.281,-313.477
1690054055.114,-27.832,-37.598,-40.039,-58.594,-17.578
1690054055.118,42.969,-41.992,-38.574,20.020,112.793
1690054055.122,19.043,-41.016,-32.715,22.461,-106.934
1690054055.154,-70.312,-41.016,-33.203,-53.223,-186.523
1690054055.158,-102.539,-42.969,-31.250,-104.980,-251.465
1690054055.162,-37.109,-40.039,-24.902,-53.223,-215.820
1690054055.166,35.156,-38.574,-25.879,29.297,-142.090
1690054055.170,20.508,-36.133,-21.973,42.480,-37.598
1690054055.174,-65.430,-43.457,-25.391,-39.551,95.215
1690054055.178,-105.957,-47.852,-32.715,-107.422,78.613
1690054055.181,-31.250,-42.480,-29.297,-60.059,-116.699
1690054055.185,47.363,-41.992,-29.297,20.996,-152.832
1690054055.189,37.109,-41.992,-29.297,48.340,212.402
1690054055.193,-43.457,-38.086,-27.832,-19.043,161.133
1690054055.197,-94.727,-32.227,-28.809,-97.168,-221.191
1690054055.184,-43.945,-28.809,-23.926,-64.941,-180.176
1690054055.188,34.668,-30.762,-23.438,13.184,21.973
1690054055.192,39.062,-24.902,-30.273,37.598,19.043
1690054055.196,-36.133,-25.879,-29.297,-16.602,-121.582
1690054055.200,-103.516,-35.645,-28.809,-97.168,-8.789
1690054055.204,-60.547,-33.203,-36.133,-88.867,104.004
1690054055.208,27.344,-32.715,-41.016,-7.812,-27.832
1690054055.211,43.945,-33.691,-37.109,39.551,54.688
1690054055.215,-23.438,-28.320,-31.250,-2.930,137.695
1690054055.219,-104.492,-30.762,-31.738,-96.191,-70.312
1690054055.223,-82.031,-39.062,-37.598,-106.934,-279.297
1690054055.227,11.719,-37.109,-34.180,-26.367,-244.629
1690054055.232,36.133,-34.668,-28.809,34.180,59.570
1690054055.236,-28.809,-34.668,-31.738,-4.395,349.609
1690054055.240,-108.887,-33.203,-32.715,-97.168,52.246
1690054055.244,-93.750,-34.180,-29.785,-107.422,-251.465
1690054055.248,0.488,-36.621,-27.344,-30.762,-55.664
1690054055.252,38.086,-39.551,-28.809,23.438,75.684
1690054055.256,-19.531,-45.410,-36.133,-0.488,-22.949
1690054055.259,-62.012,-44.434,-39.062,-48.340,-157.715
1690054055.263,-71.289,-43.945,-36.133,-90.332,-83.496
1690054055.267,-54.688,-45.410,-34.668,-78.613,-1.465
1690054055.271,13.672,-40.039,-26.367,4.395,-142.578
1690054055.275,-20.020,-41.016,-27.832,6.836,-82.031
1690054055.274,-121.582,-39.551,-39.062,-93.262,9.277
1690054055.278,-128.906,-41.992,-36.133,-146.973,-159.180
1690054055.282,-54.688,-44.922,-27.344,-87.402,-226.074
1690054055.286,13.672,-47.852,-27.344,5.859,-32.715
1690054055.290,-27.832,-48.828,-31.738,4.883,90.332
1690054055.294,-127.441,-41.504,-31.250,-90.332,-4.395
1690054055.298,-140.625,-40.039,-32.715,-144.043,-117.188
1690054055.301,-61.523,-42.969,-35.156,-88.379,39.551
1690054055.305,13.184,-37.598,-29.297,3.906,503.906
1690054055.309,-9.766,-33.691,-25.391,17.090,396.484
1690054055.313,-102.539,-39.062,-28.320,-71.289,-117.676
1690054055.317,-135.742,-35.156,-30.273,-138.672,-270.996
1690054055.320,-68.359,-32.227,-30.273,-96.680,-245.605
1690054055.324,14.648,-29.785,-23.438,-8.301,-159.180
1690054055.328,15.625,-25.391,-21.973,17.578,-100.586
1690054055.332,-68.848,-27.832,-23.438,-49.316,-40.039
1690054055.336,-129.883,-33.691,-23.926,-115.723,-103.027
1690054055.340,-76.172,-34.180,-25.879,-87.891,-187.012
1690054055.344,11.230,-32.715,-21.484,-12.695,-114.258
1690054055.347,20.508,-29.785,-16.602,30.762,322.266
1690054055.351,-52.246,-25.391,-16.602,-21.484,368.164
1690054055.355,-106.445,-21.484,-18.555,-109.863,-192.871
1690054055.359,-48.828,-21.484,-19.531,-88.379,-281.250
1690054055.363,41.016,-22.461,-24.902,-0.488,-140.625
1690054055.364,52.246,-20.020,-26.855,41.992,-74.707
1690054055.368,-19.043,-23.438,-25.391,-9.277,-104.004
1690054055.372,-87.402,-29.785,-27.832,-104.980,-124.512
1690054055.376,-53.223,-33.203,-29.785,-99.121,-80.566
1690054055.380,34.668,-29.297,-26.855,-2.930,-67.383
1690054055.384,47.363,-28.809,-23.438,43.457,38.574
1690054055.388,-29.297,-27.344,-26.367,4.883,206.055
1690054055.391,-107.910,-22.949,-29.297,-73.242,416.504
1690054055.395,-84.961,-21.484,-27.832,-93.262,107.422
1690054055.399,11.230,-20.020,-26.367,-21.973,-216.797
1690054055.403,47.852,-23.438,-25.879,40.527,33.691
1690054055.407,-8.301,-22.461,-22.461,7.812,28.320
1690054055.410,-91.797,-20.508,-19.043,-71.777,-223.145
1690054055.414,-90.332,-20.020,-23.438,-94.238,-318.359
1690054055.418,-6.836,-20.020,-25.391,-25.391,-234.863
1690054055.422,43.457,-24.902,-24.414,43.457,-103.516
1690054055.426,-10.254,-22.949,-21.973,19.531,-52.246
1690054055.430,-93.750,-22.461,-19.043,-66.406,-75.195
1690054055.434,-88.867,-26.367,-20.020,-92.285,120.605
1690054055.437,-11.230,-26.855,-22.461,-38.086,172.363
1690054055.441,48.340,-24.902,-26.367,25.391,-95.215
1690054055.445,13.184,-28.320,-26.367,31.250,-83.008
1690054055.449,-76.172,-30.762,-25.391,-47.852,-84.961
1690054055.453,-98.145,-30.273,-26.855,-102.539,-185.059
1690054055.455,-21.484,-26.855,-24.902,-41.016,-143.066
1690054055.459,49.316,-25.391,-24.414,42.480,15.137
1690054055.463,3.906,-29.785,-31.250,29.297,123.535
1690054055.467,-69.336,-37.598,-31.738,-31.250,-57.617
1690054055.471,-80.566,-39.551,-29.785,-72.266,-193.848
1690054055.475,-47.363,-31.738,-33.691,-68.848,15.625
1690054055.479,7.324,-31.250,-38.574,-7.812,434.570
1690054055.482,7.812,-32.715,-36.133,11.719,243.164
1690054055.486,-58.105,-34.668,-33.203,-44.922,-192.871
1690054055.490,-115.723,-35.156,-33.203,-123.047,-153.809
1690054055.494,-60.059,-29.785,-37.109,-98.145,-101.562
1690054055.498,25.879,-21.484,-44.434,-4.883,-136.230
1690054055.515,20.020,-25.879,-37.109,22.949,-105.957
1690054055.519,-58.105,-33.691,-35.156,-42.969,-13.672
1690054055.523,-118.652,-30.762,-43.945,-116.211,-39.062
1690054055.527,-60.059,-32.227,-40.039,-86.426,-203.613
1690054055.531,35.156,-33.203,-33.691,6.348,-214.355
1690054055.535,39.062,-33.203,-31.738,55.176,255.859
1690054055.539,-36.621,-38.574,-27.344,0.977,413.086
1690054055.542,-101.562,-40.039,-29.785,-86.426,-149.902
1690054055.546,-54.688,-35.156,-30.273,-74.707,-258.301
1690054055.550,43.457,-33.203,-25.879,14.160,-26.855
1690054055.554,64.941,-31.250,-25.879,66.406,-6.836
1690054055.558,-10.742,-32.227,-27.344,14.648,-124.512
1690054055.559,-88.867,-36.133,-30.273,-76.660,-159.180
1690054055.563,-55.176,-34.668,-24.902,-82.520,-171.875
1690054055.567,36.133,-31.738,-19.531,-5.859,-141.602
1690054055.571,63.965,-29.297,-20.508,48.340,-103.027
1690054055.575,-5.859,-34.180,-25.391,18.066,80.566
1690054055.579,-87.402,-39.551,-31.738,-71.289,169.434
1690054055.583,-83.496,-39.062,-32.227,-105.957,-82.031
1690054055.586,-6.836,-36.621,-25.391,-32.715,-145.020
1690054055.590,46.875,-27.832,-24.414,44.434,124.023
1690054055.594,-4.883,-31.738,-25.391,31.738,482.422
1690054055.598,-94.238,-33.203,-23.926,-61.523,193.359
1690054055.602,-88.867,-23.926,-28.809,-101.562,-250.000
1690054055.605,0.488,-22.949,-32.227,-32.715,-212.891
1690054055.609,50.293,-22.949,-28.320,41.016,-75.195
1690054055.613,-0.488,-26.855,-31.250,26.367,-48.340
1690054055.617,-92.285,-33.691,-35.156,-62.012,-145.508
1690054055.621,-101.074,-33.203,-34.668,-104.004,-239.258
1690054055.625,-17.578,-29.297,-34.180,-44.434,-125.000
1690054055.629,45.898,-27.344,-29.297,37.598,31.738
1690054055.632,16.602,-32.715,-28.809,36.621,80.566
1690054055.636,-70.312,-39.551,-32.227,-50.781,339.355
1690054055.640,-102.539,-36.133,-30.762,-110.840,270.020
1690054055.644,-31.738,-32.715,-25.879,-66.895,-145.020
1690054055.648,44.922,-29.297,-25.879,22.461,-110.840
1690054055.649,23.926,-28.809,-24.902,32.715,0.488
1690054055.653,-74.219,-31.738,-26.367,-45.898,-132.324
1690054055.657,-118.652,-31.250,-30.762,-112.305,-253.418
1690054055.661,-49.805,-36.133,-31.738,-73.242,-190.430
1690054055.665,29.297,-34.180,-28.809,18.555,-69.824
1690054055.669,19.043,-32.227,-27.344,40.527,32.715
1690054055.673,-72.266,-37.598,-30.762,-36.621,48.828
1690054055.676,-122.070,-40.527,-31.738,-118.164,32.227
1690054055.680,-65.918,-42.969,-29.297,-93.262,309.082
1690054055.684,13.184,-36.621,-26.367,-11.230,301.758
1690054055.688,19.531,-31.250,-25.879,25.879,-37.598
1690054055.692,-51.270,-34.668,-28.320,-23.926,-38.574
1690054055.695,-124.023,-41.016,-33.691,-109.375,-88.379
1690054055.699,-93.262,-45.410,-40.527,-102.051,-300.781
1690054055.703,-0.488,-46.387,-36.133,-18.555,-246.582
1690054055.707,16.602,-46.387,-32.227,27.344,-92.773
1690054055.711,-62.012,-45.898,-34.668,-22.461,-65.918
1690054055.715,-132.812,-47.363,-37.598,-117.188,-99.121
1690054055.719,-87.891,-43.945,-34.180,-113.281,-91.309
1690054055.722,1.953,-38.086,-28.809,-20.508,175.781
1690054055.726,32.227,-36.621,-27.832,38.086,255.371
1690054055.730,-37.598,-37.109,-26.855,-6.836,-76.660
1690054055.734,-124.512,-36.621,-31.738,-97.656,-219.727
1690054055.738,-96.680,-30.762,-29.297,-104.492,-262.695
1690054055.740,-0.488,-31.250,-27.344,-27.832,-187.500
1690054055.744,37.109,-27.832,-31.738,32.715,-104.004
1690054055.748,-26.367,-25.391,-32.715,9.277,-3.418
1690054055.752,-107.422,-30.762,-33.203,-81.055,42.969
1690054055.756,-94.727,-30.273,-37.598,-115.234,-126.465
1690054055.760,-6.836,-31.250,-37.109,-41.992,-184.570
1690054055.764,41.992,-31.250,-30.273,28.320,84.961
1690054055.767,-6.836,-29.785,-30.273,8.301,545.410
1690054055.771,-93.750,-34.668,-35.645,-75.195,261.230
1690054055.775,-107.910,-38.574,-39.062,-117.676,-283.203
1690054055.779,-31.250,-36.133,-36.133,-59.570,-203.125
1690054055.783,36.621,-35.156,-33.691,22.949,-88.867
1690054055.785,8.301,-30.762,-35.645,22.949,-71.289
1690054055.789,-78.613,-25.391,-33.691,-45.410,-122.070
1690054055.793,-96.680,-29.297,-29.785,-91.797,-104.492
1690054055.797,-20.020,-27.832,-28.809,-45.898,-10.742
1690054055.801,45.898,-41.016,-27.832,25.879,-38.086
1690054055.805,21.484,-44.922,-20.996,35.156,75.195
1690054055.809,-69.824,-23.438,-25.879,-34.668,301.758
1690054055.812,-108.887,-22.461,-30.762,-106.445,234.375
1690054055.816,-39.062,-23.438,-27.832,-69.824,-150.879
1690054055.820,31.250,-25.391,-34.668,14.160,-171.875
1690054055.824,20.020,-30.273,-30.762,30.762,-53.223
1690054055.828,-65.918,-28.809,-29.297,-43.457,-91.309
1690054055.830,-119.141,-30.762,-39.551,-120.117,-211.914
1690054055.834,-57.129,-35.156,-40.039,-91.797,-179.688
1690054055.838,17.090,-31.250,-37.598,-3.906,-12.207
1690054055.842,14.160,-31.250,-36.133,31.738,27.832
1690054055.846,-61.035,-34.180,-35.156,-28.809,-55.176
1690054055.850,-115.723,-31.250,-35.156,-110.840,-41.504
1690054055.854,-59.082,-29.785,-25.879,-86.426,284.668
1690054055.857,34.668,-29.297,-21.484,-4.395,240.723
1690054055.861,39.551,-25.879,-20.996,33.691,-60.059
1690054055.865,-42.969,-32.227,-18.066,-12.207,34.180
1690054055.869,-107.422,-37.109,-36.621,-104.980,64.453
1690054055.873,-81.055,-33.203,-48.340,-114.258,-234.863
1690054055.889,-6.348,-31.738,-42.969,-34.180,-214.355
1690054055.893,20.508,-27.832,-34.668,12.207,11.719
1690054055.897,-38.574,-20.508,-35.645,-27.344,-19.043
1690054055.901,-100.098,-15.625,-46.387,-104.980,-194.336
1690054055.905,-73.242,-16.113,-39.062,-115.234,-257.812
1690054055.909,-4.395,-25.879,-23.926,-39.062,117.676
1690054055.913,20.020,-29.297,-20.508,23.926,442.871
1690054055.916,-44.922,-32.227,-29.297,-19.043,86.914
1690054055.920,-114.746,-30.273,-25.391,-105.469,-180.176
1690054055.924,-104.492,-22.461,-24.414,-128.418,-105.469
1690054055.928,-34.180,-21.973,-30.273,-73.242,-90.820
1690054055.932,19.531,-23.926,-30.273,-4.395,-149.414
1690054055.934,-45.410,-48.340,-31.738,-17.090,-37.109
1690054055.938,-139.160,-52.246,-27.344,-113.281,-90.332
1690054055.942,-132.812,-32.227,-18.066,-145.508,-246.094
1690054055.946,-46.387,-30.273,-12.695,-69.336,-226.074
1690054055.950,8.789,-27.832,-24.414,-5.371,98.633
1690054055.954,-36.621,-29.297,-33.691,-19.531,336.914
1690054055.958,-119.141,-31.738,-31.738,-91.309,46.387
1690054055.961,-138.184,-27.344,-31.250,-140.625,-219.727
1690054055.965,-54.688,-26.855,-32.715,-98.633,-93.262
1690054055.969,3.906,-29.785,-28.809,-22.461,241.211
1690054055.973,-42.969,-33.691,-35.645,-27.344,127.930
1690054055.977,-129.883,-29.297,-36.133,-113.281,-152.832
1690054055.980,-167.480,-25.879,-24.414,-176.270,-154.297
1690054055.984,-94.238,-31.738,-20.996,-133.789,-102.539
1690054055.988,-18.555,-26.855,-27.344,-63.965,-144.043
1690054055.992,-30.273,-22.461,-21.973,-39.551,-46.387
1690054055.996,-117.188,-22.461,-28.809,-103.027,-36.621
1690054056.000,-156.738,-23.438,-34.180,-172.363,-130.371
1690054056.004,-98.633,-28.320,-26.367,-137.695,-98.633
1690054056.007,-19.043,-27.344,-26.855,-49.316,-71.777
1690054056.011,-20.020,-25.391,-28.809,-13.184,108.398
1690054056.015,-109.863,-29.297,-32.715,-91.797,114.258
1690054056.019,-150.879,-29.297,-38.574,-165.527,-206.055
1690054056.023,-86.426,-29.785,-39.062,-132.812,-234.375
1690054056.024,-9.277,-31.738,-33.691,-54.199,81.055
1690054056.028,-4.883,-25.879,-33.691,-13.672,122.559
1690054056.032,-70.312,-26.367,-38.574,-54.199,-95.703
1690054056.036,-133.789,-38.574,-32.715,-123.535,-81.055
1690054056.040,-88.379,-40.039,-31.738,-105.469,-1.465
1690054056.044,6.348,-30.273,-37.109,-42.969,-17.578
1690054056.048,34.180,-30.762,-39.551,0.000,-28.320
1690054056.051,-23.438,-40.527,-38.574,-17.578,111.328
1690054056.055,-101.562,-46.875,-41.504,-109.375,317.871
1690054056.059,-78.613,-46.875,-45.410,-125.488,44.922
1690054056.063,19.531,-42.480,-41.016,-37.109,-276.367
1690054056.067,58.105,-40.039,-36.621,37.598,-158.691
1690054056.070,-19.531,-61.523,-37.109,2.441,-109.375
1690054056.074,-106.445,-68.848,-37.109,-88.867,-216.797
1690054056.078,-85.938,-48.340,-32.227,-101.074,-250.000
1690054056.082,-4.883,-47.363,-32.715,-31.250,-92.285
1690054056.086,41.992,-40.527,-36.621,41.016,-58.105
1690054056.090,3.906,-38.574,-36.621,34.180,-45.410
1690054056.094,-78.125,-44.434,-34.668,-61.523,-47.363
1690054056.097,-78.125,-42.969,-31.738,-92.285,42.969
1690054056.101,15.625,-41.016,-30.762,-20.508,109.863
1690054056.105,67.383,-44.434,-27.832,42.480,-120.605
1690054056.109,10.742,-53.223,-30.762,28.320,-118.652
1690054056.113,-72.266,-54.688,-35.156,-50.781,-93.262
1690054056.114,-75.195,-55.176,-30.273,-94.238,-196.289
1690054056.118,5.371,-51.758,-27.832,-39.062,-208.496
1690054056.122,74.707,-45.898,-31.738,41.016,-34.180
1690054056.126,37.598,-46.387,-40.527,43.457,106.445
1690054056.130,-61.035,-47.363,-41.016,-34.180,81.543
1690054056.134,-80.078,-42.969,-41.504,-89.355,-84.961
1690054056.138,-2.930,-37.598,-36.133,-37.109,-78.125
1690054056.141,70.801,-36.133,-26.367,53.223,450.195
1690054056.145,54.688,-29.297,-22.461,68.359,479.004
1690054056.149,-29.785,-32.227,-27.832,-19.531,-41.504
1690054056.153,-74.219,-39.551,-34.180,-95.703,-160.645
1690054056.157,-20.996,-34.668,-29.297,-55.664,-127.930
1690054056.160,53.711,-30.762,-29.297,35.645,-114.258
1690054056.164,50.781,-25.391,-21.973,62.500,-31.738
1690054056.168,-20.020,-27.344,-20.996,-14.648,-39.551
1690054056.172,-69.824,-29.785,-27.344,-84.473,-130.371
1690054056.176,-11.230,-22.461,-23.926,-46.387,-174.805
1690054056.180,84.473,-20.020,-14.648,42.480,-74.707
1690054056.184,84.473,-21.973,-8.789,83.496,342.773
1690054056.187,-2.441,-25.391,-12.207,24.902,329.102
1690054056.191,-78.125,-27.344,-19.531,-72.266,-100.586
1690054056.195,-40.527,-32.715,-20.996,-59.570,-191.406
1690054056.199,47.363,-37.109,-19.043,39.551,-79.102
1690054056.203,54.199,-35.156,-16.113,80.078,-23.438
1690054056.234,-18.555,-34.180,-15.625,25.391,-89.355
1690054056.238,-90.820,-32.715,-20.508,-57.617,-106.445
1690054056.242,-52.734,-26.855,-18.066,-61.035,-147.949
1690054056.246,41.504,-23.438,-15.625,7.812,-129.395
1690054056.250,70.312,-26.855,-20.996,64.453,-57.129
1690054056.254,-1.465,-31.738,-20.996,45.898,75.684
1690054056.258,-92.773,-29.785,-26.367,-42.969,354.980
1690054056.261,-70.312,-26.367,-31.250,-72.754,87.402
1690054056.265,31.738,-24.902,-26.367,3.418,-299.316
1690054056.269,79.590,-22.949,-22.949,80.078,-21.973
1690054056.273,29.785,-27.344,-21.484,59.570,149.414
1690054056.277,-62.988,-32.227,-23.438,-40.039,-93.262
1690054056.253,-64.453,-27.344,-20.020,-68.848,-242.676
1690054056.257,18.066,-24.414,-18.555,1.465,-71.289
1690054056.261,61.523,-28.809,-20.020,65.918,44.434
1690054056.265,8.789,-33.203,-20.508,45.898,-75.684
1690054056.269,-81.543,-39.062,-26.367,-49.316,-180.176
1690054056.273,-79.590,-41.992,-31.738,-88.379,-140.625
1690054056.277,10.742,-35.156,-34.668,-11.719,-26.367
1690054056.280,73.730,-33.203,-28.809,63.965,-13.184
1690054056.284,24.414,-34.180,-18.066,52.246,-20.508
1690054056.288,-76.172,-36.133,-18.555,-39.551,-45.898
1690054056.292,-85.938,-39.551,-25.391,-91.797,-192.383
1690054056.296,-6.348,-36.133,-21.973,-35.645,-282.715
1690054056.309,60.547,-33.691,-16.602,40.527,-102.051
1690054056.313,54.199,-30.273,-21.484,59.082,337.891
1690054056.317,-32.715,-24.414,-27.832,-24.902,187.012
1690054056.321,-73.730,-20.508,-28.809,-91.309,-242.188
1690054056.325,-4.395,-19.043,-24.902,-35.645,-176.758
1690054056.329,69.824,-21.484,-20.508,60.547,363.281
1690054056.333,43.945,-21.484,-25.391,72.754,501.953
1690054056.336,-50.293,-21.973,-34.668,-11.719,-29.785
1690054056.340,-102.539,-27.832,-38.086,-86.914,-131.836
1690054056.344,-44.434,-33.203,-42.969,-70.312,4.395
1690054056.348,38.086,-28.809,-40.527,6.348,-92.285
1690054056.352,31.250,-21.973,-33.691,50.781,-107.910
1690054056.356,-50.781,-32.715,-36.133,0.488,-87.402
1690054056.360,-99.609,-29.785,-37.598,-85.938,-230.957
1690054056.364,-45.410,-21.484,-30.273,-73.242,-354.492
1690054056.368,37.598,-30.273,-24.902,20.020,-150.391
1690054056.372,49.805,-34.180,-24.902,60.547,97.656
1690054056.376,-23.926,-27.832,-24.902,-4.395,38.574
1690054056.380,-108.887,-26.855,-31.250,-95.215,-99.121
1690054056.383,-80.566,-35.645,-31.738,-84.961,-214.355
1690054056.387,20.508,-41.504,-24.902,-2.930,83.008
1690054056.391,42.480,-43.945,-22.949,44.434,236.816
1690054056.395,-32.715,-44.434,-24.414,9.277,-81.543
1690054056.399,-107.910,-44.434,-25.879,-76.660,-114.258
1690054056.399,-88.867,-43.945,-26.367,-87.402,-161.621
1690054056.403,0.977,-40.527,-23.926,-9.277,-147.461
1690054056.407,34.668,-41.504,-25.391,41.992,-53.711
1690054056.411,-25.391,-44.434,-29.785,9.277,59.570
1690054056.415,-107.422,-41.016,-32.227,-74.707,122.070
1690054056.419,-98.145,-36.133,-34.668,-107.422,-31.250
1690054056.423,-3.906,-29.785,-28.320,-39.551,-17.090
1690054056.426,40.527,-30.762,-26.367,38.086,217.285
1690054056.430,-9.277,-35.156,-24.414,24.902,563.477
1690054056.434,-99.121,-34.180,-23.438,-73.730,401.855
1690054056.438,-109.375,-32.227,-25.391,-113.770,-119.629
1690054056.442,-20.996,-32.227,-27.832,-44.434,-239.258
1690054056.445,44.922,-29.297,-28.320,26.367,-160.156
1690054056.449,9.766,-26.367,-26.367,23.438,-121.094
1690054056.453,-80.566,-27.832,-32.227,-54.199,-174.316
1690054056.457,-108.398,-31.250,-32.227,-107.422,-257.812
1690054056.461,-37.109,-31.250,-26.367,-54.199,-227.539
1690054056.465,27.344,-30.273,-27.832,31.738,7.812
1690054056.469,-3.906,-31.738,-25.391,36.133,97.656
1690054056.472,-87.402,-33.203,-31.250,-51.270,184.570
1690054056.476,-114.746,-33.691,-36.133,-112.793,145.508
1690054056.480,-45.898,-31.250,-35.156,-71.777,-184.570
1690054056.484,25.879,-30.273,-32.715,15.137,-196.777
1690054056.488,8.789,-29.785,-30.273,34.180,-0.977
1690054056.488,-74.219,-32.227,-32.227,-41.992,-98.145
1690054056.492,-120.117,-33.203,-35.156,-113.281,-313.965
1690054056.496,-62.988,-30.273,-30.762,-84.473,-225.098
1690054056.500,19.043,-40.527,-25.391,1.953,-47.852
1690054056.504,40.039,-49.316,-25.879,61.523,43.945
1690054056.508,-34.668,-41.016,-25.879,-0.488,-0.488
1690054056.512,-130.859,-35.156,-32.227,-120.605,-52.734
1690054056.515,-92.773,-33.203,-40.039,-108.398,338.867
1690054056.519,8.301,-28.320,-37.109,-10.742,258.301
1690054056.523,36.133,-27.344,-35.156,40.527,-103.516
1690054056.527,-39.551,-30.762,-37.109,-13.184,-0.977
1690054056.531,-117.676,-33.203,-41.016,-112.793,-48.828
1690054056.536,-74.707,-26.855,-39.551,-110.840,-258.301
1690054056.540,9.277,-30.762,-35.645,-25.879,-223.633
1690054056.544,31.250,-33.691,-36.133,27.832,88.379
1690054056.548,-40.039,-29.297,-36.621,-19.043,103.516
1690054056.552,-118.164,-28.320,-39.062,-115.234,-145.996
1690054056.556,-83.496,-26.855,-31.738,-111.816,-149.902
1690054056.560,9.766,-23.438,-23.438,-17.578,136.719
1690054056.563,42.480,-21.973,-26.855,48.340,235.352
1690054056.567,-20.996,-25.879,-31.250,0.977,-94.727
1690054056.571,-99.121,-33.203,-30.762,-95.215,-239.258
1690054056.575,-87.891,-32.227,-28.320,-109.863,-244.141
1690054056.579,2.441,-31.738,-27.344,-36.621,-154.785
1690054056.580,41.016,-37.109,-27.344,25.391,-117.188
1690054056.584,-20.508,-38.574,-27.832,5.859,8.789
1690054056.588,-104.980,-32.715,-27.832,-76.172,77.148
1690054056.592,-105.469,-33.203,-29.785,-104.004,-191.895
1690054056.596,-21.973,-37.598,-34.668,-41.016,-134.277
1690054056.600,45.898,-28.320,-33.691,22.949,148.438
1690054056.604,9.277,-24.902,-34.668,24.902,509.277
1690054056.607,-89.355,-31.250,-37.109,-68.848,350.098
1690054056.611,-107.422,-30.762,-33.691,-124.023,-233.887
1690054056.615,-35.156,-24.414,-27.344,-49.316,-144.531
1690054056.619,30.273,-22.949,-25.391,23.926,-3.906
1690054056.623,5.371,-29.785,-26.367,25.879,-144.043
1690054056.639,-82.520,-30.762,-29.297,-42.969,-193.848
1690054056.643,-104.004,-26.855,-31.250,-113.770,-205.566
1690054056.647,-27.344,-28.320,-29.297,-58.105,-194.336
1690054056.651,37.109,-28.809,-24.902,33.203,-90.820
1690054056.655,15.137,-25.391,-21.973,48.340,-19.531
1690054056.659,-62.988,-24.902,-24.902,-13.184,239.746
1690054056.663,-107.910,-32.227,-33.691,-98.145,302.734
1690054056.666,-42.969,-37.109,-29.785,-67.871,-152.344
1690054056.670,43.457,-36.133,-22.461,25.879,-188.477
1690054056.674,33.691,-34.180,-26.367,47.363,21.973
1690054056.678,-54.688,-33.691,-31.738,-26.855,-19.531
1690054056.682,-106.445,-33.691,-31.250,-106.445,-208.984
1690054056.684,-55.176,-33.203,-28.809,-78.613,-186.523
1690054056.688,28.320,-32.227,-23.438,7.812,-66.406
1690054056.692,38.574,-27.832,-23.926,43.945,-34.180
1690054056.696,-46.875,-29.297,-33.691,-13.184,-69.336
1690054056.700,-113.770,-36.133,-34.180,-93.262,-53.711
1690054056.704,-63.477,-37.109,-30.762,-78.613,76.660
1690054056.708,32.715,-33.203,-29.785,0.977,0.488
1690054056.711,49.316,-32.227,-29.297,44.434,-10.254
1690054056.715,-32.227,-30.762,-27.344,-2.930,77.637
1690054056.719,-100.586,-35.645,-26.367,-85.938,298.828
1690054056.723,-70.801,-39.551,-25.879,-86.914,97.168
1690054056.727,13.672,-38.574,-25.391,-14.160,-216.797
1690054056.730,43.945,-40.527,-24.414,31.738,27.832
1690054056.734,-24.414,-38.086,-31.738,-4.395,31.738
1690054056.738,-106.445,-36.621,-37.598,-92.773,-189.453
1690054056.742,-79.590,-34.668,-34.668,-100.586,-248.047
1690054056.746,7.324,-28.320,-31.738,-15.625,-145.996
1690054056.750,43.945,-25.391,-31.738,44.434,40.039
1690054056.754,-16.602,-28.809,-34.668,8.301,43.945
1690054056.757,-102.051,-30.762,-35.645,-78.613,-150.879
1690054056.761,-98.145,-33.203,-35.156,-101.562,63.477
1690054056.765,-13.672,-38.574,-32.227,-36.621,290.527
1690054056.769,41.992,-33.203,-27.832,30.762,-42.969
1690054056.773,7.812,-27.344,-28.320,18.066,-106.934
1690054056.773,-81.055,-32.227,-35.645,-76.172,-25.879
1690054056.777,-104.980,-33.691,-37.109,-125.488,-171.875
1690054056.781,-30.762,-31.738,-33.691,-61.523,-251.953
1690054056.785,25.391,-32.227,-36.133,21.973,-100.586
1690054056.789,0.000,-29.297,-37.109,33.691,101.074
1690054056.793,-86.914,-30.273,-37.109,-55.176,107.910
1690054056.797,-111.816,-35.645,-43.945,-115.234,-97.168
1690054056.800,-33.203,-41.016,-43.457,-67.871,-63.965
1690054056.804,34.668,-40.527,-38.086,8.301,359.863
1690054056.808,11.719,-39.062,-36.621,18.066,288.574
1690054056.812,-81.055,-40.527,-37.598,-62.500,-152.832
1690054056.816,-116.699,-36.621,-31.250,-118.652,-113.770
1690054056.820,-48.828,-34.180,-28.320,-77.148,-73.242
1690054056.824,29.297,-35.156,-27.344,8.789,-177.246
1690054056.828,26.367,-33.691,-22.949,41.504,-98.145
1690054056.832,-64.941,-35.645,-25.879,-26.855,-24.414
1690054056.836,-117.676,-31.738,-28.320,-102.539,-105.957
1690054056.840,-45.898,-25.391,-23.926,-65.918,-118.164
1690054056.844,36.133,-27.832,-24.414,23.438,-14.648
1690054056.847,31.250,-31.738,-24.414,54.199,278.809
1690054056.851,-51.758,-32.227,-24.414,-6.348,305.176
1690054056.855,-109.375,-26.855,-29.785,-90.332,-125.488
1690054056.859,-59.570,-29.297,-30.762,-74.219,-240.723
1690054056.863,23.926,-36.133,-33.691,1.465,-126.465
1690054056.865,34.180,-35.156,-37.109,30.762,-38.574
1690054056.869,-38.086,-32.227,-31.250,-20.020,-70.801
1690054056.873,-103.027,-33.691,-30.273,-96.191,-53.711
1690054056.877,-74.219,-35.156,-31.738,-91.309,-28.320
1690054056.881,6.348,-37.598,-26.367,-10.254,-41.992
1690054056.885,32.227,-37.598,-25.391,48.340,30.762
1690054056.889,-33.691,-36.621,-28.809,10.254,157.227
1690054056.892,-106.934,-44.434,-30.762,-80.566,480.469
1690054056.896,-88.867,-43.457,-30.762,-101.074,208.496
1690054056.900,2.930,-36.621,-26.367,-24.414,-244.141
1690054056.904,39.062,-37.109,-26.367,36.621,-87.891
1690054056.908,-23.926,-41.992,-31.250,3.906,-68.359
1690054056.924,-102.051,-39.062,-27.832,-78.613,-223.145
1690054056.928,-91.309,-39.062,-26.367,-109.863,-272.949
1690054056.932,-0.488,-38.574,-23.438,-41.504,-216.309
1690054056.936,54.199,-33.203,-20.508,31.738,-103.516
1690054056.940,2.441,-36.133,-25.879,14.160,-59.082
1690054056.944,-100.586,-36.621,-38.086,-78.125,-162.109
1690054056.948,-98.145,-36.133,-40.039,-111.816,52.246
1690054056.951,0.977,-28.320,-26.367,-33.203,220.215
1690054056.955,51.758,-20.508,-16.113,35.645,-50.293
1690054056.959,15.137,-25.391,-16.602,27.344,-49.316
1690054056.963,-79.590,-34.180,-24.902,-61.523,-59.082
1690054056.967,-106.934,-38.086,-29.297,-112.305,-177.246
1690054056.954,-25.391,-30.762,-22.949,-48.828,-185.059
1690054056.958,42.480,-24.902,-18.555,33.203,-69.336
1690054056.962,10.254,-23.438,-22.949,46.875,55.664
1690054056.966,-76.660,-24.414,-28.809,-33.203,-9.277
1690054056.970,-114.258,-31.738,-31.250,-106.934,-195.801
1690054056.974,-46.875,-31.250,-31.738,-60.547,-66.406
1690054056.978,17.090,-27.344,-28.809,16.602,244.141
1690054056.981,0.488,-30.273,-30.762,28.809,195.312
1690054056.985,-78.613,-34.668,-31.738,-43.457,-45.410
1690054056.989,-125.977,-34.668,-27.832,-118.652,-135.742
1690054056.993,-60.547,-32.227,-28.809,-81.055,172.852
1690054056.997,20.508,-35.156,-28.809,-1.465,49.316
1690054057.013,19.043,-30.273,-27.344,28.320,-151.855
1690054057.017,-45.898,-22.949,-33.691,-18.555,-100.586
1690054057.021,-83.496,-28.809,-35.156,-67.871,-207.031
1690054057.025,-40.039,-31.738,-26.855,-53.223,-277.344
1690054057.029,10.742,-26.855,-19.043,-12.695,-177.734
1690054057.033,3.418,-32.715,-15.137,16.113,85.449
1690054057.037,-50.293,-37.109,-17.090,-16.602,130.371
1690054057.040,-128.418,-36.133,-17.578,-119.141,-119.629
1690054057.044,-96.680,-45.410,-14.648,-125.488,-270.020
1690054057.048,-6.836,-52.246,-13.184,-46.387,96.680
1690054057.052,13.184,-49.805,-15.137,7.812,245.605
1690054057.056,-56.641,-45.410,-8.301,-22.949,-62.012
1690054057.058,-128.418,-53.223,-10.742,-105.469,-166.016
1690054057.062,-105.957,-62.500,-13.672,-105.469,-60.059
1690054057.066,-39.062,-58.594,-14.160,-34.668,-64.941
1690054057.070,-6.836,-57.129,-9.277,34.180,-176.270
1690054057.074,-83.008,-58.594,-8.301,-7.812,-7.324
1690054057.078,-154.785,-57.129,-13.184,-92.285,213.867
1690054057.082,-150.879,-58.594,-11.230,-122.559,17.578
1690054057.085,-54.688,-53.223,-10.742,-51.758,-126.465
1690054057.089,23.438,-48.828,-6.348,40.039,69.824
1690054057.093,-26.367,-50.781,-8.789,17.090,285.645
1690054057.097,-107.910,-42.480,-17.578,-75.195,-14.648
1690054057.101,-104.492,-36.133,-12.207,-100.586,-183.105
1690054057.118,-20.996,-37.109,-11.230,-37.598,2.930
1690054057.122,39.062,-35.156,-11.230,34.668,-10.742
1690054057.126,6.836,-34.668,-11.230,30.762,-78.613
1690054057.130,-79.590,-37.598,-15.137,-51.270,-169.434
1690054057.134,-97.168,-33.691,-17.090,-99.121,-155.273
1690054057.138,-7.324,-28.809,-18.066,-35.645,-29.297
1690054057.142,58.105,-29.297,-17.090,43.945,6.348
1690054057.145,21.973,-32.227,-11.719,48.340,-38.086
1690054057.149,-60.547,-38.574,-16.113,-25.391,136.719
1690054057.153,-87.891,-40.039,-21.973,-87.891,118.164
1690054057.157,-15.137,-38.086,-21.484,-41.504,-213.379
1690054057.161,55.664,-37.109,-19.043,41.016,-80.566
1690054057.165,27.344,-34.668,-20.996,50.781,23.438
1690054057.169,-67.871,-35.156,-29.297,-32.227,-106.445
1690054057.173,-116.211,-33.691,-32.227,-99.121,-151.855
1690054057.177,-50.293,-32.715,-31.250,-56.152,-41.992
1690054057.181,35.645,-34.180,-26.855,20.996,39.062
1690054057.185,27.344,-33.203,-27.344,46.875,27.344
1690054057.189,-57.129,-38.574,-34.180,-23.926,-52.734
1690054057.192,-104.980,-40.527,-35.645,-107.422,-27.832
1690054057.196,-54.199,-39.062,-37.109,-75.684,81.055
1690054057.200,30.273,-36.621,-36.133,9.277,-67.871
1690054057.204,36.133,-40.527,-34.180,46.387,-141.113
1690054057.208,-47.363,-42.480,-41.504,-5.859,53.223
1690054057.195,-106.934,-36.621,-40.527,-78.125,143.066
1690054057.199,-62.500,-29.297,-28.809,-65.430,-182.129
1690054057.203,33.691,-21.484,-26.367,18.555,-250.488
1690054057.207,52.246,-17.578,-30.762,68.848,-76.172
1690054057.211,-26.855,-19.043,-35.156,22.949,-55.664
1690054057.215,-96.191,-23.438,-38.086,-68.848,-133.301
1690054057.219,-67.383,-25.391,-35.156,-76.172,-91.797
1690054057.222,21.973,-27.832,-29.297,3.418,80.078
1690054057.226,48.340,-30.273,-29.785,50.781,34.180
1690054057.230,-22.949,-28.320,-28.320,15.137,-100.586
1690054057.234,-98.633,-30.273,-28.320,-75.684,-201.660
1690054057.238,-75.195,-35.156,-27.344,-85.449,36.621
1690054057.239,2.441,-32.227,-26.367,-10.254,231.934
1690054057.243,40.039,-27.344,-27.344,41.016,-20.020
1690054057.247,0.488,-24.414,-20.020,27.832,-78.125
1690054057.251,-87.402,-24.414,-23.438,-64.453,-127.930
1690054057.255,-88.867,-28.320,-25.879,-94.727,-159.180
1690054057.259,2.930,-28.320,-20.996,-19.531,-64.453
1690054057.263,53.711,-32.227,-23.438,36.621,92.285
1690054057.266,4.883,-43.457,-25.391,29.785,511.719
1690054057.270,-84.961,-45.410,-26.367,-55.664,408.691
1690054057.274,-101.562,-42.969,-24.902,-111.328,-218.750
1690054057.278,-25.391,-41.016,-26.367,-45.898,-296.387
1690054057.282,43.457,-37.109,-30.762,31.738,-174.805
1690054057.285,16.113,-36.621,-30.273,35.645,-163.574
1690054057.289,-74.707,-36.621,-34.180,-42.480,-217.773
1690054057.293,-105.469,-34.180,-37.109,-103.027,-244.141
1690054057.297,-36.133,-29.785,-32.715,-48.340,-199.219
1690054057.301,37.598,-31.738,-28.809,31.738,-99.609
1690054057.305,17.090,-32.715,-26.367,39.551,26.367
1690054057.309,-66.895,-30.273,-30.273,-27.832,263.184
1690054057.312,-108.398,-30.762,-33.203,-94.727,174.316
1690054057.316,-44.922,-30.273,-34.668,-61.035,-260.742
1690054057.320,38.574,-30.273,-32.715,28.320,-165.527
1690054057.324,31.738,-32.227,-26.855,54.199,115.234
1690054057.328,-58.594,-35.645,-28.320,-20.508,26.367
1690054057.329,-109.863,-31.250,-30.273,-99.121,-206.055
1690054057.333,-43.945,-27.832,-24.414,-65.430,-203.613
1690054057.337,36.133,-29.785,-16.602,25.879,-58.105
1690054057.341,34.668,-29.785,-18.555,52.246,-34.180
1690054057.345,-47.852,-32.715,-25.391,-4.883,-34.668
1690054057.349,-117.676,-40.039,-30.762,-90.820,-0.488
1690054057.353,-74.707,-41.016,-29.785,-83.008,364.746
1690054057.356,12.695,-38.574,-23.438,-2.441,322.266
1690054057.360,32.715,-37.109,-24.414,39.551,-76.172
1690054057.364,-38.574,-39.062,-29.297,0.000,-51.270
1690054057.368,-107.910,-41.016,-30.273,-86.426,-151.367
1690054057.372,-67.871,-42.969,-29.785,-98.633,-302.734
1690054057.377,25.391,-41.504,-29.785,-20.020,-177.734
1690054057.381,50.781,-37.109,-28.809,40.039,75.684
1690054057.385,-19.531,-40.527,-31.250,2.930,75.684
1690054057.389,-99.609,-43.945,-32.715,-90.332,-165.527
1690054057.393,-77.148,-35.156,-29.785,-96.191,-280.762
1690054057.397,20.020,-26.855,-20.996,-7.812,-41.504
1690054057.401,57.129,-27.832,-19.531,45.410,161.133
1690054057.404,-6.836,-28.320,-28.320,14.648,-8.301
1690054057.408,-99.609,-28.809,-32.715,-73.242,-203.613
1690054057.412,-95.703,-30.273,-25.879,-99.121,-23.438
1690054057.416,-6.348,-30.762,-23.926,-40.527,31.250
1690054057.420,40.039,-31.250,-24.414,21.973,-132.812
1690054057.434,-2.930,-29.297,-21.973,19.531,-33.203
1690054057.438,-94.238,-29.297,-30.273,-73.242,-55.176
1690054057.442,-104.492,-27.832,-34.668,-117.676,-131.836
1690054057.446,-12.207,-26.855,-30.762,-53.223,-105.469
1690054057.450,48.340,-27.832,-27.344,24.414,-17.090
1690054057.454,5.371,-30.762,-26.367,27.344,479.492
1690054057.458,-83.496,-31.250,-30.762,-55.176,395.508
1690054057.461,-100.586,-27.832,-28.320,-104.492,-237.793
1690054057.465,-24.902,-27.832,-23.438,-44.434,-151.855
1690054057.469,38.086,-32.715,-21.484,34.668,127.930
1690054057.473,17.578,-29.785,-14.648,44.922,5.859
1690054057.477,-63.477,-26.367,-14.648,-30.762,-141.113
1690054057.480,-97.656,-23.926,-18.555,-99.121,-211.426
1690054057.484,-10.254,-17.090,-21.484,-48.828,-199.707
1690054057.488,71.289,-16.113,-22.461,40.527,-134.766
1690054057.492,43.945,-22.949,-21.484,49.805,-44.434
1690054057.496,-62.500,-25.879,-18.066,-35.156,-17.090
1690054057.500,-120.117,-28.320,-15.137,-110.840,-46.875
1690054057.504,-39.551,-32.227,-17.578,-66.406,-5.859
1690054057.507,42.969,-31.250,-16.602,18.555,-23.926
1690054057.511,36.133,-30.762,-10.742,57.617,212.402
1690054057.515,-48.340,-35.156,-12.695,0.488,326.172
1690054057.519,-116.211,-39.551,-18.555,-92.773,-171.387
1690054057.523,-63.477,-41.992,-20.508,-78.613,-227.051
1690054057.524,18.555,-41.992,-23.926,-7.812,-38.086
1690054057.528,31.250,-39.062,-26.367,39.551,-15.137
1690054057.532,-31.738,-34.668,-24.902,5.859,-103.027
1690054057.536,-99.609,-33.203,-24.414,-85.449,-149.414
1690054057.540,-70.801,-35.156,-29.785,-83.496,-74.707
1690054057.544,15.137,-36.133,-28.320,-1.953,-49.805
1690054057.548,46.875,-27.832,-22.461,50.293,-35.156
1690054057.551,-21.484,-24.902,-24.902,14.648,64.941
1690054057.555,-103.516,-31.250,-27.832,-76.172,344.238
1690054057.559,-74.707,-31.738,-24.414,-84.961,190.430
1690054057.563,21.484,-32.227,-21.484,-11.719,-164.062
1690054057.567,52.246,-37.598,-20.996,41.016,-68.848
1690054057.570,-12.207,-35.156,-20.996,11.719,-53.223
1690054057.574,-98.145,-29.785,-25.391,-80.078,-246.094
1690054057.578,-87.402,-28.320,-27.344,-97.656,-288.574
1690054057.582,1.465,-27.832,-26.855,-25.879,-137.207
1690054057.586,43.457,-31.250,-26.367,36.133,-32.227
1690054057.590,-4.883,-33.691,-27.832,24.414,90.820
1690054057.594,-87.402,-32.227,-28.320,-58.594,87.891
1690054057.597,-101.562,-32.227,-24.414,-98.145,142.578
1690054057.601,-21.484,-32.227,-24.414,-41.992,183.594
1690054057.605,41.016,-29.297,-27.344,24.414,-92.773
1690054057.609,11.719,-27.344,-26.367,27.344,-83.984
1690054057.613,-73.242,-27.832,-26.855,-48.340,-46.875
1690054057.613,-100.586,-28.809,-32.715,-103.027,-218.262
1690054057.617,-26.367,-29.785,-30.273,-53.223,-303.711
1690054057.621,45.898,-27.832,-21.973,23.438,-135.742
1690054057.625,17.578,-23.926,-23.926,30.273,-14.648
1690054057.629,-77.148,-24.414,-31.738,-43.457,-92.285
1690054057.633,-109.863,-26.855,-32.715,-97.656,-104.492
1690054057.637,-31.250,-25.391,-28.320,-51.270,22.461
1690054057.640,50.293,-21.484,-26.855,33.691,381.836
1690054057.644,21.973,-22.949,-25.879,49.316,283.691
1690054057.648,-70.312,-26.855,-24.902,-23.926,-168.945
1690054057.652,-116.211,-29.785,-27.832,-96.680,-265.137
1690054057.656,-53.223,-30.273,-26.855,-72.754,-225.586
1690054057.662,34.180,-25.879,-20.996,11.719,-89.844
1690054057.666,31.738,-27.344,-20.508,39.551,19.043
1690054057.670,-58.594,-32.227,-23.926,-19.531,47.363
1690054057.674,-119.141,-32.715,-24.902,-99.121,-117.188
1690054057.678,-63.477,-34.180,-23.926,-87.402,-252.930
1690054057.682,26.367,-30.762,-22.461,-4.883,-38.086
1690054057.686,37.598,-28.809,-27.832,38.086,308.594
1690054057.689,-45.410,-36.133,-28.809,-12.207,264.160
1690054057.693,-120.605,-35.156,-26.367,-98.145,-191.406
1690054057.697,-67.383,-28.809,-25.879,-84.961,-270.020
1690054057.701,32.227,-26.855,-27.344,0.977,-147.461
1690054057.705,41.992,-32.715,-23.926,39.551,-34.668
1690054057.704,-32.227,-33.203,-21.973,-6.836,-33.691
1690054057.708,-112.305,-36.133,-23.438,-96.680,-131.348
1690054057.712,-80.078,-33.691,-24.902,-96.191,-187.988
1690054057.716,23.438,-26.855,-23.926,-4.395,-88.867
1690054057.720,59.570,-23.926,-20.996,52.246,86.914
1690054057.724,-16.113,-31.738,-25.391,15.625,206.543
1690054057.728,-115.723,-41.992,-37.109,-76.660,467.285
1690054057.731,-96.191,-33.691,-37.109,-103.516,378.418
1690054057.735,4.883,-29.785,-28.809,-35.156,-137.695
1690054057.739,49.316,-34.180,-24.414,34.180,-130.859
1690054057.743,-3.418,-32.715,-27.344,13.672,-60.547
1690054057.747,-93.262,-34.180,-35.645,-82.031,-208.008
1690054057.764,-103.516,-35.645,-36.621,-118.652,-261.230
1690054057.768,-17.578,-38.086,-27.344,-49.316,-166.504
1690054057.772,39.551,-36.621,-28.320,23.926,-41.504
1690054057.776,-3.906,-30.273,-26.367,25.879,-30.762
1690054057.780,-94.238,-32.715,-25.879,-51.758,-116.699
1690054057.784,-103.027,-36.621,-28.320,-103.027,-72.266
1690054057.788,-23.926,-40.039,-25.391,-47.363,-2.441
1690054057.791,45.410,-38.086,-27.344,29.785,32.227
1690054057.795,17.578,-32.715,-28.809,21.973,-22.461
1690054057.799,-85.449,-34.668,-29.297,-62.012,113.281
1690054057.803,-118.652,-33.691,-25.391,-119.141,99.121
1690054057.807,-32.715,-29.297,-19.043,-70.312,-250.977
1690054057.839,52.246,-27.832,-19.531,13.184,-135.254
1690054057.843,29.785,-26.367,-20.508,28.320,-21.973
1690054057.847,-63.965,-34.180,-25.391,-43.945,-126.953
1690054057.851,-115.234,-42.969,-30.273,-119.141,-237.305
1690054057.855,-39.062,-38.086,-23.926,-67.383,-92.773
1690054057.859,47.363,-36.133,-18.066,28.320,180.664
1690054057.863,16.602,-39.551,-22.949,36.133,152.832
1690054057.866,-75.195,-38.086,-28.809,-39.551,23.438
1690054057.870,-118.652,-35.645,-28.320,-104.980,-3.418
1690054057.874,-67.871,-37.598,-22.461,-83.496,262.695
1690054057.878,12.695,-41.504,-21.484,-5.371,182.129
1690054057.882,19.043,-36.621,-17.578,35.156,-150.879
1690054057.854,-62.988,-35.645,-22.949,-27.344,-111.816
1690054057.858,-129.883,-38.574,-28.809,-119.629,-206.543
1690054057.862,-74.707,-35.645,-22.461,-97.656,-294.922
1690054057.866,24.902,-37.109,-23.926,-11.230,-150.879
1690054057.870,26.855,-40.039,-20.508,29.785,-42.969
1690054057.874,-54.688,-37.109,-16.602,-12.695,-17.090
1690054057.878,-111.328,-38.574,-21.484,-85.449,-14.648
1690054057.881,-74.219,-37.598,-24.902,-89.355,-107.422
1690054057.885,15.137,-34.180,-22.461,-16.113,-65.430
1690054057.889,42.480,-34.180,-16.602,39.551,16.602
1690054057.893,-20.508,-35.156,-20.508,7.324,-61.035
1690054057.897,-90.820,-29.785,-22.949,-78.125,-87.402
1690054057.898,-69.824,-23.438,-19.043,-92.773,-80.078
1690054057.902,21.973,-20.508,-21.973,-20.020,-97.656
1690054057.906,57.617,-21.484,-24.414,37.109,-66.406
1690054057.910,5.859,-21.484,-26.855,9.766,-31.250
1690054057.914,-74.219,-26.367,-30.762,-75.195,301.270
1690054057.918,-79.102,-29.785,-31.250,-106.934,439.941
1690054057.922,5.859,-22.461,-25.879,-41.504,-23.438
1690054057.925,53.711,-20.508,-25.391,28.320,-12.695
1690054057.929,7.324,-25.879,-28.320,24.414,106.445
1690054057.933,-81.543,-30.273,-26.367,-57.617,-234.863
1690054057.937,-105.469,-33.691,-22.949,-108.398,-370.117
1690054057.941,-25.879,-33.691,-15.625,-45.898,-110.840
1690054057.947,39.062,-32.227,-15.137,32.227,37.598
1690054057.951,-1.953,-35.645,-25.879,21.484,17.578
1690054057.955,-88.867,-39.551,-33.203,-61.523,-116.699
1690054057.959,-109.863,-41.016,-34.668,-116.211,-186.035
1690054057.963,-36.133,-39.062,-30.273,-59.570,-95.703
1690054057.967,32.227,-35.156,-27.832,30.762,0.000
1690054057.971,6.836,-34.668,-27.832,34.180,67.871
1690054057.974,-76.660,-32.715,-31.250,-36.133,170.410
1690054057.978,-108.887,-31.738,-34.668,-95.703,52.734
1690054057.982,-43.945,-34.180,-33.691,-66.406,-285.645
1690054057.986,38.574,-31.738,-31.250,11.719,-213.379
1690054057.990,29.785,-31.738,-36.133,31.250,-42.480
1690054057.989,-59.570,-35.156,-39.551,-36.621,-63.965
1690054057.993,-108.398,-36.621,-38.086,-106.934,-187.500
1690054057.997,-49.316,-32.715,-35.645,-73.242,-212.891
1690054058.001,31.738,-30.273,-30.762,15.137,-69.824
1690054058.005,31.250,-36.133,-31.250,40.039,52.734
1690054058.009,-49.316,-36.133,-38.086,-18.066,-13.184
1690054058.013,-123.535,-40.039,-42.480,-101.562,-31.738
1690054058.016,-79.590,-41.504,-40.039,-82.031,346.680
1690054058.020,7.324,-38.086,-35.156,-2.930,365.234
1690054058.024,37.109,-38.574,-31.738,28.809,-43.457
1690054058.028,-34.180,-38.574,-30.273,-15.137,-105.469
1690054058.032,-119.629,-37.598,-29.297,-97.168,-157.227
1690054058.035,-82.031,-36.133,-28.809,-96.191,-303.223
1690054058.039,4.883,-39.551,-27.344,-17.578,-245.117
1690054058.043,31.250,-40.527,-26.367,35.645,-11.719
1690054058.047,-32.715,-32.715,-31.250,5.371,-7.812
1690054058.051,-97.656,-28.320,-32.227,-73.242,-165.039
1690054058.055,-66.406,-23.926,-25.391,-90.820,-159.668
1690054058.059,23.438,-22.949,-18.555,-4.395,218.750
1690054058.062,58.594,-28.320,-19.531,62.012,437.012
1690054058.066,-4.883,-29.785,-22.949,24.414,41.504
1690054058.070,-82.520,-27.344,-25.391,-63.965,-153.320
1690054058.074,-67.383,-25.391,-27.832,-83.984,-134.277
1690054058.078,25.391,-24.414,-28.320,-10.742,-146.484
1690054058.079,74.219,-20.508,-23.926,57.617,-126.465
1690054058.083,21.484,-18.066,-23.438,43.457,-17.578
1690054058.087,-81.543,-22.461,-27.832,-49.805,-71.777
1690054058.091,-91.797,-25.879,-28.320,-96.680,-220.215
1690054058.095,1.953,-27.344,-23.438,-35.156,-175.781
1690054058.099,54.199,-31.250,-20.996,40.039,83.496
1690054058.103,14.160,-32.715,-26.855,41.992,453.613
1690054058.106,-80.078,-36.621,-34.180,-49.805,200.195
1690054058.110,-102.539,-34.180,-32.715,-104.004,-283.691
1690054058.114,-14.648,-30.273,-27.344,-40.039,-119.141
1690054058.118,51.758,-29.785,-27.832,33.691,131.348
1690054058.122,14.648,-29.297,-32.227,33.203,-29.297
1690054058.139,-80.078,-33.203,-32.227,-44.434,-148.926
1690054058.143,-118.164,-33.691,-33.691,-105.957,-163.086
1690054058.147,-44.922,-35.645,-35.156,-68.848,-189.941
1690054058.151,34.180,-37.598,-28.320,13.672,-138.184
1690054058.155,20.020,-36.621,-21.973,38.086,-51.270
1690054058.159,-65.430,-36.133,-31.738,-35.645,50.293
1690054058.163,-117.188,-37.598,-39.062,-108.887,-41.016
1690054058.166,-50.293,-35.645,-29.785,-72.754,-122.559
1690054058.170,38.574,-29.785,-27.344,17.578,-21.484
1690054058.174,28.320,-33.691,-25.391,48.828,225.586
1690054058.178,-57.129,-37.598,-24.414,-15.137,237.793
1690054058.182,-112.305,-37.598,-25.391,-93.262,-81.543
1690054058.183,-62.500,-36.133,-25.879,-76.660,-199.219
1690054058.187,36.133,-28.320,-24.414,2.441,-21.973
1690054058.191,44.434,-27.832,-20.508,41.504,41.504
1690054058.195,-44.434,-32.227,-22.461,-9.766,-113.770
1690054058.199,-106.934,-34.180,-24.902,-90.332,-92.773
1690054058.203,-67.871,-36.133,-27.832,-81.055,64.941
1690054058.207,16.602,-31.738,-30.273,-7.324,27.344
1690054058.210,36.133,-26.855,-30.762,38.574,41.016
1690054058.214,-36.133,-31.250,-32.715,4.395,116.211
1690054058.218,-112.305,-34.180,-31.250,-83.008,210.449
1690054058.222,-85.938,-33.691,-34.180,-104.980,-64.453
1690054058.226,13.672,-33.691,-29.297,-22.949,-198.242
1690054058.232,49.316,-31.250,-22.461,41.016,-10.742
1690054058.236,-12.207,-31.250,-24.414,13.184,107.422
1690054058.240,-97.656,-36.621,-28.320,-80.078,-52.734
1690054058.244,-91.797,-41.504,-31.250,-109.863,-325.684
1690054058.248,5.859,-41.016,-30.273,-28.320,-93.750
1690054058.252,47.852,-40.527,-23.926,39.062,120.117
1690054058.256,-14.160,-34.668,-20.020,21.973,55.664
1690054058.259,-100.586,-29.785,-23.926,-63.477,-137.695
1690054058.263,-97.168,-31.250,-20.020,-103.027,-43.457
1690054058.267,-6.836,-25.879,-16.113,-33.203,102.539
1690054058.271,42.969,-26.367,-19.531,37.109,-106.445
1690054058.275,-1.953,-30.273,-23.926,23.926,-62.012
1690054058.274,-85.938,-28.320,-28.320,-57.617,-86.914
1690054058.278,-114.258,-32.227,-31.250,-110.352,-202.637
1690054058.282,-32.715,-34.668,-31.738,-63.477,-207.520
1690054058.286,48.340,-37.109,-27.344,17.578,39.551
1690054058.290,14.648,-41.992,-27.832,24.902,235.840
1690054058.294,-80.566,-40.039,-33.691,-58.105,2.441
1690054058.298,-106.934,-35.156,-32.715,-116.699,-190.918
1690054058.301,-30.273,-36.133,-29.785,-66.895,-78.613
1690054058.305,53.223,-38.086,-31.738,25.391,359.863
1690054058.309,24.414,-33.203,-31.738,37.598,373.047
1690054058.313,-78.613,-28.809,-28.809,-45.898,-74.219
1690054058.317,-120.117,-31.250,-28.320,-116.699,-232.422
1690054058.320,-49.805,-29.297,-23.438,-77.637,-243.164
1690054058.324,37.598,-27.832,-27.344,9.277,-210.449
1690054058.328,26.367,-29.297,-27.832,37.109,-83.984
1690054058.332,-66.406,-39.062,-24.902,-28.320,-82.031
1690054058.336,-122.559,-40.527,-32.227,-106.445,-175.781
1690054058.340,-60.059,-36.133,-30.273,-83.008,-166.504
1690054058.344,29.297,-37.109,-29.785,-3.906,-111.328
1690054058.347,32.227,-35.156,-32.227,39.551,247.559
1690054058.351,-45.898,-32.227,-28.809,-8.789,392.090
1690054058.355,-123.047,-30.273,-31.250,-96.680,-70.801
1690054058.359,-87.891,-33.203,-30.273,-93.750,-232.422
1690054058.363,7.812,-34.668,-27.344,-16.602,-101.562
1690054058.363,37.598,-29.785,-30.273,35.156,-44.922
1690054058.367,-35.645,-27.344,-30.762,-5.859,-63.965
1690054058.371,-118.652,-33.203,-30.273,-87.891,-101.562
1690054058.375,-83.496,-35.156,-27.832,-91.309,-143.555
1690054058.379,3.906,-35.645,-25.391,-20.996,-86.426
1690054058.383,37.598,-35.645,-27.344,39.551,-1.953
1690054058.387,-21.484,-32.227,-24.414,11.230,73.730
1690054058.390,-108.398,-33.691,-26.367,-77.148,314.941
1690054058.394,-91.797,-36.621,-29.785,-100.586,122.559
1690054058.398,-8.789,-41.504,-28.809,-33.203,-225.586
1690054058.402,27.832,-42.480,-30.762,28.320,-30.762
1690054058.406,-28.809,-36.621,-29.785,4.395,54.199
1690054058.410,-121.094,-36.133,-34.668,-89.355,-219.238
1690054058.414,-115.234,-36.133,-35.645,-122.559,-321.289
1690054058.418,-21.973,-35.156,-33.203,-53.223,-194.336
1690054058.422,40.039,-31.250,-34.180,16.113,-84.961
1690054058.426,-7.812,-34.668,-36.133,1.465,-52.734
1690054058.430,-102.539,-38.574,-38.574,-82.031,-42.969
1690054058.434,-112.793,-36.621,-41.504,-116.699,175.293
1690054058.437,-35.645,-40.039,-41.992,-60.059,206.055
1690054058.441,30.273,-37.598,-36.621,14.648,-81.543
1690054058.445,-5.371,-37.598,-32.715,19.531,-74.707
1690054058.449,-95.215,-41.504,-34.668,-61.035,-104.492
1690054058.453,-120.605,-40.527,-33.691,-114.258,-181.641
1690054058.455,-41.504,-34.668,-26.855,-64.453,-208.008
1690054058.459,37.109,-35.156,-27.832,22.461,-91.309
1690054058.463,17.578,-40.039,-31.738,38.086,101.074
1690054058.467,-68.359,-32.227,-31.738,-41.992,-34.180
1690054058.471,-106.445,-33.691,-32.715,-108.398,-148.926
1690054058.475,-41.016,-37.598,-34.668,-66.895,-23.926
1690054058.479,51.270,-29.785,-34.668,25.879,460.449
1690054058.482,43.945,-27.832,-35.156,48.340,386.719
1690054058.486,-59.570,-26.367,-42.480,-32.227,-125.000
1690054058.490,-116.211,-21.973,-40.527,-108.887,-153.320
1690054058.494,-58.105,-25.879,-34.668,-81.543,-150.391
1690054058.498,34.180,-27.344,-33.203,0.977,-200.195
1690054058.515,41.504,-22.949,-28.320,43.457,-142.090
1690054058.519,-31.250,-24.414,-22.461,-3.906,-48.340
1690054058.523,-95.703,-24.902,-18.066,-89.844,-53.223
1690054058.527,-61.035,-28.809,-19.531,-84.473,-196.777
1690054058.531,26.855,-31.738,-23.438,-1.953,-232.910
1690054058.535,37.598,-32.715,-20.508,42.480,154.785
1690054058.539,-39.062,-33.203,-18.066,-5.371,287.598
1690054058.542,-112.305,-33.691,-22.949,-95.215,-162.109
1690054058.546,-70.801,-34.180,-25.391,-89.844,-296.875
1690054058.550,30.273,-25.879,-21.484,-0.977,-92.773
1690054058.554,53.223,-22.949,-13.672,53.711,44.922
1690054058.558,-18.066,-28.320,-16.113,9.277,-31.250
1690054058.558,-97.656,-31.250,-21.484,-76.172,-158.203
1690054058.562,-69.336,-29.785,-15.137,-74.707,-156.738
1690054058.566,28.809,-23.926,-15.137,-0.977,-62.012
1690054058.570,63.477,-17.090,-21.484,46.387,-24.414
1690054058.574,2.930,-20.508,-18.066,26.855,57.617
1690054058.578,-91.797,-23.438,-20.508,-65.918,186.035
1690054058.582,-88.867,-23.926,-26.367,-98.145,74.219
1690054058.585,-7.324,-24.902,-26.367,-35.645,-15.625
1690054058.589,41.504,-25.879,-21.484,34.668,76.660
1690054058.593,7.324,-26.855,-20.996,35.645,386.719
1690054058.597,-89.355,-25.879,-27.832,-63.477,187.988
1690054058.601,-100.098,-24.902,-22.461,-109.863,-269.531
1690054058.605,2.930,-19.043,-18.555,-36.621,-182.129
1690054058.609,62.988,-17.090,-20.996,32.227,-96.191
1690054058.613,19.043,-17.578,-19.043,33.691,-109.863
1690054058.617,-67.871,-18.066,-15.137,-40.039,-175.293
1690054058.621,-90.332,-18.555,-14.648,-96.680,-187.988
1690054058.625,-12.695,-20.020,-21.484,-50.781,-36.133
1690054058.629,59.082,-20.508,-27.344,25.391,69.336
1690054058.632,33.203,-20.020,-26.855,36.133,5.859
1690054058.636,-66.895,-26.367,-23.926,-40.039,151.855
1690054058.640,-117.676,-23.926,-26.367,-113.770,197.754
1690054058.644,-36.133,-22.949,-27.344,-82.520,-159.180
1690054058.648,48.340,-26.367,-22.949,2.930,-138.184
1690054058.649,29.297,-23.438,-24.902,31.250,14.648
1690054058.653,-60.547,-25.391,-32.227,-38.086,-64.941
1690054058.657,-115.723,-30.273,-34.180,-106.934,-240.723
1690054058.661,-50.781,-30.273,-29.785,-69.336,-198.730
1690054058.665,36.621,-31.250,-21.973,10.254,10.742
1690054058.669,36.133,-31.250,-21.973,42.480,74.707
1690054058.673,-49.316,-33.203,-31.250,-16.113,106.445
1690054058.676,-115.723,-37.109,-37.109,-102.051,34.180
1690054058.680,-61.523,-40.039,-33.691,-76.660,228.027
1690054058.684,22.949,-39.551,-28.809,5.371,259.277
1690054058.688,34.668,-40.039,-27.344,41.016,-118.164
1690054058.692,-38.086,-38.086,-24.902,-2.441,-56.641
1690054058.695,-115.234,-36.133,-23.438,-87.891,-55.664
1690054058.699,-67.871,-32.227,-21.484,-83.008,-289.062
1690054058.703,32.715,-27.832,-20.996,3.906,-251.953
1690054058.707,52.246,-28.320,-18.066,51.270,-111.328
1690054058.711,-20.996,-32.715,-24.414,1.465,-95.703
1690054058.715,-102.051,-35.645,-37.109,-87.891,-110.352
1690054058.719,-82.520,-37.109,-35.645,-102.051,-170.898
1690054058.722,3.418,-43.945,-34.668,-29.785,73.730
1690054058.726,41.992,-44.922,-33.203,25.879,254.883
1690054058.730,-27.832,-45.410,-32.227,-5.371,-45.898
1690054058.734,-121.582,-45.898,-36.133,-92.285,-195.312
1690054058.738,-106.934,-41.016,-35.645,-114.746,-184.570
1690054058.739,-13.184,-41.016,-32.715,-45.410,-86.914
1690054058.743,35.645,-42.969,-34.668,18.066,-81.055
1690054058.747,-16.113,-41.992,-32.715,-2.930,-63.477
1690054058.751,-105.469,-43.945,-39.062,-97.168,0.977
1690054058.755,-111.328,-45.898,-39.062,-127.930,-37.109
1690054058.759,-17.090,-41.504,-29.785,-54.199,-67.871
1690054058.763,50.293,-41.016,-29.785,22.461,79.102
1690054058.766,13.672,-40.039,-27.832,34.180,479.492
1690054058.770,-80.566,-39.062,-28.320,-45.410,293.945
1690054058.774,-99.121,-42.969,-30.762,-110.840,-302.246
1690054058.778,-21.973,-46.387,-23.926,-60.547,-241.699
1690054058.782,47.363,-41.992,-16.602,27.344,-47.363
1690054058.787,18.555,-35.156,-17.578,36.133,-81.055
1690054058.791,-83.984,-36.133,-24.902,-41.992,-145.020
1690054058.795,-112.305,-37.109,-24.414,-103.516,-77.148
1690054058.799,-42.480,-39.551,-21.484,-68.848,-88.379
1690054058.803,32.227,-41.016,-20.508,7.324,-125.000
1690054058.807,26.855,-43.945,-25.879,26.855,-38.574
1690054058.811,-73.730,-46.387,-30.273,-37.598,273.438
1690054058.814,-124.512,-41.504,-21.973,-104.980,270.020
1690054058.818,-44.922,-36.621,-21.484,-67.383,-128.906
1690054058.822,34.668,-35.156,-23.438,20.020,-115.234
1690054058.826,32.715,-28.809,-17.578,52.734,43.945
1690054058.830,-47.852,-29.785,-16.602,-10.742,-16.602
1690054058.829,-108.887,-32.715,-19.531,-99.609,-154.297
1690054058.833,-56.152,-33.691,-19.043,-79.590,-164.551
1690054058.837,38.086,-30.762,-21.484,13.184,-54.688
1690054058.841,50.293,-25.391,-23.926,51.758,47.852
1690054058.845,-34.668,-26.367,-27.344,-1.465,-49.316
1690054058.849,-116.211,-27.344,-30.762,-87.891,-126.953
1690054058.853,-78.125,-27.832,-23.926,-83.008,178.223
1690054058.856,25.879,-27.344,-21.973,-0.488,254.883
1690054058.860,53.223,-27.344,-27.344,41.992,-7.812
1690054058.864,-19.043,-31.250,-28.809,4.883,42.480
1690054058.868,-104.004,-35.156,-30.273,-76.660,110.352
1690054058.872,-80.566,-30.762,-31.250,-88.867,-162.598
1690054058.889,15.137,-26.367,-26.855,-11.719,-222.656
1690054058.893,51.758,-26.367,-22.949,46.875,-14.160
1690054058.897,-10.742,-23.438,-24.902,15.625,29.297
1690054058.901,-94.238,-25.879,-30.762,-66.895,-171.875
1690054058.905,-84.961,-34.180,-32.715,-92.285,-271.484
1690054058.909,10.742,-34.180,-26.367,-20.020,-93.262
1690054058.913,58.105,-31.250,-26.367,50.781,148.438
1690054058.916,-2.441,-36.133,-34.180,27.832,110.840
1690054058.920,-88.379,-42.480,-35.645,-65.918,-80.566
1690054058.924,-84.473,-42.969,-32.715,-101.074,-119.141
1690054058.928,7.324,-35.156,-29.785,-25.879,-123.047
1690054058.932,57.129,-33.691,-27.344,44.922,-113.281
1690054058.933,8.789,-39.062,-31.738,30.762,-65.430
1690054058.937,-85.449,-42.480,-35.645,-50.293,209.473
1690054058.941,-104.492,-41.992,-30.273,-99.609,129.883
1690054058.945,-16.113,-37.598,-32.715,-46.875,-251.953
1690054058.949,48.340,-36.133,-33.203,28.809,-61.523
1690054058.953,7.324,-41.992,-29.297,33.203,167.969
1690054058.957,-89.355,-41.016,-36.133,-47.852,53.711
1690054058.960,-112.793,-32.715,-42.480,-106.934,-189.941
1690054058.964,-25.391,-29.785,-38.086,-48.828,-111.328
1690054058.968,57.129,-26.367,-31.738,35.156,303.223
1690054058.972,34.180,-23.926,-31.250,43.457,166.016
1690054058.976,-62.012,-25.879,-28.809,-30.762,-173.340
1690054058.980,-101.074,-27.344,-24.902,-94.727,-141.113
1690054058.984,-32.715,-28.320,-29.297,-63.965,-116.699
1690054058.988,42.969,-25.879,-27.344,11.719,-170.898
1690054058.992,45.898,-20.020,-20.508,48.340,-116.211
1690054058.996,-30.273,-18.555,-20.508,-7.324,-24.902
1690054059.000,-97.168,-18.066,-23.926,-89.355,8.301
1690054059.004,-41.016,-19.531,-27.344,-68.359,-9.277
1690054059.007,52.734,-22.949,-20.020,18.066,-40.527
1690054059.011,56.641,-26.855,-18.555,54.688,162.598
1690054059.015,-29.785,-32.227,-22.949,0.977,197.754
1690054059.019,-108.398,-28.809,-30.762,-90.332,-199.219
1690054059.023,-63.965,-26.855,-29.297,-77.148,-268.555
1690054059.023,43.457,-27.344,-16.602,23.926,-46.387
1690054059.027,63.477,-25.879,-11.719,74.219,17.578
1690054059.031,-16.113,-23.438,-21.973,15.137,-99.609
1690054059.035,-96.191,-23.438,-31.738,-89.355,-148.926
1690054059.039,-74.219,-29.785,-31.250,-98.145,-86.426
1690054059.043,14.648,-27.344,-27.832,-15.137,-24.902
1690054059.047,40.039,-22.949,-24.414,39.062,48.340
1690054059.050,-38.086,-31.250,-32.715,-1.465,89.844
1690054059.054,-124.512,-40.039,-36.621,-92.773,301.270
1690054059.058,-103.516,-38.086,-32.227,-105.957,142.090
1690054059.062,-11.719,-35.156,-23.438,-35.156,-241.211
1690054059.066,26.855,-35.156,-19.531,19.043,-63.477
1690054059.070,-29.785,-41.016,-24.902,2.930,-9.766
1690054059.074,-116.211,-39.551,-31.250,-78.613,-195.312
1690054059.078,-108.398,-34.668,-30.762,-108.887,-230.469
1690054059.082,-14.648,-24.414,-30.273,-35.645,-39.062
1690054059.086,44.434,-22.461,-30.273,34.668,29.297
1690054059.090,1.953,-27.832,-27.832,26.367,31.738
1690054059.094,-85.938,-33.203,-32.715,-54.688,-80.566
1690054059.097,-95.703,-37.109,-33.691,-89.844,-42.969
1690054059.101,-9.766,-33.691,-29.297,-37.598,94.727
1690054059.105,49.316,-32.227,-25.391,27.344,-108.398
1690054059.109,10.742,-29.297,-25.879,35.156,-78.613
1690054059.113,-84.961,-30.273,-30.762,-49.805,-43.945
1690054059.113,-114.258,-33.203,-32.227,-113.770,-174.316
1690054059.117,-31.738,-24.414,-30.273,-55.176,-204.102
1690054059.121,38.574,-19.043,-29.297,34.668,-90.820
1690054059.125,12.695,-25.879,-25.879,36.621,20.996
1690054059.129,-77.637,-32.715,-33.691,-46.387,20.996
1690054059.133,-113.770,-34.180,-39.551,-106.445,-82.031
1690054059.137,-39.551,-27.344,-37.598,-62.012,-63.477
1690054059.140,43.945,-26.367,-36.621,22.461,386.230
1690054059.144,37.598,-30.273,-35.156,44.922,528.809
1690054059.148,-53.223,-31.738,-36.621,-36.621,24.414
1690054059.152,-105.957,-32.715,-32.227,-112.793,-212.891
1690054059.156,-44.434,-28.320,-24.414,-72.754,-205.078
1690054059.175,35.645,-34.668,-22.461,11.230,-207.031
1690054059.179,32.227,-41.016,-20.996,44.922,-143.555
1690054059.183,-53.223,-40.527,-23.926,-18.555,-56.641
1690054059.187,-113.281,-42.969,-31.250,-112.305,-153.320
1690054059.191,-62.012,-41.016,-26.855,-92.773,-253.906
1690054059.195,32.227,-35.156,-25.391,-3.906,-72.754
1690054059.199,48.828,-29.297,-28.809,40.527,243.652
1690054059.202,-28.320,-32.227,-30.762,-7.324,328.125
1690054059.206,-104.492,-37.109,-34.180,-98.145,-45.410
1690054059.210,-72.266,-32.227,-33.691,-97.656,-274.902
1690054059.214,24.414,-27.344,-29.297,-10.254,-70.801
1690054059.218,61.035,-23.438,-29.297,46.387,75.195
1690054059.204,-19.531,-23.926,-32.715,2.441,-40.527
1690054059.208,-116.211,-27.344,-32.227,-90.820,-100.586
1690054059.212,-96.191,-31.250,-33.691,-107.422,-125.488
1690054059.216,7.812,-24.414,-30.273,-31.738,-148.438
1690054059.220,41.992,-20.996,-28.320,28.809,-77.148
1690054059.224,-31.250,-26.367,-29.785,0.977,79.590
1690054059.228,-109.375,-28.320,-27.832,-84.961,119.629
1690054059.231,-95.703,-30.762,-27.344,-108.887,-124.512
1690054059.235,0.488,-23.926,-23.926,-35.156,-229.980
1690054059.239,55.176,-22.461,-21.973,40.527,-16.113
1690054059.243,9.766,-28.809,-26.855,32.715,518.555
1690054059.247,-85.449,-29.785,-31.250,-60.547,323.730
1690054059.264,-108.398,-28.809,-30.762,-108.398,-309.570
1690054059.268,-9.766,-24.902,-22.949,-39.551,-134.766
1690054059.272,56.641,-22.461,-20.508,39.062,117.188
1690054059.276,0.977,-28.809,-18.555,34.180,-60.547
1690054059.280,-88.379,-38.086,-17.090,-45.898,-188.965
1690054059.284,-102.539,-39.062,-21.973,-97.168,-160.645
1690054059.288,-20.508,-35.645,-23.926,-41.016,1.465
1690054059.291,54.199,-33.203,-22.461,33.203,-9.766
1690054059.295,23.926,-33.691,-30.273,33.691,-101.562
1690054059.299,-71.289,-36.621,-33.203,-36.133,86.426
1690054059.303,-112.793,-35.645,-29.297,-102.539,38.574
1690054059.307,-30.762,-33.203,-26.855,-55.664,-214.844
1690054059.308,56.152,-29.785,-22.461,38.086,-84.473
1690054059.312,31.250,-27.344,-22.949,53.711,97.656
1690054059.316,-65.430,-29.785,-26.855,-26.367,-6.836
1690054059.320,-116.211,-33.691,-30.762,-103.027,-203.125
1690054059.324,-47.363,-34.668,-28.809,-69.336,-152.832
1690054059.328,48.828,-30.762,-23.926,19.043,76.660
1690054059.332,50.781,-26.855,-16.602,51.758,109.863
1690054059.335,-45.410,-29.297,-18.555,-10.254,-58.594
1690054059.339,-109.375,-30.273,-24.902,-88.379,-121.582
1690054059.343,-51.758,-30.273,-22.949,-68.359,136.230
1690054059.347,37.598,-22.949,-18.066,13.184,78.613
1690054059.351,47.363,-18.555,-17.090,52.734,-80.078
1690054059.355,-42.480,-29.297,-25.391,-8.789,-34.180
1690054059.359,-117.676,-34.668,-38.086,-98.633,-138.184
1690054059.363,-76.660,-34.180,-38.086,-94.238,-225.098
1690054059.367,15.137,-30.273,-33.691,-5.371,-130.371
1690054059.371,47.363,-25.879,-32.715,54.688,86.426
1690054059.375,-20.508,-28.809,-33.203,6.348,173.828
1690054059.379,-102.051,-28.320,-36.133,-85.938,-63.965
1690054059.382,-79.102,-30.762,-36.621,-97.168,-294.922
1690054059.386,16.602,-34.668,-33.691,-15.137,6.836
1690054059.390,55.664,-34.180,-29.785,39.062,234.863
1690054059.394,-11.719,-30.273,-28.320,3.906,-56.641
1690054059.398,-99.121,-30.273,-35.156,-79.590,-172.363
1690054059.398,-86.426,-32.227,-36.621,-106.445,-206.543
1690054059.402,7.324,-29.297,-28.320,-27.344,-208.984
1690054059.406,58.594,-25.879,-27.344,43.457,-149.414
1690054059.410,3.418,-24.414,-33.691,22.461,-54.688
1690054059.414,-93.262,-30.273,-39.551,-67.383,-27.344
1690054059.418,-101.074,-35.645,-39.551,-115.723,-76.172
1690054059.422,-13.672,-38.574,-35.156,-48.828,-43.945
1690054059.425,50.293,-34.180,-30.762,29.297,126.953
1690054059.429,8.301,-31.738,-27.344,25.391,513.672
1690054059.433,-90.332,-34.180,-30.762,-59.570,373.047
1690054059.437,-115.723,-29.785,-29.785,-118.164,-215.332
1690054059.441,-32.227,-27.832,-25.879,-59.082,-199.219
1690054059.448,46.875,-23.926,-25.879,30.762,-23.926
1690054059.452,15.625,-23.438,-23.438,35.645,-93.262
1690054059.456,-78.613,-31.250,-27.832,-47.363,-122.070
1690054059.460,-109.375,-29.785,-31.250,-104.492,-166.992
1690054059.464,-35.156,-28.320,-31.250,-54.199,-178.223
1690054059.468,47.363,-26.855,-28.809,26.855,8.789
1690054059.472,26.855,-27.344,-32.227,31.738,113.281
1690054059.475,-65.430,-31.738,-32.227,-36.133,201.660
1690054059.479,-104.492,-30.762,-23.926,-88.379,135.742
1690054059.483,-34.668,-25.879,-19.043,-58.594,-222.656
1690054059.487,53.711,-18.066,-26.855,13.672,-229.492
1690054059.491,37.598,-17.090,-34.668,30.762,4.395
1690054059.489,-56.641,-19.043,-32.227,-42.480,-12.207
1690054059.493,-109.375,-22.949,-33.203,-116.699,-221.191
1690054059.497,-49.805,-23.926,-30.273,-86.426,-223.145
1690054059.501,39.551,-20.508,-26.367,8.301,-94.238
1690054059.505,35.156,-20.996,-26.367,41.016,36.133
1690054059.509,-48.340,-26.855,-25.879,-13.184,60.547
1690054059.513,-108.887,-31.250,-25.879,-93.750,18.066
1690054059.516,-66.895,-35.645,-27.344,-92.285,314.453
1690054059.520,18.555,-36.133,-27.832,-7.812,248.535
1690054059.524,38.086,-32.715,-25.879,35.645,-155.762
1690054059.528,-34.668,-30.762,-29.297,-13.184,-31.738
1690054059.532,-116.211,-34.668,-32.227,-107.422,-38.574
1690054059.535,-86.426,-39.062,-29.785,-116.211,-300.293
1690054059.539,16.602,-34.180,-29.297,-26.855,-259.766
1690054059.543,51.758,-32.715,-31.250,31.250,21.973
1690054059.547,-22.949,-32.715,-35.156,-3.906,63.477
1690054059.551,-119.141,-32.227,-40.039,-87.891,-125.977
1690054059.555,-100.586,-30.273,-41.992,-108.887,-208.008
1690054059.559,5.859,-31.738,-42.480,-30.762,110.352
1690054059.562,49.316,-28.320,-38.086,35.645,301.270
1690054059.566,-14.648,-28.320,-35.645,14.648,-37.598
1690054059.570,-105.469,-36.621,-45.898,-74.219,-138.184
1690054059.574,-101.074,-36.621,-41.016,-108.398,-155.273
1690054059.578,-12.207,-34.180,-34.180,-45.410,-176.758
1690054059.595,52.246,-33.691,-31.250,29.785,-85.938
1690054059.599,12.207,-32.227,-28.320,29.785,37.109
1690054059.603,-85.938,-35.156,-34.668,-58.105,68.848
1690054059.607,-104.980,-42.480,-35.645,-112.793,-115.234
1690054059.611,-20.996,-44.922,-28.809,-56.641,-152.832
1690054059.615,44.922,-41.992,-28.809,26.855,105.469
1690054059.619,10.742,-41.992,-29.297,31.738,500.000
1690054059.622,-87.891,-40.039,-29.297,-52.246,275.391
1690054059.626,-114.746,-38.086,-33.203,-113.770,-286.621
1690054059.630,-33.691,-39.551,-32.715,-53.711,-186.035
1690054059.634,44.434,-37.598,-29.785,27.344,-30.273
1690054059.638,22.949,-34.668,-27.832,33.691,-45.898
1690054059.639,-77.637,-33.203,-29.785,-47.363,-145.508
1690054059.643,-121.094,-33.203,-34.180,-115.723,-204.102
1690054059.647,-46.387,-32.227,-35.645,-70.801,-188.965
1690054059.651,34.180,-32.227,-32.227,9.277,-105.957
1690054059.655,25.391,-31.250,-29.297,32.227,11.719
1690054059.659,-58.594,-35.645,-36.133,-41.016,191.895
1690054059.663,-106.934,-41.016,-32.715,-116.211,115.723
1690054059.666,-43.945,-35.645,-24.902,-87.891,-180.664
1690054059.670,51.758,-32.715,-20.020,1.953,-229.492
1690054059.674,52.734,-33.691,-19.531,46.387,149.902
1690054059.678,-39.062,-35.645,-26.367,-16.602,335.938
1690054059.682,-101.562,-32.227,-29.297,-107.422,-118.164
1690054059.684,-57.617,-30.273,-26.367,-90.820,-246.094
1690054059.688,22.949,-34.668,-22.949,0.488,-103.516
1690054059.692,36.621,-35.645,-22.949,45.898,-12.207
1690054059.696,-43.945,-36.621,-25.391,0.000,-53.711
1690054059.700,-117.188,-38.574,-25.879,-82.520,-99.121
1690054059.704,-71.777,-38.086,-25.391,-84.473,16.602
1690054059.708,16.113,-34.180,-23.438,-5.371,-16.602
1690054059.711,45.410,-25.391,-21.973,51.270,-54.199
1690054059.715,-16.602,-30.273,-26.367,16.113,77.637
1690054059.719,-89.355,-37.598,-30.273,-54.199,300.781
1690054059.723,-59.570,-29.297,-30.762,-65.918,52.734
1690054059.727,22.949,-23.926,-34.180,-20.508,-254.883
1690054059.730,49.805,-20.996,-37.598,21.973,-123.535
1690054059.734,-13.184,-27.344,-39.062,4.883,-86.426
1690054059.738,-114.746,-27.344,-39.062,-82.520,-205.078
1690054059.742,-110.352,-23.926,-39.062,-116.211,-271.484
1690054059.746,0.977,-29.297,-41.016,-39.551,-160.645
1690054059.750,44.922,-32.227,-40.039,20.020,65.918
1690054059.754,-12.207,-38.574,-37.598,0.977,151.367
1690054059.757,-98.145,-41.504,-40.039,-80.566,-5.371
1690054059.761,-111.816,-44.434,-40.527,-122.559,-38.574
1690054059.765,-21.484,-44.922,-38.574,-61.523,-46.875
1690054059.769,41.992,-41.016,-38.086,18.066,-103.516
1690054059.773,-2.441,-41.504,-42.480,14.648,-104.004
1690054059.774,-96.680,-49.316,-49.805,-70.312,151.855
1690054059.778,-121.582,-45.898,-52.734,-120.117,165.527
1690054059.782,-33.203,-37.598,-45.410,-66.895,-207.520
1690054059.786,40.527,-38.574,-38.574,15.625,-94.727
1690054059.790,11.719,-41.016,-36.133,25.879,110.352
1690054059.794,-77.148,-42.480,-43.457,-53.711,61.035
1690054059.798,-114.258,-40.527,-45.410,-119.141,-14.648
1690054059.801,-38.574,-38.574,-35.156,-71.777,14.160
1690054059.805,48.828,-34.180,-31.738,20.996,337.402
1690054059.809,35.645,-32.227,-38.574,31.738,304.199
1690054059.813,-60.059,-33.691,-43.457,-43.945,-126.953
1690054059.817,-103.027,-38.086,-37.109,-108.887,-62.012
1690054059.820,-39.062,-34.668,-28.809,-73.730,-43.945
1690054059.824,46.387,-29.297,-28.809,16.602,-183.105
1690054059.828,52.734,-22.949,-30.273,54.688,-110.840
1690054059.832,-29.785,-25.879,-33.203,-4.395,-91.797
1690054059.836,-92.285,-30.762,-33.691,-91.797,-169.922
1690054059.840,-44.922,-23.926,-25.879,-79.102,-154.297
1690054059.844,42.480,-26.367,-23.438,5.859,-96.191
1690054059.847,51.758,-34.180,-27.344,50.781,208.984
1690054059.851,-32.227,-31.738,-25.391,-1.465,318.848
1690054059.855,-109.863,-33.203,-25.391,-96.191,-161.621
1690054059.859,-71.289,-33.691,-22.949,-93.262,-332.520
1690054059.863,28.809,-28.320,-15.625,-3.906,-205.566
1690054059.895,47.363,-31.250,-21.484,44.922,-115.723
1690054059.899,-27.832,-27.344,-28.809,5.371,-86.426
1690054059.903,-101.562,-22.461,-31.738,-76.172,-134.277
1690054059.907,-80.078,-28.809,-31.250,-88.867,-145.508
1690054059.911,18.066,-28.320,-27.344,-12.207,-105.469
1690054059.915,51.758,-21.484,-25.879,45.898,-13.672
1690054059.919,-11.719,-22.949,-26.855,17.578,91.797
1690054059.922,-97.656,-25.879,-28.320,-68.848,334.961
1690054059.926,-102.539,-28.320,-25.391,-102.539,148.926
1690054059.930,-14.648,-30.762,-22.949,-36.621,-224.609
1690054059.934,41.992,-30.273,-24.902,41.016,-83.008
1690054059.938,-4.883,-25.391,-22.461,33.691,-26.855
1690054059.913,-96.680,-28.809,-27.832,-65.918,-182.129
1690054059.917,-94.238,-29.785,-33.691,-109.863,-278.320
1690054059.921,-9.766,-30.273,-29.785,-37.109,-158.691
1690054059.925,41.992,-30.762,-29.297,38.574,-55.176
1690054059.929,1.465,-27.344,-30.762,31.738,-10.742
1690054059.933,-97.168,-36.133,-30.762,-52.246,-30.273
1690054059.937,-113.281,-37.109,-23.438,-100.098,-35.156
1690054059.940,-18.066,-30.273,-22.461,-44.434,-62.988
1690054059.944,52.734,-27.832,-26.367,32.227,-136.719
1690054059.948,23.438,-25.879,-23.926,41.016,-70.801
1690054059.952,-68.848,-27.832,-20.996,-25.879,-51.758
1690054059.956,-104.492,-29.785,-26.367,-91.309,-142.090
1690054059.954,-30.273,-23.926,-29.785,-55.176,-193.848
1690054059.958,41.504,-22.461,-22.949,36.133,-82.520
1690054059.962,28.320,-27.344,-22.461,53.223,184.570
1690054059.966,-62.500,-27.832,-29.785,-23.926,112.305
1690054059.970,-119.141,-25.879,-31.250,-94.727,-169.922
1690054059.974,-58.105,-29.785,-30.273,-61.523,-103.516
1690054059.978,30.762,-30.762,-23.926,28.320,330.566
1690054059.981,26.855,-31.738,-21.973,52.246,763.672
1690054059.985,-68.359,-34.180,-22.949,-18.555,385.742
1690054059.989,-122.070,-34.668,-16.602,-86.426,-189.941
1690054059.993,-57.617,-35.645,-15.625,-54.688,-233.887
1690054059.997,30.762,-24.414,-20.508,17.090,-210.938
1690054060.013,28.809,-19.043,-32.227,30.762,-152.344
1690054060.017,-54.199,-25.391,-39.062,-16.602,-89.844
1690054060.021,-128.906,-20.508,-34.180,-98.633,-191.895
1690054060.025,-94.238,-21.973,-31.250,-100.098,-263.184
1690054060.029,11.230,-29.297,-31.250,-8.301,-172.363
1690054060.033,33.691,-31.738,-35.156,41.504,97.656
1690054060.037,-44.922,-32.715,-36.621,0.488,166.992
1690054060.040,-113.770,-32.227,-35.156,-90.332,-90.820
1690054060.044,-79.590,-30.762,-37.598,-109.375,-177.246
1690054060.048,11.230,-34.668,-34.180,-24.414,171.387
1690054060.052,45.410,-33.691,-32.227,33.203,311.523
1690054060.056,-19.043,-33.691,-31.250,-6.348,-32.715
1690054060.059,-117.188,-38.574,-28.320,-82.031,-203.125
1690054060.063,-111.328,-38.086,-26.855,-102.539,-227.051
1690054060.067,-7.324,-34.180,-27.344,-38.086,-170.410
1690054060.071,47.363,-28.809,-28.809,35.645,-171.875
1690054060.075,-7.324,-30.273,-28.320,24.902,23.926
1690054060.079,-90.332,-30.762,-27.832,-64.453,239.258
1690054060.083,-86.426,-29.785,-25.391,-103.516,54.199
1690054060.086,-1.953,-35.645,-26.855,-39.062,-113.281
1690054060.090,51.270,-29.785,-22.461,38.574,-14.160
1690054060.094,8.789,-23.926,-16.113,37.109,283.691
1690054060.098,-89.844,-31.250,-23.926,-51.270,62.012
1690054060.102,-101.562,-34.668,-28.809,-101.562,-231.934
1690054060.120,-13.672,-36.133,-27.344,-46.387,-49.316
1690054060.124,52.246,-33.203,-28.809,34.180,45.410
1690054060.128,18.555,-29.297,-28.809,40.039,-69.336
1690054060.132,-65.430,-33.203,-30.273,-40.527,-170.410
1690054060.136,-100.098,-36.621,-31.250,-105.469,-234.863
1690054060.140,-32.715,-35.156,-28.809,-57.129,-186.035
1690054060.144,49.805,-28.320,-24.414,38.086,-5.371
1690054060.147,32.227,-25.879,-23.438,46.875,3.906
1690054060.151,-56.641,-29.297,-30.273,-29.785,105.469
1690054060.155,-93.750,-24.902,-29.297,-101.074,114.258
1690054060.159,-30.762,-25.391,-26.367,-69.336,-233.887
1690054060.163,53.223,-26.855,-21.484,21.484,-193.359
1690054060.150,44.922,-23.926,-18.555,40.039,-35.645
1690054060.154,-53.711,-24.902,-24.414,-35.156,-63.965
1690054060.158,-103.516,-27.344,-25.391,-103.516,-197.266
1690054060.162,-43.457,-33.203,-23.438,-73.242,-159.668
1690054060.166,38.086,-29.785,-23.438,9.277,108.398
1690054060.170,40.039,-25.391,-21.484,45.410,125.000
1690054060.174,-40.039,-28.809,-20.020,-8.789,28.809
1690054060.177,-108.887,-29.785,-21.973,-89.844,46.875
1690054060.181,-73.730,-35.156,-21.484,-88.379,-42.480
1690054060.185,13.672,-35.645,-22.949,-15.625,-91.797
1690054060.189,46.387,-31.250,-27.344,34.668,-62.500
1690054060.193,-28.809,-29.785,-28.809,-10.742,-0.977
1690054060.195,-114.746,-29.785,-26.367,-96.680,303.223
1690054060.199,-87.891,-34.180,-28.809,-99.121,98.633
1690054060.203,7.812,-34.180,-25.391,-17.090,-228.516
1690054060.207,56.641,-29.297,-20.020,44.434,-69.824
1690054060.211,-2.441,-28.320,-24.902,12.207,-41.016
1690054060.215,-99.121,-29.297,-25.391,-70.312,-100.098
1690054060.219,-91.309,-29.785,-25.391,-87.402,-144.043
1690054060.222,9.277,-27.832,-22.949,-5.859,63.965
1690054060.226,63.965,-23.438,-18.066,65.918,315.430
1690054060.230,11.230,-23.438,-21.484,30.762,19.531
1690054060.234,-81.055,-25.879,-23.438,-58.594,-194.336
1690054060.238,-81.543,-25.391,-22.949,-92.285,-225.586
1690054060.239,4.395,-27.832,-22.461,-26.855,-220.215
1690054060.243,61.035,-32.715,-20.508,44.922,-103.027
1690054060.247,21.973,-34.668,-23.926,36.133,18.555
1690054060.251,-76.660,-28.320,-27.832,-54.688,-42.969
1690054060.255,-95.215,-24.902,-23.438,-106.934,-179.688
1690054060.259,-15.625,-28.320,-21.973,-41.016,-83.496
1690054060.263,47.852,-27.344,-23.926,42.480,62.988
1690054060.266,19.531,-23.926,-23.926,46.387,438.477
1690054060.270,-70.312,-24.414,-26.367,-44.434,432.617
1690054060.274,-101.562,-23.438,-24.414,-114.258,-177.246
1690054060.278,-23.438,-31.250,-25.879,-54.199,-226.074
1690054060.282,52.246,-33.203,-25.879,28.809,-52.246
1690054060.285,26.855,-30.273,-23.438,34.668,-103.027
1690054060.289,-68.359,-29.297,-25.879,-35.156,-152.344
1690054060.293,-108.887,-27.344,-23.926,-99.609,-170.898
1690054060.297,-35.645,-27.832,-22.461,-71.777,-199.707
1690054060.301,48.828,-26.855,-20.508,9.766,-157.715
1690054060.305,35.645,-28.809,-21.973,38.086,-18.066
1690054060.309,-51.758,-29.785,-25.391,-26.367,305.176
1690054060.312,-108.887,-31.250,-30.273,-106.445,237.305
1690054060.316,-60.059,-34.180,-31.250,-80.566,-241.699
1690054060.320,25.391,-36.133,-32.227,8.301,-193.359
1690054060.324,32.715,-36.621,-36.621,39.062,21.484
1690054060.328,-48.828,-33.691,-33.691,-21.484,-40.039
1690054060.343,-119.629,-40.039,-35.645,-104.980,-252.441
1690054060.347,-69.824,-41.016,-31.738,-82.031,-281.250
1690054060.351,27.344,-35.156,-26.855,6.836,-129.883
1690054060.355,41.992,-34.180,-25.879,52.734,-26.855
1690054060.359,-42.480,-35.156,-23.926,3.906,-0.488
1690054060.363,-113.281,-33.691,-27.344,-90.820,-74.219
1690054060.367,-70.801,-35.156,-31.738,-84.961,278.320
1690054060.370,20.996,-31.738,-28.320,-5.371,328.125
1690054060.374,51.270,-22.949,-22.949,46.387,-138.672
1690054060.378,-12.207,-26.367,-29.785,17.090,-54.199
1690054060.382,-90.820,-28.809,-42.480,-83.496,-62.500
1690054060.386,-69.336,-31.738,-38.574,-109.375,-235.840
1690054060.392,21.973,-31.250,-27.832,-20.508,-175.293
1690054060.396,61.523,-26.855,-21.484,56.641,62.012
1690054060.400,0.977,-30.762,-19.043,36.621,135.254
1690054060.404,-83.008,-38.086,-24.414,-49.316,-152.344
1690054060.408,-84.961,-29.785,-30.762,-86.914,-271.973
1690054060.412,-12.695,-18.555,-39.062,-46.387,-65.430
1690054060.416,41.016,-25.879,-41.016,20.508,148.438
1690054060.419,-2.441,-34.668,-40.039,17.090,15.137
1690054060.423,-105.957,-40.527,-45.898,-80.078,-174.316
1690054060.427,-120.117,-41.992,-49.805,-119.141,39.062
1690054060.431,-32.715,-34.180,-44.922,-58.105,150.391
1690054060.435,29.297,-33.203,-38.574,13.672,-89.355
1690054060.450,-4.883,-34.668,-38.574,14.160,-63.965
1690054060.454,-88.379,-29.785,-42.969,-73.730,-61.523
1690054060.458,-109.863,-34.180,-41.992,-125.977,-135.742
1690054060.462,-31.250,-33.203,-33.203,-73.730,-215.332
1690054060.466,43.457,-28.320,-27.344,9.277,-26.855
1690054060.470,17.578,-35.156,-26.367,25.879,301.270
1690054060.474,-74.219,-35.156,-33.691,-54.199,157.715
1690054060.477,-113.770,-30.273,-35.645,-118.652,-128.906
1690054060.481,-37.109,-28.320,-23.438,-68.848,-120.117
1690054060.485,45.898,-34.180,-24.414,23.926,300.293
1690054060.489,34.180,-36.621,-27.344,52.734,417.969
1690054060.493,-51.758,-31.738,-30.762,-19.043,40.039
1690054060.495,-113.281,-30.273,-38.086,-104.004,-167.480
1690054060.499,-51.270,-33.691,-36.621,-76.172,-177.246
1690054060.503,31.738,-33.691,-33.691,11.230,-146.484
1690054060.507,24.414,-30.273,-31.250,39.062,-100.098
1690054060.511,-57.129,-30.762,-30.273,-24.902,-58.594
1690054060.515,-122.559,-32.715,-29.297,-108.887,-56.641
1690054060.519,-66.406,-31.738,-29.785,-82.520,-47.852
1690054060.522,33.691,-29.785,-26.367,4.883,-57.617
1690054060.526,43.945,-29.297,-21.484,42.969,32.227
1690054060.530,-35.156,-28.320,-22.949,-7.812,26.855
1690054060.534,-109.375,-27.344,-25.879,-98.145,-190.918
1690054060.538,-77.637,-27.832,-25.879,-98.145,-267.578
1690054060.554,20.508,-23.926,-18.555,-5.859,118.164
1690054060.558,50.293,-23.926,-17.090,52.246,341.309
1690054060.562,-17.578,-22.949,-16.602,10.254,-43.457
1690054060.566,-94.727,-21.484,-18.555,-81.543,-199.219
1690054060.570,-73.242,-20.020,-18.066,-96.191,-120.117
1690054060.574,17.090,-21.973,-21.973,-14.160,-36.621
1690054060.578,49.316,-24.414,-24.414,38.574,91.797
1690054060.581,-10.254,-22.949,-29.297,2.441,141.602
1690054060.585,-95.215,-27.344,-40.039,-87.891,-20.996
1690054060.589,-87.891,-32.715,-39.062,-110.840,-263.672
1690054060.593,9.277,-31.250,-34.668,-24.414,-255.859
1690054060.597,52.734,-25.879,-36.133,52.734,-38.574
1690054060.570,-1.953,-29.785,-35.645,32.227,360.352
1690054060.574,-89.355,-30.273,-35.645,-64.941,253.906
1690054060.578,-104.004,-27.832,-34.668,-108.398,-206.055
1690054060.582,-19.043,-28.809,-27.344,-42.969,-191.895
1690054060.586,29.297,-33.203,-25.879,27.344,-49.805
1690054060.590,-13.184,-36.621,-33.691,17.090,-41.504
1690054060.594,-90.332,-33.691,-30.273,-65.918,-59.570
1690054060.597,-110.840,-30.273,-24.902,-119.629,-112.793
1690054060.601,-19.531,-28.809,-21.484,-55.664,-187.500
1690054060.605,61.035,-23.926,-22.949,37.598,-111.816
1690054060.609,20.020,-24.902,-30.273,37.109,9.766
1690054060.613,-74.219,-29.297,-32.227,-45.410,50.781
1690054060.615,-111.816,-32.227,-34.668,-112.793,-93.750
1690054060.619,-43.457,-34.180,-31.738,-65.918,-209.473
1690054060.623,32.227,-31.250,-27.832,19.531,-133.301
1690054060.627,18.066,-24.414,-25.391,34.668,262.207
1690054060.631,-71.289,-17.578,-22.949,-35.645,302.734
1690054060.635,-115.723,-20.508,-28.320,-112.793,-159.180
1690054060.639,-54.688,-30.273,-29.785,-77.148,-119.141
1690054060.642,32.227,-33.203,-25.391,10.254,246.094
1690054060.646,29.785,-35.645,-19.531,35.156,154.297
1690054060.650,-66.406,-35.645,-23.926,-26.367,-164.551
1690054060.654,-120.605,-38.574,-29.785,-105.469,-65.918
1690054060.658,-63.965,-41.504,-25.879,-83.496,52.246
1690054060.677,21.973,-35.645,-30.273,-2.930,-41.992
1690054060.681,40.039,-29.297,-33.691,28.809,-132.812
1690054060.685,-48.340,-29.785,-33.691,-22.949,-77.637
1690054060.689,-121.094,-30.762,-33.691,-104.492,-150.879
1690054060.693,-79.102,-30.273,-29.297,-97.168,-280.762
1690054060.697,14.648,-31.738,-22.949,-14.648,-94.727
1690054060.701,39.551,-31.250,-20.508,36.621,313.477
1690054060.704,-36.621,-34.180,-25.879,-6.836,447.754
1690054060.708,-111.816,-32.227,-27.832,-93.750,-48.340
1690054060.712,-77.637,-27.344,-27.344,-92.773,-292.969
1690054060.716,23.438,-24.902,-25.879,-4.395,-177.246
1690054060.720,50.781,-30.273,-22.949,48.828,-61.523
1690054060.704,-21.484,-38.574,-23.438,10.254,-58.594
1690054060.708,-104.004,-39.551,-25.879,-63.477,-122.559
1690054060.712,-86.426,-35.645,-26.855,-84.961,-123.047
1690054060.716,8.789,-28.320,-23.438,-24.414,-86.914
1690054060.720,55.664,-25.391,-16.602,41.992,-80.566
1690054060.724,-5.859,-27.344,-18.555,21.484,68.359
1690054060.728,-91.797,-30.762,-24.902,-68.848,116.211
1690054060.731,-87.402,-25.879,-25.391,-100.098,-96.680
1690054060.735,-1.953,-24.414,-21.484,-21.973,-166.016
1690054060.739,64.941,-27.832,-22.461,54.199,-48.828
1690054060.743,25.391,-26.855,-20.996,53.711,368.652
1690054060.747,-87.891,-29.785,-23.438,-42.480,332.520
1690054060.764,-109.863,-35.156,-29.785,-116.699,-192.383
1690054060.768,-19.531,-31.738,-22.461,-51.270,-223.633
1690054060.772,58.105,-29.785,-20.020,37.598,-77.148
1690054060.776,29.785,-35.645,-22.461,37.109,-97.656
1690054060.780,-64.453,-35.645,-26.855,-45.410,-166.992
1690054060.784,-96.191,-36.621,-29.785,-98.633,-138.672
1690054060.788,-27.832,-38.574,-27.832,-46.387,-39.062
1690054060.791,46.387,-27.344,-23.926,29.297,37.109
1690054060.795,20.996,-29.297,-21.973,36.621,-59.570
1690054060.799,-67.383,-31.738,-26.855,-32.227,119.629
1690054060.803,-105.957,-28.320,-32.227,-94.238,201.660
1690054060.807,-46.387,-29.785,-32.227,-72.754,-203.613
1690054060.824,36.133,-25.879,-26.855,8.789,-168.945
1690054060.828,41.504,-20.020,-26.855,41.992,3.418
1690054060.832,-44.922,-22.949,-32.715,-23.438,-57.617
1690054060.836,-108.398,-26.367,-34.180,-99.609,-222.656
1690054060.840,-51.270,-28.320,-29.785,-71.777,-157.227
1690054060.844,35.645,-29.297,-31.250,25.879,113.770
1690054060.848,37.598,-26.367,-31.738,52.246,132.324
1690054060.851,-44.434,-31.250,-34.668,-23.926,33.691
1690054060.855,-111.328,-36.621,-37.598,-112.305,-53.711
1690054060.859,-69.824,-36.621,-31.250,-87.891,202.637
1690054060.863,17.090,-41.504,-23.438,-3.418,204.590
1690054060.867,54.688,-41.504,-21.973,50.781,-95.703
1690054060.855,-7.324,-36.621,-28.809,9.766,-75.684
1690054060.859,-107.910,-30.273,-35.645,-107.422,-147.949
1690054060.863,-85.449,-24.902,-35.156,-114.258,-252.441
1690054060.867,16.602,-25.391,-31.250,-12.207,-208.496
1690054060.871,62.012,-26.367,-30.273,59.082,-27.344
1690054060.875,-6.348,-24.414,-29.785,17.090,73.242
1690054060.879,-104.492,-28.809,-31.738,-83.984,-45.898
1690054060.882,-90.332,-33.203,-28.809,-107.422,-172.363
1690054060.886,3.906,-30.273,-26.855,-33.691,-111.816
1690054060.890,50.781,-26.367,-25.879,36.133,1.465
1690054060.894,-8.301,-27.344,-22.461,21.484,15.625
1690054060.898,-100.586,-31.738,-24.414,-60.059,-104.492
1690054060.898,-94.238,-33.203,-25.879,-90.332,97.168
1690054060.902,-1.953,-30.762,-27.344,-20.508,255.371
1690054060.906,50.293,-29.297,-27.344,45.410,-70.312
1690054060.910,4.883,-32.227,-23.926,33.691,-91.797
1690054060.914,-81.543,-33.203,-28.809,-50.781,-47.852
1690054060.918,-102.539,-36.133,-30.273,-94.727,-118.164
1690054060.922,-21.484,-37.598,-27.344,-40.039,-127.930
1690054060.925,58.105,-31.250,-28.320,42.969,-34.180
1690054060.929,24.414,-26.855,-26.367,47.363,335.449
1690054060.933,-72.754,-25.879,-24.902,-45.898,225.098
1690054060.937,-102.539,-23.926,-26.367,-107.910,-276.367
1690054060.941,-26.855,-27.344,-27.344,-49.316,-244.629
1690054060.947,45.898,-27.832,-32.715,32.227,-123.047
1690054060.951,19.043,-29.297,-33.691,34.668,-83.984
1690054060.955,-67.383,-34.668,-37.598,-43.945,-164.551
1690054060.959,-106.934,-34.668,-43.457,-105.469,-132.324
1690054060.963,-39.551,-32.715,-36.133,-69.336,-61.035
1690054060.967,40.039,-31.738,-30.762,7.324,-87.402
1690054060.971,28.320,-28.809,-30.762,33.691,-27.344
1690054060.974,-65.918,-33.203,-30.762,-35.156,179.199
1690054060.978,-113.281,-36.133,-30.273,-113.281,166.016
1690054060.982,-47.363,-30.762,-35.156,-80.566,-195.801
1690054060.986,35.645,-30.273,-34.180,2.930,-215.332
1690054060.990,43.457,-29.297,-26.855,43.945,-54.199
1690054060.989,-34.180,-25.391,-23.926,-2.930,-56.152
1690054060.993,-104.980,-27.832,-25.391,-94.238,-179.199
1690054060.997,-65.918,-33.691,-26.855,-75.684,-161.621
1690054061.001,30.273,-29.785,-22.949,16.602,37.109
1690054061.005,47.852,-25.879,-23.438,52.246,104.004
1690054061.009,-32.227,-26.367,-28.320,4.883,58.594
1690054061.013,-99.609,-26.855,-29.297,-81.055,-1.953
1690054061.016,-67.383,-25.879,-26.367,-91.797,263.672
1690054061.020,24.414,-23.438,-24.902,-1.953,361.328
1690054061.024,57.129,-23.926,-18.555,59.570,8.301
1690054061.028,-20.020,-26.855,-18.066,16.602,-85.938
1690054061.032,-104.980,-30.273,-24.902,-73.730,-173.340
1690054061.050,-87.891,-30.273,-28.320,-101.562,-355.957
1690054061.054,12.695,-26.855,-27.344,-23.438,-256.348
1690054061.058,65.918,-20.508,-24.902,52.734,-29.297
1690054061.062,6.836,-17.578,-23.926,31.250,-4.883
1690054061.066,-85.938,-22.949,-25.391,-58.594,-167.969
1690054061.070,-80.566,-25.391,-25.391,-89.844,-220.215
1690054061.074,19.531,-23.438,-23.926,-18.066,139.160
1690054061.077,64.941,-22.949,-26.855,47.363,391.602
1690054061.081,13.184,-25.391,-32.227,20.996,21.484
1690054061.085,-73.730,-27.344,-36.133,-60.059,-228.027
1690054061.089,-86.914,-27.832,-32.227,-102.539,-157.715
1690054061.093,-4.883,-25.391,-29.297,-50.293,-143.555
1690054061.079,52.734,-27.344,-32.715,27.832,-163.574
1690054061.083,17.578,-25.391,-32.227,25.879,-97.656
1690054061.087,-72.266,-23.926,-28.320,-52.246,-133.301
1690054061.091,-114.258,-33.203,-23.926,-104.492,-266.113
1690054061.095,-33.203,-32.715,-21.973,-51.270,-252.441
1690054061.099,51.270,-26.855,-24.902,32.715,28.809
1690054061.103,15.625,-25.879,-29.297,36.133,206.543
1690054061.106,-76.172,-26.367,-34.668,-39.551,21.973
1690054061.110,-111.816,-30.762,-32.227,-102.051,-136.719
1690054061.114,-43.457,-34.180,-20.508,-57.617,-113.281
1690054061.118,38.574,-38.086,-19.043,31.250,319.336
1690054061.122,22.949,-37.109,-22.461,41.016,432.617
1690054061.140,-70.312,-43.457,-24.414,-32.227,-52.246
1690054061.144,-124.512,-46.875,-27.832,-107.422,-193.359
1690054061.148,-58.105,-43.457,-24.902,-78.613,-147.949
1690054061.152,31.738,-43.457,-18.066,16.113,-128.418
1690054061.156,26.367,-38.574,-16.602,43.945,-70.312
1690054061.160,-55.176,-36.133,-24.902,-20.020,-29.297
1690054061.164,-123.047,-38.574,-27.832,-108.887,-65.430
1690054061.167,-73.730,-39.062,-22.949,-105.957,-203.125
1690054061.171,22.461,-35.645,-23.438,-19.531,-222.656
1690054061.175,38.574,-33.691,-19.531,41.992,123.047
1690054061.179,-33.203,-34.668,-20.020,-0.488,291.016
1690054061.183,-105.469,-33.203,-24.902,-93.262,-103.516
1690054061.183,-78.613,-33.691,-25.391,-93.262,-309.082
1690054061.187,13.184,-33.203,-18.066,0.977,-104.004
1690054061.191,48.340,-32.227,-20.508,62.500,24.902
1690054061.195,-13.184,-37.598,-31.250,16.113,-61.523
1690054061.199,-90.820,-36.621,-28.809,-76.660,7.812
1690054061.203,-73.730,-30.762,-21.484,-89.355,132.812
1690054061.207,11.230,-32.715,-20.996,-19.531,41.016
1690054061.210,51.270,-31.250,-20.508,47.363,-31.738
1690054061.214,-1.953,-30.273,-18.066,27.344,12.695
1690054061.218,-96.680,-34.668,-23.926,-68.848,281.738
1690054061.222,-104.980,-35.156,-31.250,-113.281,149.414
1690054061.226,-12.695,-36.133,-30.762,-47.363,-199.707
1690054061.230,47.363,-36.133,-24.414,29.297,-18.066
1690054061.234,-0.977,-35.156,-24.902,12.695,89.844
1690054061.238,-94.238,-40.039,-36.133,-76.172,-141.113
1690054061.242,-93.750,-35.645,-36.133,-105.469,-309.570
1690054061.246,-3.418,-28.809,-28.320,-32.715,-67.871
1690054061.250,39.062,-29.297,-26.367,19.043,142.090
1690054061.254,-2.441,-28.320,-24.414,8.789,37.598
1690054061.257,-81.543,-31.250,-26.855,-62.500,-126.465
1690054061.261,-98.633,-32.227,-28.809,-117.676,5.371
1690054061.265,-27.344,-29.785,-28.809,-66.406,130.859
1690054061.269,39.551,-31.738,-23.438,21.484,-110.840
1690054061.273,11.230,-33.203,-25.391,40.039,-87.891
1690054061.273,-85.449,-40.039,-35.156,-46.387,-89.355
1690054061.277,-119.141,-43.457,-32.227,-116.699,-202.637
1690054061.281,-53.223,-40.527,-29.297,-63.965,-273.438
1690054061.285,33.203,-39.062,-29.785,23.926,-43.457
1690054061.289,29.785,-32.227,-25.879,37.598,190.430
1690054061.293,-62.988,-25.391,-26.367,-41.016,29.785
1690054061.297,-116.699,-29.297,-27.344,-114.258,-124.023
1690054061.300,-47.363,-31.738,-22.949,-70.801,-126.465
1690054061.304,41.504,-28.320,-24.902,18.066,262.695
1690054061.308,38.574,-26.367,-28.320,46.875,375.488
1690054061.312,-47.852,-25.879,-30.273,-18.555,-74.219
1690054061.316,-104.980,-30.273,-28.809,-97.168,-203.613
1690054061.321,-52.734,-28.320,-24.902,-84.473,-223.145
1690054061.325,27.832,-28.320,-27.344,-13.184,-222.168
1690054061.329,29.785,-37.598,-33.203,31.250,-149.902
1690054061.333,-40.039,-35.156,-26.367,-7.324,-83.008
1690054061.337,-103.027,-26.855,-23.438,-88.867,-138.672
1690054061.341,-67.383,-34.180,-28.320,-81.543,-129.883
1690054061.345,18.555,-40.039,-32.227,0.000,-37.109
1690054061.348,40.039,-37.598,-31.250,45.898,248.535
1690054061.352,-28.809,-39.551,-28.320,1.465,383.301
1690054061.356,-107.910,-41.016,-31.738,-94.238,-62.988
1690054061.360,-87.402,-38.574,-31.738,-103.027,-281.738
1690054061.364,-3.418,-40.527,-31.738,-20.996,-155.273
1690054061.364,33.691,-35.645,-32.227,32.715,-59.570
1690054061.368,-24.414,-28.809,-35.156,3.418,-93.750
1690054061.372,-100.586,-33.691,-39.062,-89.844,-105.957
1690054061.376,-83.008,-32.227,-35.156,-107.422,-111.816
1690054061.380,6.836,-24.414,-29.785,-21.484,-17.090
1690054061.384,48.340,-28.809,-32.715,34.668,172.363
1690054061.388,-10.742,-35.645,-39.062,9.766,234.863
1690054061.391,-106.445,-39.551,-40.527,-66.895,354.492
1690054061.395,-116.211,-41.504,-37.598,-108.398,182.617
1690054061.399,-29.785,-37.109,-39.062,-50.293,-226.562
1690054061.403,45.410,-30.273,-33.691,42.480,-87.402
1690054061.407,9.277,-29.785,-33.691,34.180,70.801
1690054061.410,-84.961,-33.203,-39.551,-63.965,-174.316
1690054061.414,-100.586,-31.738,-36.621,-111.816,-300.781
1690054061.418,-18.555,-26.855,-26.855,-46.387,-190.430
1690054061.422,48.340,-25.391,-20.996,30.273,-68.359
1690054061.426,22.461,-29.297,-29.297,31.250,-17.578
1690054061.430,-73.242,-27.344,-35.156,-44.922,-53.711
1690054061.434,-115.234,-24.902,-31.738,-106.934,202.148
1690054061.437,-43.945,-27.832,-34.668,-61.035,258.301
1690054061.441,27.344,-28.809,-33.691,13.672,-130.859
1690054061.445,14.160,-29.785,-28.320,25.391,-96.191
1690054061.449,-63.965,-25.391,-29.297,-41.016,-35.156
1690054061.453,-115.723,-21.973,-29.785,-117.188,-78.125
1690054061.454,-64.453,-26.855,-29.785,-92.773,-195.312
1690054061.458,20.508,-24.902,-31.250,0.000,-127.930
1690054061.462,16.113,-22.949,-29.785,34.180,73.242
1690054061.466,-73.242,-29.297,-35.156,-39.062,3.906
1690054061.470,-125.000,-34.668,-35.156,-121.094,-155.762
1690054061.474,-66.895,-33.691,-26.855,-88.379,-114.258
1690054061.478,20.508,-33.691,-25.879,7.812,383.789
1690054061.481,32.227,-34.668,-29.297,38.574,388.672
1690054061.485,-43.457,-35.156,-34.180,-25.879,-168.457
1690054061.489,-117.188,-31.738,-38.086,-104.004,-203.613
1690054061.493,-73.730,-33.203,-30.273,-92.285,-163.574
1690054061.497,34.180,-31.738,-20.996,-2.930,-223.145
1690054061.515,58.105,-29.297,-25.879,50.293,-129.883
1690054061.519,-20.996,-32.227,-27.344,2.441,5.859
1690054061.523,-99.609,-31.250,-27.832,-90.332,-118.164
1690054061.527,-71.777,-35.645,-30.273,-95.703,-278.809
1690054061.531,29.297,-33.203,-24.902,-11.230,-230.957
1690054061.535,70.312,-23.926,-22.949,52.734,108.398
1690054061.539,-1.465,-24.902,-26.855,15.137,283.691
1690054061.542,-97.656,-30.762,-31.250,-87.402,-40.039
1690054061.546,-91.309,-33.691,-31.738,-112.793,-224.121
1690054061.550,1.465,-31.250,-32.227,-29.297,17.578
1690054061.554,46.387,-31.738,-33.203,35.645,164.062
1690054061.558,-9.766,-33.203,-31.250,2.930,-35.645
1690054061.559,-93.262,-32.715,-31.738,-74.707,-140.625
1690054061.563,-94.727,-34.180,-28.809,-106.445,-211.426
1690054061.567,-10.742,-37.109,-31.738,-47.852,-168.945
1690054061.571,50.781,-39.062,-35.645,23.438,-58.105
1690054061.575,20.020,-35.645,-34.180,20.508,64.453
1690054061.579,-67.383,-35.645,-35.156,-50.781,233.398
1690054061.583,-92.285,-36.133,-37.109,-102.539,9.277
1690054061.586,-15.137,-34.180,-30.273,-49.805,-166.504
1690054061.590,61.035,-24.902,-20.020,37.598,-30.273
1690054061.594,35.645,-24.414,-22.949,41.992,283.203
1690054061.598,-61.035,-30.762,-34.180,-47.852,182.129
1690054061.602,-103.516,-36.133,-34.668,-118.164,-257.812
1690054061.605,-32.715,-39.062,-20.020,-59.082,-165.039
1690054061.609,51.270,-29.297,-9.277,42.969,5.859
1690054061.613,32.715,-29.297,-19.531,51.270,-81.055
1690054061.617,-60.547,-34.668,-21.484,-32.715,-168.945
1690054061.621,-106.445,-36.621,-27.832,-109.863,-191.406
1690054061.625,-59.570,-37.598,-46.875,-86.914,-89.355
1690054061.629,9.277,-42.969,-44.922,-8.789,-16.113
1690054061.632,8.301,-39.551,-42.480,9.277,-40.527
1690054061.636,-63.477,-27.344,-31.250,-45.410,120.605
1690054061.640,-122.559,-28.320,-20.020,-122.070,208.008
1690054061.644,-96.680,-30.273,-30.762,-127.441,-158.691
1690054061.648,-24.902,-24.902,-35.645,-54.688,-208.496
1690054061.649,-18.555,-24.414,-30.762,-18.066,-41.504
1690054061.653,-94.727,-27.832,-33.691,-74.707,-62.012
1690054061.657,-162.109,-29.297,-37.109,-160.156,-194.824
1690054061.661,-127.930,-34.180,-33.203,-154.297,-184.570
1690054061.665,-47.852,-37.598,-29.785,-69.824,-2.930
1690054061.669,-27.832,-35.645,-30.273,-28.809,28.320
1690054061.673,-96.191,-36.621,-33.691,-80.566,32.227
1690054061.676,-160.645,-39.062,-30.762,-152.832,22.949
1690054061.680,-119.141,-41.992,-30.762,-138.672,217.285
1690054061.684,-23.438,-43.945,-28.809,-52.246,350.586
1690054061.688,4.883,-44.434,-25.391,8.789,39.551
1690054061.692,-53.223,-42.969,-27.832,-19.043,-25.879
1690054061.695,-121.582,-40.039,-31.738,-98.633,-76.660
1690054061.699,-100.586,-37.598,-30.273,-112.793,-251.953
1690054061.703,-8.301,-33.691,-23.926,-37.109,-183.594
1690054061.707,29.785,-40.527,-25.879,33.691,17.578
1690054061.711,-25.391,-47.852,-30.762,15.625,24.414
1690054061.715,-98.633,-46.387,-32.715,-67.871,-28.809
1690054061.719,-94.727,-39.062,-31.250,-103.027,-65.918
1690054061.722,-0.488,-30.762,-25.391,-22.461,104.980
1690054061.726,60.547,-32.715,-25.879,59.082,229.492
1690054061.730,5.371,-36.133,-37.109,25.879,-77.148
1690054061.734,-82.031,-34.668,-43.457,-62.988,-227.051
1690054061.738,-92.285,-38.086,-39.551,-96.680,-196.289
1690054061.738,-12.695,-35.645,-38.086,-34.668,-141.602
1690054061.742,48.828,-31.250,-35.156,38.086,-90.820
1690054061.746,7.812,-35.645,-30.762,32.715,-46.875
1690054061.750,-75.684,-36.621,-32.715,-45.410,-14.160
1690054061.754,-93.750,-34.668,-34.668,-101.074,-114.746
1690054061.758,-21.973,-30.762,-32.227,-47.852,-183.594
1690054061.762,50.781,-27.832,-29.297,42.969,4.395
1690054061.765,34.668,-27.832,-26.855,61.523,395.020
1690054061.769,-59.082,-32.715,-32.227,-20.996,265.137
1690054061.773,-113.770,-34.180,-36.133,-104.980,-241.699
1690054061.777,-48.340,-33.691,-34.668,-68.359,-200.195
1690054061.781,40.527,-33.203,-32.227,23.926,-73.730
1690054061.787,26.367,-31.250,-35.156,43.945,-66.895
1690054061.791,-62.988,-33.203,-34.668,-18.066,-95.703
1690054061.795,-107.422,-38.574,-32.227,-80.078,-16.113
1690054061.799,-45.898,-31.250,-30.273,-51.758,-52.734
1690054061.803,46.875,-20.996,-29.297,28.809,-127.441
1690054061.807,52.246,-26.855,-30.273,55.176,-11.230
1690054061.811,-38.086,-34.180,-28.320,2.930,268.555
1690054061.814,-109.375,-32.227,-29.297,-73.730,291.016
1690054061.818,-70.312,-31.738,-32.227,-70.801,-183.105
1690054061.822,22.949,-34.180,-32.715,12.695,-173.828
1690054061.826,50.293,-37.598,-31.250,60.547,47.363
1690054061.830,-23.926,-37.598,-29.297,10.742,-36.621
1690054061.829,-98.633,-34.668,-32.715,-73.730,-231.934
1690054061.833,-69.824,-34.668,-34.668,-83.008,-229.980
1690054061.837,28.809,-30.762,-29.297,-2.441,-82.520
1690054061.841,62.988,-30.273,-30.762,55.664,-5.859
1690054061.845,-15.625,-38.574,-39.062,11.719,-6.836
1690054061.849,-105.469,-40.039,-42.480,-84.473,-36.621
1690054061.853,-87.402,-42.480,-37.109,-94.727,229.004
1690054061.856,-1.953,-46.387,-33.203,-22.461,350.586
1690054061.860,38.086,-41.016,-31.738,30.762,28.809
1690054061.864,-14.648,-39.062,-33.203,8.789,-11.719
1690054061.868,-96.191,-36.133,-39.551,-77.637,54.199
1690054061.872,-95.215,-34.180,-41.016,-112.793,-178.711
1690054061.904,-19.043,-34.180,-36.621,-46.875,-237.305
1690054061.908,33.691,-32.227,-30.762,35.645,-43.457
1690054061.912,-8.789,-39.062,-33.203,24.902,6.836
1690054061.916,-93.750,-39.551,-34.180,-61.523,-119.629
1690054061.920,-105.957,-33.203,-34.668,-104.004,-249.512
1690054061.924,-28.320,-36.133,-37.109,-43.457,-13.672
1690054061.928,39.551,-35.645,-31.738,36.133,141.113
1690054061.931,8.789,-29.297,-30.762,33.203,-7.812
1690054061.935,-75.195,-37.598,-33.203,-40.039,-144.043
1690054061.939,-87.891,-36.133,-32.227,-90.820,-5.371
1690054061.943,-17.090,-20.508,-35.156,-54.199,164.062
1690054061.947,50.293,-16.113,-34.180,27.344,-92.285
1690054061.934,28.320,-19.043,-33.203,41.504,-89.844
1690054061.938,-70.312,-22.949,-40.527,-39.062,-85.449
1690054061.942,-114.746,-32.227,-44.922,-111.816,-195.801
1690054061.946,-46.387,-33.691,-40.039,-76.172,-224.609
1690054061.950,27.344,-25.391,-34.668,16.602,-43.457
1690054061.954,17.578,-27.344,-31.250,39.062,223.145
1690054061.958,-63.477,-29.785,-33.203,-32.227,126.953
1690054061.961,-119.629,-27.832,-38.086,-119.629,-61.035
1690054061.965,-65.430,-25.391,-39.551,-89.844,-35.645
1690054061.969,29.297,-32.715,-39.062,9.766,78.613
1690054061.973,31.250,-33.203,-35.645,34.180,-5.371
1690054061.977,-55.176,-29.785,-36.621,-25.391,-128.418
1690054061.980,-109.863,-36.133,-35.645,-98.145,-102.539
1690054061.984,-64.941,-39.551,-29.785,-79.590,223.633
1690054061.988,15.625,-38.086,-32.227,-3.418,167.969
1690054061.992,29.297,-36.133,-34.180,33.203,-111.328
1690054061.996,-30.762,-29.297,-29.297,-12.695,-7.324
1690054062.000,-97.656,-25.879,-26.367,-96.680,23.438
1690054062.004,-76.172,-29.785,-30.762,-95.703,-74.707
1690054062.007,22.461,-30.273,-28.809,-10.254,-164.062
1690054062.011,51.270,-33.203,-26.367,46.875,103.027
1690054062.015,-23.926,-37.109,-32.715,-1.953,256.836
1690054062.019,-107.910,-32.227,-30.762,-91.797,-179.688
1690054062.023,-85.449,-29.297,-25.391,-98.145,-260.742
1690054062.023,10.254,-33.203,-27.832,-16.602,1.953
1690054062.027,49.316,-32.715,-32.227,46.387,5.371
1690054062.031,-5.371,-29.297,-33.203,11.719,-125.488
1690054062.035,-85.449,-31.738,-37.109,-82.031,-154.785
1690054062.039,-82.031,-34.180,-46.875,-111.816,-101.562
1690054062.043,-1.465,-33.203,-42.969,-33.203,-27.832
1690054062.047,48.828,-25.879,-34.180,38.086,97.168
1690054062.050,5.371,-23.438,-33.691,19.531,100.098
1690054062.054,-85.938,-35.645,-38.086,-59.570,230.957
1690054062.058,-101.562,-38.574,-40.039,-106.445,156.738
1690054062.062,-17.578,-35.645,-32.227,-45.898,-217.773
1690054062.066,50.293,-31.738,-24.414,41.504,-49.805
1690054062.072,8.301,-32.715,-25.391,35.156,102.539
1690054062.076,-88.867,-35.645,-31.738,-62.500,-123.047
1690054062.080,-115.234,-39.062,-35.156,-121.094,-215.820
1690054062.084,-38.086,-40.039,-30.273,-59.570,-43.457
1690054062.088,42.480,-29.297,-25.879,26.367,65.918
1690054062.092,12.695,-28.809,-25.391,34.668,27.832
1690054062.096,-76.660,-35.156,-28.809,-46.387,-70.801
1690054062.099,-108.398,-37.109,-31.738,-111.328,-123.047
1690054062.103,-42.480,-35.645,-27.344,-70.312,-127.441
1690054062.107,43.945,-28.320,-24.414,10.742,-157.227
1690054062.111,38.574,-27.344,-20.508,38.574,-75.195
1690054062.115,-52.246,-30.762,-19.043,-32.227,61.035
1690054062.113,-106.934,-33.691,-22.949,-107.422,-72.266
1690054062.117,-52.734,-34.180,-20.020,-69.824,-269.531
1690054062.121,40.527,-30.762,-16.602,19.043,-125.488
1690054062.125,36.621,-27.344,-20.996,35.156,-38.086
1690054062.129,-48.828,-26.367,-25.879,-31.738,-69.336
1690054062.133,-104.492,-31.250,-25.879,-90.332,-188.965
1690054062.137,-59.570,-36.133,-24.414,-64.453,-158.691
1690054062.140,40.527,-31.738,-22.461,22.949,396.973
1690054062.144,55.664,-30.762,-23.926,46.875,574.219
1690054062.148,-20.020,-31.738,-25.879,-14.648,13.184
1690054062.152,-92.285,-35.156,-27.832,-91.797,-220.703
1690054062.156,-54.688,-33.203,-28.320,-81.055,-189.453
1690054062.160,34.180,-28.320,-25.879,4.883,-185.059
1690054062.164,51.758,-27.344,-22.461,56.152,-82.520
1690054062.168,-23.438,-25.879,-27.344,13.672,-8.301
1690054062.172,-102.051,-30.273,-33.203,-77.637,-110.840
1690054062.176,-78.125,-30.762,-27.832,-83.984,-219.238
1690054062.180,15.137,-26.855,-24.902,-8.789,-187.012
1690054062.184,54.688,-21.484,-23.438,45.898,175.781
1690054062.187,-7.324,-20.508,-24.902,18.066,376.465
1690054062.191,-97.168,-27.344,-27.344,-78.125,-77.637
1690054062.195,-86.426,-26.367,-27.832,-103.516,-302.246
1690054062.199,8.789,-27.344,-29.785,-22.949,-85.449
1690054062.203,65.430,-41.504,-27.344,59.082,22.949
1690054062.203,30.762,-38.086,-25.879,53.223,-96.680
1690054062.207,-83.984,-27.832,-31.738,-64.453,-153.320
1690054062.211,-115.234,-27.344,-34.668,-125.000,-202.148
1690054062.215,-9.277,-26.367,-31.250,-44.434,-203.613
1690054062.219,56.152,-27.832,-28.320,37.109,-15.137
1690054062.223,8.789,-25.879,-28.320,24.414,121.582
1690054062.227,-81.543,-27.832,-32.715,-57.617,415.039
1690054062.230,-94.727,-27.832,-33.691,-106.445,292.480
1690054062.234,-16.113,-29.785,-29.785,-53.711,-254.883
1690054062.238,51.270,-29.297,-23.438,32.227,-31.250
1690054062.242,30.273,-31.250,-29.297,38.574,192.871
1690054062.246,-55.664,-31.250,-42.480,-52.734,-116.211
1690054062.263,-87.402,-30.762,-42.480,-119.141,-302.246
1690054062.267,-18.066,-36.621,-36.133,-63.477,-178.223
1690054062.271,56.641,-35.645,-29.297,29.297,-33.691
1690054062.275,40.039,-31.250,-28.320,46.387,-83.984
1690054062.279,-43.945,-35.156,-27.832,-26.855,-115.234
1690054062.283,-88.379,-39.551,-27.344,-93.750,-32.715
1690054062.287,-32.227,-41.016,-29.785,-61.523,-10.254
1690054062.290,44.922,-42.480,-32.715,12.207,-105.469
1690054062.294,42.969,-40.039,-30.273,46.875,-60.547
1690054062.298,-44.922,-38.086,-30.273,-9.277,128.906
1690054062.302,-106.934,-36.133,-35.645,-94.727,41.504
1690054062.306,-53.223,-32.227,-29.297,-78.613,-217.285
1690054062.308,42.480,-29.297,-24.902,14.648,-145.020
1690054062.312,52.734,-25.879,-29.297,64.941,30.273
1690054062.316,-23.926,-27.344,-32.227,2.930,31.250
1690054062.320,-93.262,-34.180,-40.039,-91.309,-154.785
1690054062.324,-63.965,-36.621,-39.551,-86.426,-128.418
1690054062.328,31.250,-32.715,-38.086,8.301,183.594
1690054062.332,57.129,-32.227,-34.180,61.035,217.773
1690054062.335,-17.578,-34.180,-26.855,5.371,-10.742
1690054062.339,-96.680,-38.086,-30.273,-80.566,-111.328
1690054062.343,-70.312,-37.598,-30.762,-82.031,64.453
1690054062.347,24.902,-33.203,-29.297,-11.719,-18.066
1690054062.351,64.941,-32.227,-27.832,41.504,-149.902
1690054062.355,0.488,-34.668,-22.461,11.719,-2.441
1690054062.359,-85.938,-36.621,-23.438,-78.125,-74.219
1690054062.363,-63.477,-32.227,-31.738,-95.215,-179.688
1690054062.367,20.996,-32.715,-27.832,-17.578,-138.672
1690054062.371,58.105,-36.621,-25.879,51.758,77.637
1690054062.375,7.812,-33.203,-34.180,27.344,205.566
1690054062.379,-75.195,-30.762,-38.086,-69.336,-17.578
1690054062.382,-80.078,-31.738,-37.109,-104.492,-221.191
1690054062.386,5.859,-32.227,-34.180,-33.203,-42.480
1690054062.390,60.059,-26.855,-32.227,36.133,189.941
1690054062.394,10.254,-28.320,-29.297,23.438,-58.594
1690054062.398,-79.590,-30.762,-26.367,-45.410,-161.133
1690054062.399,-92.285,-26.855,-22.949,-91.309,-212.402
1690054062.403,-15.137,-27.832,-19.043,-35.156,-215.332
1690054062.407,59.082,-26.367,-19.531,51.270,-150.879
1690054062.411,41.992,-22.949,-20.508,56.152,-62.988
1690054062.415,-48.828,-20.508,-23.926,-33.203,-37.598
1690054062.419,-83.984,-17.578,-25.879,-88.867,-116.211
1690054062.423,-15.625,-11.230,-20.508,-34.180,-63.477
1690054062.426,54.199,-9.277,-17.090,41.016,89.844
1690054062.430,35.645,-19.531,-18.066,59.082,428.711
1690054062.434,-51.270,-28.809,-20.996,-23.438,405.762
1690054062.438,-92.285,-25.391,-20.996,-101.074,-129.395
1690054062.442,-27.832,-20.508,-16.113,-55.664,-239.258
1690054062.458,48.340,-20.996,-12.207,24.414,-77.637
1690054062.462,42.480,-23.438,-16.113,47.852,-73.730
1690054062.466,-34.668,-23.438,-22.949,-12.207,-120.117
1690054062.470,-94.238,-27.344,-28.809,-97.656,-149.902
1690054062.474,-43.945,-26.855,-29.297,-70.801,-204.102
1690054062.478,49.805,-27.832,-23.926,16.113,-41.992
1690054062.482,47.852,-31.738,-21.484,46.387,62.988
1690054062.485,-39.062,-34.180,-25.391,-3.418,193.848
1690054062.489,-105.469,-36.133,-30.762,-84.473,306.152
1690054062.493,-67.871,-34.180,-28.320,-89.844,-68.848
1690054062.497,24.414,-28.809,-23.438,-0.977,-158.203
1690054062.501,43.945,-33.691,-26.855,45.898,-3.418
1690054062.489,-26.855,-37.598,-33.691,-8.301,-51.270
1690054062.493,-97.656,-35.156,-33.691,-91.309,-181.641
1690054062.497,-70.312,-42.480,-31.250,-91.309,-224.121
1690054062.501,21.484,-46.875,-29.785,-17.090,-142.578
1690054062.505,53.223,-41.016,-30.273,39.551,-3.418
1690054062.509,-16.602,-33.691,-34.180,2.441,10.742
1690054062.513,-99.121,-35.156,-28.809,-93.750,18.555
1690054062.516,-83.008,-33.691,-22.949,-102.539,100.098
1690054062.520,17.090,-28.320,-22.461,-18.066,-36.133
1690054062.524,61.523,-25.391,-14.648,61.523,-95.703
1690054062.528,-6.836,-26.367,-13.184,44.434,32.715
1690054062.532,-95.703,-32.227,-25.391,-57.617,245.117
1690054062.535,-90.820,-33.691,-30.762,-104.004,15.137
1690054062.539,1.465,-32.227,-26.855,-30.273,-244.629
1690054062.543,48.340,-34.668,-21.973,47.363,-19.043
1690054062.547,-4.395,-34.180,-21.484,33.203,59.570
1690054062.551,-90.820,-35.645,-27.832,-59.570,-156.738
1690054062.555,-104.004,-37.109,-29.785,-108.398,-277.344
1690054062.559,-19.531,-30.273,-28.320,-43.945,20.508
1690054062.562,47.852,-27.832,-24.414,34.668,252.930
1690054062.566,8.789,-33.691,-23.438,24.414,0.488
1690054062.570,-73.730,-33.203,-22.949,-53.223,-135.254
1690054062.574,-96.680,-32.227,-19.531,-107.422,-190.430
1690054062.578,-28.320,-31.738,-20.020,-62.500,-151.367
1690054062.580,49.316,-22.461,-17.578,27.832,-75.195
1690054062.584,31.250,-23.438,-17.578,37.598,36.621
1690054062.588,-64.453,-28.809,-24.902,-44.434,35.645
1690054062.592,-107.422,-29.297,-31.738,-113.281,-191.406
1690054062.596,-34.668,-29.297,-28.809,-71.289,-219.727
1690054062.600,46.387,-27.344,-18.555,25.879,-10.254
1690054062.604,37.598,-27.344,-16.602,57.129,478.516
1690054062.607,-55.176,-32.715,-24.902,-22.461,441.406
1690054062.611,-114.258,-35.156,-23.438,-104.492,-181.152
1690054062.615,-48.828,-30.273,-22.461,-66.406,-147.949
1690054062.619,39.062,-25.879,-25.391,20.020,18.066
1690054062.623,40.039,-28.809,-24.902,46.387,-67.383
1690054062.638,-37.598,-31.250,-23.926,-14.160,-144.531
1690054062.642,-94.238,-38.086,-20.996,-76.172,-167.480
1690054062.646,-34.668,-35.645,-25.391,-52.246,-162.598
1690054062.650,46.387,-20.996,-22.949,15.625,-59.570
1690054062.654,41.016,-14.648,-22.949,43.945,-39.551
1690054062.658,-31.738,-21.484,-26.367,-4.883,134.277
1690054062.662,-94.238,-27.344,-24.414,-77.637,225.586
1690054062.665,-70.312,-17.578,-21.973,-77.148,-136.719
1690054062.669,19.043,-17.090,-17.090,-4.883,-246.094
1690054062.673,44.922,-24.414,-21.484,40.527,133.301
1690054062.677,-20.020,-27.832,-24.902,3.906,224.121
1690054062.681,-96.680,-30.762,-29.297,-88.867,-197.266
1690054062.684,-73.242,-33.203,-29.785,-98.633,-268.066
1690054062.688,20.996,-28.809,-23.438,-15.137,-128.906
1690054062.692,58.594,-26.855,-20.996,42.480,-30.273
1690054062.696,0.977,-28.809,-22.949,13.184,-65.918
1690054062.700,-87.891,-36.133,-29.785,-70.312,-46.875
1690054062.704,-79.102,-35.645,-24.902,-87.891,98.145
1690054062.708,8.301,-33.203,-19.043,-19.531,32.227
1690054062.711,52.734,-32.715,-19.531,42.969,15.137
1690054062.715,7.812,-26.855,-19.531,32.715,91.309
1690054062.719,-86.914,-31.738,-23.438,-41.992,260.742
1690054062.723,-102.539,-35.645,-25.879,-91.309,86.914
1690054062.727,-17.090,-35.156,-29.297,-43.457,-320.312
1690054062.730,44.434,-35.156,-34.668,39.062,-111.328
1690054062.734,3.906,-38.086,-38.574,27.832,91.797
1690054062.738,-85.449,-41.992,-43.945,-52.734,-85.449
1690054062.742,-105.469,-44.434,-45.898,-103.516,-213.379
1690054062.746,-27.832,-44.434,-43.457,-53.711,-165.527
1690054062.750,43.457,-45.410,-37.109,28.809,6.348
1690054062.754,11.230,-45.898,-37.598,30.273,79.102
1690054062.757,-70.801,-44.922,-41.992,-41.016,-148.438
1690054062.761,-103.516,-44.922,-35.645,-91.797,-24.414
1690054062.765,-44.434,-41.016,-32.227,-48.340,233.887
1690054062.769,44.434,-34.180,-30.273,32.227,-49.805
1690054062.773,36.133,-36.133,-30.762,43.945,-174.316
1690054062.773,-60.059,-34.668,-32.715,-25.879,-124.023
1690054062.777,-106.445,-31.738,-30.762,-91.309,-196.289
1690054062.781,-41.992,-35.645,-29.297,-62.012,-283.203
1690054062.785,46.387,-40.039,-30.273,19.043,-162.598
1690054062.789,42.969,-37.109,-31.738,45.898,107.422
1690054062.793,-34.668,-32.715,-31.250,-16.113,110.352
1690054062.797,-94.238,-34.180,-32.715,-96.191,-103.027
1690054062.800,-54.199,-33.691,-32.227,-77.148,-108.398
1690054062.804,35.156,-34.668,-29.297,12.207,302.734
1690054062.808,37.109,-33.691,-32.715,50.781,340.820
1690054062.812,-42.969,-29.297,-37.598,-10.742,-52.734
1690054062.816,-97.656,-27.344,-41.016,-90.332,-49.805
