timestamps,TP9,AF7,AF8,TP10,Right AUX
1690200578.344,20.508,-26.367,-35.156,-14.160,-90.332
1690200578.348,-54.199,-33.203,-40.527,-42.480,-195.801
1690200578.352,-89.355,-42.969,-36.621,-53.223,-115.234
1690200578.356,-49.805,-41.016,-31.250,-41.504,-87.402
1690200578.360,15.625,-36.621,-29.785,-21.973,-88.867
1690200578.364,25.879,-35.645,-27.832,-9.277,-36.133
1690200578.368,-41.504,-36.133,-33.203,-22.949,245.117
1690200578.371,-93.750,-41.016,-38.574,-42.969,331.055
1690200578.375,-52.734,-48.828,-38.086,-41.016,-74.219
1690200578.379,20.020,-40.527,-33.691,-18.066,-106.934
1690200578.383,20.996,-28.320,-26.855,-6.836,79.590
1690200578.387,-51.758,-27.832,-26.367,-37.598,-27.344
1690200578.389,-111.328,-26.855,-27.344,-67.383,-184.082
1690200578.393,-84.473,-25.879,-27.344,-64.453,-167.969
1690200578.397,0.000,-25.879,-30.762,-33.203,157.715
1690200578.401,27.344,-24.414,-33.203,-16.602,288.086
1690200578.405,-39.551,-23.926,-30.273,-38.086,-102.539
1690200578.409,-106.934,-27.344,-27.344,-58.594,-179.688
1690200578.413,-74.219,-30.273,-25.879,-40.039,25.391
1690200578.416,17.578,-25.391,-29.297,-8.789,-8.301
1690200578.420,28.809,-26.367,-33.691,-19.043,-140.137
1690200578.424,-44.434,-28.809,-34.668,-51.758,-51.270
1690200578.428,-113.770,-26.367,-36.621,-84.473,-77.637
1690200578.432,-110.352,-22.949,-33.203,-91.797,-225.586
1690200578.436,-29.297,-18.555,-34.180,-63.477,-207.520
1690200578.440,30.273,-14.160,-44.434,-33.203,92.285
1690200578.444,-12.207,-15.137,-47.852,-46.875,131.836
1690200578.448,-96.191,-17.578,-44.922,-78.125,-179.688
1690200578.452,-93.262,-25.879,-43.457,-69.824,-281.738
1690200578.456,-12.207,-27.832,-38.086,-34.668,-15.137
1690200578.460,30.762,-28.809,-37.598,-25.391,177.734
1690200578.463,-13.672,-33.691,-41.504,-43.945,11.719
1690200578.467,-92.285,-32.227,-36.621,-66.406,-176.270
1690200578.471,-102.051,-30.273,-32.227,-77.637,-31.250
1690200578.475,-28.809,-23.926,-36.621,-62.500,90.820
1690200578.479,35.156,-19.531,-36.133,-26.855,-46.875
1690200578.510,4.395,-25.391,-35.156,-21.484,14.648
1690200578.514,-75.684,-27.344,-33.203,-51.758,128.418
1690200578.518,-101.562,-23.926,-28.809,-58.105,-63.477
1690200578.522,-46.387,-30.762,-27.832,-30.273,-187.988
1690200578.526,21.973,-35.156,-24.902,-5.859,-3.418
1690200578.530,13.672,-30.762,-25.879,-15.137,185.547
1690200578.534,-62.012,-32.715,-33.203,-47.852,48.828
1690200578.537,-95.703,-33.691,-37.109,-53.711,-243.652
1690200578.541,-35.156,-29.297,-37.598,-27.344,-178.223
1690200578.545,35.645,-25.391,-39.062,-9.277,123.535
1690200578.549,28.809,-24.902,-35.156,-10.742,29.297
1690200578.553,-44.434,-28.320,-33.691,-35.156,-196.777
1690200578.539,-102.051,-36.133,-37.109,-55.176,-100.586
1690200578.543,-62.012,-34.180,-40.527,-39.062,-18.555
1690200578.547,19.531,-27.832,-36.621,-21.484,-92.285
1690200578.551,25.391,-25.879,-29.785,-14.160,-70.801
1690200578.555,-49.316,-29.297,-30.762,-33.691,-56.641
1690200578.559,-99.609,-32.227,-29.297,-59.082,-91.797
1690200578.563,-62.988,-29.785,-24.902,-51.758,-71.289
1690200578.566,12.207,-27.832,-28.809,-24.414,-6.348
1690200578.570,40.527,-26.367,-32.715,-5.371,64.453
1690200578.574,-20.508,-23.438,-37.598,-26.855,8.301
1690200578.578,-84.473,-18.555,-37.598,-55.664,-140.625
1690200578.582,-61.035,-15.625,-33.203,-51.758,-203.613
1690200578.584,23.926,-18.066,-32.715,-13.672,248.047
1690200578.588,46.387,-27.344,-31.250,5.371,691.406
1690200578.592,-16.113,-30.273,-29.297,-18.555,216.309
1690200578.596,-80.078,-34.180,-36.621,-52.734,-230.957
1690200578.600,-77.148,-40.527,-40.527,-55.664,-182.617
1690200578.604,-6.348,-37.109,-34.180,-23.926,-55.664
1690200578.608,34.668,-30.273,-29.785,-0.488,40.527
1690200578.611,-19.043,-31.738,-30.273,-19.531,-53.223
1690200578.615,-88.867,-34.180,-29.785,-41.992,210.449
1690200578.619,-85.938,-29.297,-31.738,-46.387,201.660
1690200578.623,-12.695,-27.344,-36.621,-36.133,-204.590
1690200578.627,41.992,-25.879,-33.691,-8.301,-90.332
1690200578.629,-1.465,-22.461,-33.203,-16.602,-45.898
1690200578.633,-79.590,-30.273,-35.156,-49.316,-204.590
1690200578.637,-89.844,-44.434,-38.086,-55.176,-242.188
1690200578.641,-6.836,-45.410,-43.457,-15.625,-136.719
1690200578.645,72.266,-31.738,-39.062,24.902,-36.621
1690200578.649,8.301,-33.203,-30.762,-11.719,17.090
1690200578.653,-115.723,-43.457,-41.016,-83.984,-64.453
1690200578.656,-149.414,-36.621,-46.387,-109.863,61.523
1690200578.660,-97.168,-27.832,-33.691,-104.004,164.062
1690200578.664,-58.594,-30.762,-22.949,-113.770,-108.887
1690200578.668,-93.262,-38.086,-19.531,-129.883,-128.418
1690200578.672,-171.387,-32.715,-27.344,-166.016,-39.062
1690200578.674,-226.074,-28.320,-40.039,-192.383,-76.660
1690200578.678,-178.711,-32.715,-46.387,-186.523,-130.859
1690200578.682,-110.352,-38.086,-46.875,-180.664,-158.691
1690200578.686,-119.141,-35.156,-49.805,-177.246,95.215
1690200578.690,-196.289,-32.227,-50.293,-208.496,39.062
1690200578.694,-245.117,-37.109,-46.387,-232.910,-176.270
1690200578.698,-186.035,-38.574,-46.387,-206.543,-23.438
1690200578.701,-104.492,-40.527,-44.434,-151.855,247.070
1690200578.705,-88.867,-36.133,-42.969,-132.812,172.363
1690200578.709,-139.648,-34.668,-39.062,-148.926,-196.777
1690200578.713,-179.688,-41.992,-35.645,-150.391,-225.098
1690200578.717,-134.277,-41.992,-35.156,-132.324,-171.875
1690200578.720,-54.199,-43.457,-34.668,-97.656,-142.578
1690200578.724,-22.461,-39.062,-33.691,-73.242,-53.711
1690200578.728,-75.684,-38.086,-33.691,-90.332,74.707
1690200578.732,-136.719,-48.340,-36.621,-116.699,23.926
1690200578.736,-104.980,-44.434,-35.156,-100.098,-147.461
1690200578.740,-16.602,-39.062,-34.180,-62.988,-78.125
1690200578.744,11.230,-42.969,-40.527,-40.527,193.359
1690200578.747,-46.875,-41.992,-39.551,-49.805,303.711
1690200578.751,-105.957,-36.621,-33.691,-77.637,-113.281
1690200578.755,-86.426,-35.645,-30.762,-64.941,-309.082
1690200578.759,-1.465,-35.156,-27.832,-25.391,-150.391
1690200578.763,50.781,-28.320,-19.043,-0.488,-38.574
1690200578.765,-1.953,-25.879,-16.602,-7.812,-63.965
1690200578.769,-78.125,-31.738,-21.973,-30.762,-161.621
1690200578.773,-66.406,-33.203,-22.949,-38.086,-45.410
1690200578.777,6.348,-30.762,-21.973,-11.719,15.137
1690200578.781,54.199,-26.367,-23.438,12.207,-28.809
1690200578.785,13.672,-21.484,-23.438,-2.930,31.738
1690200578.789,-65.430,-24.414,-25.879,-35.156,313.965
1690200578.792,-70.801,-27.832,-26.855,-39.551,265.625
1690200578.796,-0.977,-30.273,-24.902,-16.113,-224.609
1690200578.800,55.664,-33.691,-23.438,1.953,-101.074
1690200578.804,10.742,-33.203,-22.461,-4.883,0.488
1690200578.808,-77.148,-31.738,-22.949,-34.180,-181.641
1690200578.809,-91.797,-32.715,-26.855,-53.223,-259.766
1690200578.813,-28.320,-36.133,-27.832,-32.715,-162.109
1690200578.817,44.434,-37.109,-23.438,-1.465,-38.086
1690200578.821,28.320,-30.762,-23.926,-2.930,-49.316
1690200578.825,-60.059,-26.855,-27.344,-29.297,-125.000
1690200578.829,-92.285,-33.203,-27.832,-40.039,24.414
1690200578.833,-32.227,-34.180,-35.645,-24.902,125.000
1690200578.836,34.180,-31.738,-38.574,-1.953,93.262
1690200578.840,22.461,-27.344,-30.273,0.977,61.523
1690200578.844,-54.688,-31.250,-27.832,-23.438,134.766
1690200578.848,-98.633,-37.598,-26.855,-49.805,155.762
1690200578.852,-57.129,-37.109,-28.320,-45.410,-186.035
1690200578.869,23.438,-39.062,-30.273,-3.906,-77.637
1690200578.873,23.926,-39.062,-29.785,8.789,212.402
1690200578.877,-62.988,-38.086,-36.621,-31.738,21.484
1690200578.881,-105.957,-35.156,-38.574,-64.941,-295.410
1690200578.885,-55.664,-31.250,-32.715,-50.293,-278.809
1690200578.889,21.973,-28.809,-31.250,-9.277,27.832
1690200578.893,35.645,-33.203,-34.180,1.953,143.066
1690200578.896,-40.527,-37.109,-37.598,-31.738,-71.289
1690200578.900,-109.375,-34.180,-38.574,-57.617,-210.449
1690200578.904,-73.242,-34.668,-42.480,-41.992,133.789
1690200578.908,9.277,-34.180,-46.875,-16.113,151.367
1690200578.912,31.250,-31.738,-44.434,-8.789,-88.867
1690200578.914,-34.180,-31.250,-42.480,-33.203,-59.082
1690200578.918,-95.703,-29.785,-41.504,-56.152,-138.184
1690200578.922,-80.078,-33.691,-38.574,-57.129,-254.883
1690200578.926,-11.719,-32.227,-34.668,-25.391,-169.922
1690200578.930,31.250,-32.227,-34.180,-0.488,57.617
1690200578.934,-18.555,-35.645,-34.180,-29.297,119.629
1690200578.938,-86.914,-32.715,-26.367,-62.500,39.551
1690200578.941,-80.078,-32.715,-23.926,-65.430,-176.758
1690200578.945,-10.254,-41.504,-27.344,-34.180,18.555
1690200578.949,31.250,-40.039,-24.414,-13.672,302.734
1690200578.953,-25.391,-39.062,-23.926,-37.598,-4.395
1690200578.957,-104.980,-47.363,-28.809,-63.965,-224.121
1690200578.959,-100.098,-47.852,-32.715,-53.223,104.492
1690200578.963,-24.414,-42.969,-31.738,-31.738,260.742
1690200578.967,30.762,-32.715,-26.367,-21.973,-76.172
1690200578.971,-6.348,-28.809,-25.391,-24.902,-119.141
1690200578.975,-81.055,-29.785,-25.391,-50.781,-105.469
1690200578.979,-97.656,-27.832,-26.367,-57.129,-61.523
1690200578.983,-23.926,-25.879,-28.809,-32.715,-59.082
1690200578.986,47.852,-24.414,-28.320,-2.441,-69.824
1690200578.990,17.090,-25.879,-26.855,2.441,89.355
1690200578.994,-60.059,-23.926,-26.855,-34.668,-130.859
1690200578.998,-84.961,-24.902,-33.691,-68.848,-387.207
1690200579.002,-30.762,-32.227,-34.668,-41.992,-174.316
1690200579.005,54.688,-35.156,-28.320,17.578,-1.465
1690200579.009,45.410,-26.367,-29.297,10.254,-75.684
1690200579.013,-70.312,-21.973,-30.273,-60.547,-199.707
1690200579.017,-128.906,-19.531,-35.645,-91.309,-173.340
1690200579.021,-71.289,-12.207,-43.945,-73.730,-64.453
1690200579.025,0.000,-12.695,-45.410,-57.617,-14.648
1690200579.029,-19.043,-10.742,-49.805,-64.453,20.996
1690200579.032,-99.609,-5.371,-58.105,-93.750,79.590
1690200579.036,-147.461,-6.348,-61.035,-117.676,102.539
1690200579.040,-104.004,-4.395,-60.547,-113.770,-141.113
1690200579.044,-20.996,-0.488,-57.129,-91.309,-166.016
1690200579.048,-5.371,-0.488,-54.199,-74.707,-88.867
1690200579.050,-67.383,-4.883,-53.223,-85.938,-65.430
1690200579.054,-123.047,-15.625,-51.270,-98.633,-145.020
1690200579.058,-92.285,-18.555,-46.875,-85.449,-194.824
1690200579.062,1.953,-9.766,-44.922,-40.527,52.734
1690200579.066,22.949,-6.836,-45.898,-24.414,168.945
1690200579.070,-44.434,-10.742,-41.992,-54.688,81.543
1690200579.074,-97.168,-12.695,-35.645,-77.148,-62.500
1690200579.077,-75.684,-20.020,-38.574,-64.453,140.625
1690200579.081,0.488,-20.020,-42.480,-33.203,238.770
1690200579.085,35.156,-13.672,-40.039,-22.461,-90.820
1690200579.089,-12.695,-19.531,-39.062,-35.156,-74.219
1690200579.093,-72.266,-26.367,-39.062,-55.664,-114.746
1690200579.094,-64.453,-28.809,-39.062,-54.199,-266.602
1690200579.098,11.719,-23.438,-34.668,-22.461,-226.562
1690200579.102,54.688,-23.438,-30.762,-4.395,63.965
1690200579.106,-0.977,-33.203,-33.203,-16.602,121.094
1690200579.110,-82.031,-38.574,-35.156,-43.945,-117.676
1690200579.114,-78.125,-42.480,-37.109,-47.852,-204.590
1690200579.118,-3.418,-36.621,-31.738,-8.789,120.117
1690200579.121,54.688,-27.832,-29.785,19.043,505.859
1690200579.125,15.137,-24.414,-33.203,-8.789,117.188
1690200579.129,-74.707,-27.344,-34.668,-41.016,-210.938
1690200579.133,-84.961,-35.645,-35.645,-48.340,-118.652
1690200579.137,-22.461,-40.039,-37.598,-31.738,-88.379
1690200579.139,35.645,-41.504,-38.086,0.000,-36.621
1690200579.143,19.531,-40.527,-33.203,-4.395,0.488
1690200579.147,-61.523,-38.574,-30.273,-35.156,31.250
1690200579.151,-94.238,-41.992,-32.227,-37.109,-27.344
1690200579.155,-28.809,-37.598,-32.715,-11.230,-167.969
1690200579.159,42.480,-35.645,-32.715,0.977,57.129
1690200579.163,27.832,-39.062,-32.227,-7.812,347.168
1690200579.166,-50.293,-35.645,-30.273,-31.250,91.797
1690200579.170,-90.820,-30.762,-27.344,-51.758,-275.391
1690200579.174,-33.691,-31.738,-26.367,-34.668,-80.566
1690200579.178,40.039,-35.156,-24.414,-1.465,65.430
1690200579.182,22.949,-37.109,-22.461,-11.230,-82.031
1690200579.184,-49.316,-33.691,-25.879,-44.434,-145.508
1690200579.188,-89.355,-28.809,-25.391,-53.711,-60.547
1690200579.192,-47.852,-33.203,-23.926,-39.062,29.785
1690200579.196,26.367,-38.086,-28.320,-15.137,-82.031
1690200579.200,24.414,-38.086,-30.762,-7.324,-119.629
1690200579.204,-47.852,-31.250,-29.785,-23.438,93.750
1690200579.208,-85.938,-23.438,-26.855,-45.898,43.457
1690200579.211,-55.664,-28.320,-24.902,-52.734,-220.703
1690200579.215,7.324,-28.320,-21.973,-25.879,-153.320
1690200579.219,23.926,-23.438,-18.555,-7.812,146.973
1690200579.223,-45.410,-29.785,-26.367,-27.344,131.836
1690200579.227,-105.469,-29.785,-28.809,-57.617,-171.387
1690200579.244,-78.125,-26.367,-27.344,-59.570,-155.273
1690200579.248,2.441,-33.203,-32.227,-22.461,228.027
1690200579.252,36.133,-33.203,-30.273,3.418,298.340
1690200579.256,-23.926,-27.832,-26.855,-20.508,-85.449
1690200579.260,-91.309,-29.297,-27.832,-58.105,-204.102
1690200579.264,-67.383,-26.855,-31.250,-51.758,-114.746
1690200579.268,12.695,-16.602,-33.691,-16.113,15.137
1690200579.271,53.711,-22.949,-33.691,-9.277,-50.293
1690200579.275,-2.930,-29.297,-36.621,-24.414,-100.098
1690200579.279,-83.496,-19.043,-37.109,-33.691,58.105
1690200579.283,-81.543,-21.484,-30.762,-44.922,-113.281
1690200579.287,-15.137,-32.715,-29.297,-37.109,-244.141
1690200579.292,33.691,-29.785,-31.250,-11.719,-49.316
1690200579.296,-12.695,-24.414,-28.320,-20.996,3.418
1690200579.300,-92.285,-23.438,-26.855,-54.199,-92.773
1690200579.304,-99.609,-25.391,-25.879,-64.453,-192.383
1690200579.308,-29.785,-26.855,-30.273,-36.133,-27.344
1690200579.312,35.156,-24.902,-37.598,-9.277,155.762
1690200579.316,8.301,-25.391,-29.297,-23.438,60.059
1690200579.319,-72.266,-25.879,-25.391,-49.805,-179.688
1690200579.323,-84.961,-19.043,-35.156,-51.270,-68.848
1690200579.327,-10.254,-17.090,-29.297,-14.648,160.156
1690200579.331,30.273,-26.367,-14.648,-14.160,-48.340
1690200579.335,-16.602,-34.180,-16.602,-44.434,-89.355
1690200579.334,-96.680,-40.527,-11.230,-62.988,6.348
1690200579.338,-129.395,-45.410,-3.906,-83.008,-53.223
1690200579.342,-74.707,-44.922,-1.953,-71.777,-166.504
1690200579.346,-6.348,-43.945,2.930,-25.879,-36.621
1690200579.350,-22.949,-48.340,9.277,-19.043,141.602
1690200579.354,-104.004,-48.828,6.836,-52.734,87.891
1690200579.358,-143.555,-42.969,7.812,-78.613,-109.863
1690200579.361,-101.074,-46.387,16.113,-74.707,-142.090
1690200579.365,-34.180,-54.688,17.578,-33.691,243.164
1690200579.369,-35.645,-52.734,12.207,-24.902,361.816
1690200579.373,-106.445,-47.363,8.789,-60.547,-122.559
1690200579.377,-146.973,-41.016,14.648,-77.148,-272.949
1690200579.379,-89.844,-37.109,14.160,-59.570,-203.125
1690200579.383,8.301,-48.828,4.883,-10.742,-166.016
1690200579.387,22.461,-60.059,-1.953,16.602,-83.008
1690200579.391,-36.621,-63.965,-7.324,0.488,-41.992
1690200579.395,-83.008,-63.477,-0.977,-17.090,-122.070
1690200579.399,-38.574,-52.734,10.254,3.906,-126.465
1690200579.403,72.266,-43.457,11.230,55.176,-11.719
1690200579.406,104.492,-43.945,7.812,84.961,291.504
1690200579.410,48.340,-50.293,3.418,82.520,457.520
1690200579.414,2.441,-49.805,2.441,70.801,-34.180
1690200579.418,31.738,-41.016,-5.371,74.707,-243.652
1690200579.422,115.234,-41.992,-17.090,104.492,-38.574
1690200579.424,157.715,-44.434,-21.484,123.535,97.168
1690200579.428,102.539,-39.551,-21.484,110.352,19.531
1690200579.432,33.203,-36.621,-25.391,82.520,-204.590
1690200579.436,45.898,-30.273,-30.273,83.496,-81.543
1690200579.440,111.328,-24.414,-27.832,120.605,2.930
1690200579.444,138.672,-30.762,-29.785,133.789,-30.273
1690200579.448,89.844,-33.691,-35.156,107.910,-6.348
1690200579.451,13.184,-32.227,-31.738,80.566,159.668
1690200579.455,2.930,-25.879,-28.320,62.500,39.062
1690200579.459,69.336,-25.391,-25.391,75.684,-216.309
1690200579.463,119.629,-27.832,-0.488,102.051,-34.180
1690200579.467,76.660,-24.902,5.371,87.402,41.992
1690200579.469,-17.090,-31.250,-26.367,39.062,-174.805
1690200579.473,-38.086,-29.297,-40.527,22.949,-289.062
1690200579.477,57.129,7.324,-26.367,86.914,-156.738
1690200579.481,109.863,3.418,-41.992,108.398,-27.832
1690200579.485,30.273,-57.129,-69.336,42.969,-78.125
1690200579.489,-65.918,-73.730,-49.805,-12.207,-111.328
1690200579.493,-80.566,-53.223,-19.043,-8.789,99.609
1690200579.496,-8.301,-38.086,-11.230,21.484,174.316
1690200579.500,47.852,-41.504,-38.574,22.461,-65.430
1690200579.504,31.738,-48.340,-53.711,19.043,-117.188
1690200579.508,-50.781,-59.570,-37.109,-14.648,-126.953
1690200579.512,-92.773,-51.758,-22.949,-43.945,-176.758
1690200579.515,-24.902,-22.461,-19.531,-11.230,-134.277
1690200579.519,59.082,-14.648,-25.879,27.832,-43.945
1690200579.523,48.828,-27.832,-26.855,23.438,197.754
1690200579.527,-39.062,-27.832,-28.809,-10.254,166.504
1690200579.531,-87.402,-22.949,-32.715,-33.691,-217.773
1690200579.535,-31.250,-24.414,-26.855,-9.766,-151.855
1690200579.539,46.875,-27.832,-27.832,22.949,204.102
1690200579.542,47.852,-29.297,-33.203,19.531,125.000
1690200579.546,-20.996,-27.832,-26.855,-2.930,-193.359
1690200579.550,-80.078,-30.273,-23.438,-21.973,-213.867
1690200579.554,-54.199,-35.645,-25.879,-12.695,-173.828
1690200579.558,26.367,-34.668,-27.344,12.207,-168.457
1690200579.575,49.805,-27.344,-29.785,7.812,-103.516
1690200579.579,-18.555,-27.344,-29.785,-16.602,-62.500
1690200579.583,-84.473,-29.785,-28.320,-43.457,-37.598
1690200579.587,-61.035,-27.344,-28.320,-40.527,-49.316
1690200579.591,18.066,-23.438,-27.344,-8.789,-105.469
1690200579.595,42.969,-23.926,-26.367,9.766,189.453
1690200579.599,-27.344,-27.832,-29.297,-11.719,445.801
1690200579.602,-95.215,-28.809,-30.273,-52.734,-35.645
1690200579.606,-80.078,-31.738,-27.832,-62.988,-343.262
1690200579.610,-11.230,-35.156,-24.414,-33.203,-117.676
1690200579.614,26.367,-33.203,-21.484,-15.137,-16.602
1690200579.618,-22.949,-27.832,-21.973,-38.574,-121.582
1690200579.619,-96.680,-27.344,-28.809,-67.383,-152.832
1690200579.623,-93.750,-29.297,-30.762,-63.965,0.488
1690200579.627,-16.602,-23.926,-28.320,-44.434,-1.953
1690200579.631,25.391,-21.484,-29.297,-27.344,-91.309
1690200579.635,-22.949,-23.438,-28.320,-34.180,-44.922
1690200579.639,-95.703,-21.484,-28.320,-60.547,42.480
1690200579.643,-101.562,-20.020,-26.367,-74.219,60.547
1690200579.646,-32.715,-20.020,-28.320,-46.387,54.688
1690200579.650,25.879,-16.113,-25.391,-17.090,61.523
1690200579.654,-5.371,-21.973,-24.414,-19.043,274.902
1690200579.658,-88.379,-22.461,-25.391,-58.594,121.582
1690200579.662,-106.445,-13.672,-17.578,-86.914,-301.758
1690200579.664,-45.898,-18.066,-15.137,-61.523,-230.957
1690200579.668,2.930,-19.531,-25.879,-34.180,-79.102
1690200579.672,-6.348,-9.277,-20.996,-33.691,-77.637
1690200579.676,-93.262,1.953,-12.207,-72.266,-161.133
1690200579.680,-163.086,-19.531,-27.832,-111.816,-178.223
1690200579.684,-122.559,-20.508,-34.180,-113.770,-115.723
1690200579.688,-63.477,-5.859,-27.832,-106.934,-28.320
1690200579.691,-86.914,-3.418,-32.227,-133.301,-7.324
1690200579.695,-174.805,-2.441,-41.504,-174.316,93.262
1690200579.699,-220.215,-5.371,-37.598,-187.012,230.469
1690200579.703,-167.969,4.395,-39.551,-182.129,-50.781
1690200579.707,-73.242,10.742,-41.504,-141.113,-178.223
1690200579.709,-52.734,12.695,-38.086,-119.629,49.805
1690200579.713,-137.695,8.789,-42.969,-150.879,-22.949
1690200579.717,-188.965,7.812,-43.945,-169.922,-269.531
1690200579.721,-138.184,6.348,-48.340,-158.203,-248.535
1690200579.725,-49.316,-0.488,-49.805,-116.699,5.371
1690200579.729,-25.391,-3.418,-51.758,-91.309,162.598
1690200579.733,-83.984,-4.883,-53.711,-108.887,53.711
1690200579.736,-128.418,-10.742,-49.805,-121.582,-67.383
1690200579.740,-92.773,-13.184,-50.781,-95.703,90.820
1690200579.744,-15.625,-15.625,-56.152,-64.453,81.055
1690200579.748,16.113,-15.625,-59.570,-43.457,-62.500
1690200579.752,-29.785,-17.090,-56.641,-47.852,-5.371
1690200579.754,-87.402,-20.508,-53.711,-63.965,-29.297
1690200579.758,-58.594,-21.973,-54.688,-60.059,-187.988
1690200579.762,21.973,-27.832,-58.105,-22.949,-123.535
1690200579.766,63.477,-26.367,-51.758,12.695,75.195
1690200579.770,13.672,-27.344,-48.828,-4.883,69.336
1690200579.774,-59.082,-31.738,-49.316,-29.297,-39.551
1690200579.778,-51.758,-30.762,-46.875,-17.090,-9.277
1690200579.781,29.297,-30.273,-44.434,12.695,207.520
1690200579.785,86.426,-31.738,-45.410,30.762,316.895
1690200579.789,42.969,-29.785,-45.898,15.625,-13.672
1690200579.793,-35.156,-34.180,-42.969,-10.742,-211.426
1690200579.797,-37.109,-38.086,-42.969,-20.020,-209.473
1690200579.800,31.738,-43.457,-47.363,3.418,-89.355
1690200579.804,85.938,-44.922,-49.805,34.180,107.422
1690200579.808,55.664,-41.016,-45.898,32.715,54.199
1690200579.812,-20.996,-36.133,-41.016,7.812,103.027
1690200579.816,-44.434,-34.180,-42.480,-4.395,104.004
1690200579.820,12.207,-36.621,-41.992,8.301,-125.488
1690200579.824,77.637,-38.086,-37.109,37.109,-29.785
1690200579.827,57.617,-37.109,-31.738,43.945,312.500
1690200579.831,-29.785,-40.527,-31.738,5.371,144.043
1690200579.835,-57.129,-46.387,-33.691,-23.926,-316.895
1690200579.839,2.930,-49.316,-32.227,0.000,-204.590
1690200579.843,62.500,-46.387,-37.598,18.066,1.953
1690200579.844,50.781,-43.457,-37.109,17.090,-82.520
1690200579.848,-25.879,-44.922,-32.227,2.441,-218.262
1690200579.852,-67.871,-47.363,-33.203,-10.742,-205.078
1690200579.856,-14.648,-45.898,-30.762,11.719,-123.047
1690200579.860,59.570,-46.875,-26.367,36.621,-69.336
1690200579.864,60.547,-48.828,-28.809,38.574,53.223
1690200579.868,-19.043,-47.363,-34.668,15.625,180.664
1690200579.871,-73.242,-43.457,-36.621,-13.184,263.672
1690200579.875,-24.902,-41.016,-34.668,-5.371,-47.363
1690200579.879,52.734,-42.480,-30.273,30.273,-207.520
1690200579.883,62.012,-40.039,-32.227,32.227,-46.875
1690200579.887,-7.324,-37.109,-35.156,-5.859,-83.984
1690200579.889,-75.684,-42.969,-37.598,-37.598,-179.688
1690200579.893,-48.340,-42.480,-39.062,-28.320,-168.457
1690200579.897,38.086,-41.016,-39.551,19.043,-3.418
1690200579.901,62.012,-42.480,-42.480,34.180,31.250
1690200579.905,-4.883,-39.062,-37.598,2.441,-201.172
1690200579.909,-71.289,-37.109,-36.133,-25.879,-251.465
1690200579.913,-60.059,-38.574,-39.062,-17.090,-7.324
1690200579.916,17.578,-37.598,-40.039,7.812,97.168
1690200579.920,53.223,-40.039,-37.109,16.602,-44.922
1690200579.924,-4.395,-40.527,-36.621,-2.441,-106.934
1690200579.928,-75.195,-37.598,-38.086,-35.156,-52.734
1690200579.932,-74.219,-34.668,-41.992,-41.016,-172.852
1690200579.934,5.859,-31.738,-41.992,-15.625,-194.336
1690200579.938,56.641,-30.273,-40.039,8.789,-33.203
1690200579.942,5.371,-31.738,-39.551,-12.695,1.465
1690200579.946,-71.777,-33.691,-36.621,-44.922,-142.090
1690200579.950,-77.637,-32.715,-35.645,-50.293,-292.480
1690200579.954,-4.883,-34.180,-36.133,-19.531,-33.203
1690200579.958,35.156,-35.156,-40.039,7.812,205.566
1690200579.961,-17.578,-35.645,-39.551,-5.859,-50.293
1690200579.965,-88.379,-37.109,-38.086,-39.062,-230.957
1690200579.969,-97.168,-34.180,-29.785,-44.922,-36.133
1690200579.973,-25.879,-29.785,-24.902,-17.090,117.676
1690200579.977,28.809,-27.344,-28.320,0.977,-104.492
1690200579.994,9.766,-23.438,-20.020,-7.812,-38.574
1690200579.998,-56.152,-19.531,-16.113,-27.344,121.582
1690200580.002,-95.215,-20.508,-22.461,-39.062,-42.969
1690200580.006,-40.039,-23.438,-24.902,-28.320,-200.684
1690200580.010,34.180,-29.785,-23.926,3.418,-93.750
1690200580.014,21.484,-31.738,-23.438,-2.441,34.668
1690200580.018,-65.918,-29.785,-22.461,-48.828,19.531
1690200580.021,-104.004,-31.250,-26.855,-72.754,-180.664
1690200580.025,-46.387,-31.738,-30.762,-51.270,-191.895
1690200580.029,21.484,-29.785,-25.391,-7.812,114.746
1690200580.033,21.484,-24.414,-25.879,-1.465,136.230
1690200580.037,-46.875,-20.020,-27.344,-34.180,-128.418
1690200580.039,-94.727,-29.785,-29.785,-62.500,-128.418
1690200580.043,-41.016,-53.223,-33.203,-40.039,-21.484
1690200580.047,34.668,-61.035,-27.832,-0.488,-94.238
1690200580.051,32.227,-39.551,-29.297,2.930,-68.848
1690200580.055,-40.039,-18.066,-39.062,-34.180,36.133
1690200580.059,-101.074,-14.648,-34.668,-67.871,-46.387
1690200580.063,-71.777,-22.461,-24.902,-58.105,-110.840
1690200580.066,11.719,-27.344,-22.461,-21.484,-81.543
1690200580.070,28.320,-20.020,-23.926,-3.418,154.785
1690200580.074,-41.016,-20.508,-25.391,-24.414,293.457
1690200580.078,-98.145,-22.949,-27.832,-51.270,-171.387
1690200580.082,-51.758,-21.484,-33.691,-33.691,-249.023
1690200580.084,40.039,-28.320,-34.668,8.789,1.465
1690200580.088,50.781,-42.480,-29.297,16.602,86.914
1690200580.092,-10.254,-66.406,-41.016,-0.977,-0.488
1690200580.096,-81.543,-68.848,-38.574,-31.250,-203.613
1690200580.100,-74.219,-33.691,-17.090,-31.250,35.645
1690200580.104,26.855,-57.129,-16.113,16.113,260.742
1690200580.108,65.430,-112.793,-33.691,15.137,20.508
1690200580.111,21.484,-93.262,-51.270,-1.953,-78.613
1690200580.115,-33.203,-104.004,-75.684,-9.766,101.074
1690200580.119,-102.539,-71.289,-66.406,-61.523,0.977
1690200580.123,-77.637,17.090,3.906,-72.754,-207.031
1690200580.127,-13.184,-14.648,42.969,-32.715,-37.109
1690200580.129,-42.480,-17.090,8.301,-29.297,-27.344
1690200580.133,-114.258,7.812,-4.883,-56.152,-173.340
1690200580.137,-124.023,-32.715,-10.742,-78.125,-281.250
1690200580.141,-53.711,-25.391,-10.742,-47.852,-45.898
1690200580.145,9.277,6.836,-1.465,-10.742,158.203
1690200580.149,-11.719,2.441,-15.625,-16.113,51.270
1690200580.153,-79.102,-35.645,-25.879,-32.227,-57.129
1690200580.156,-96.680,-53.223,-31.738,-38.086,-5.859
1690200580.160,-34.668,-37.109,-39.551,-27.832,196.289
1690200580.164,35.645,-33.203,-49.316,1.953,1.953
1690200580.168,23.438,-30.762,-50.781,8.789,-95.703
1690200580.172,-65.918,-35.645,-46.387,-30.762,-61.523
1690200580.175,-104.004,-47.363,-51.758,-49.316,-131.348
1690200580.179,-41.504,-33.691,-57.617,-25.879,-174.316
1690200580.183,37.109,-27.344,-52.734,7.812,-77.637
1690200580.187,41.016,-22.461,-51.270,26.367,152.344
1690200580.191,-38.086,-10.254,-39.062,-12.207,61.035
1690200580.195,-91.797,-10.742,-28.809,-52.734,-92.285
1690200580.199,-50.781,-2.441,-26.367,-40.527,-36.133
1690200580.202,18.555,0.488,-25.391,-0.977,272.461
1690200580.206,16.113,2.930,-27.832,8.301,308.105
1690200580.210,-48.340,13.672,-27.832,-18.555,-155.762
1690200580.214,-95.215,14.648,-28.320,-35.156,-265.625
1690200580.218,-62.012,17.090,-35.156,-32.227,-238.281
1690200580.234,11.719,22.949,-40.039,-5.371,-154.785
1690200580.238,33.203,15.625,-40.039,6.348,-71.289
1690200580.242,-33.203,16.602,-40.527,-20.508,-106.934
1690200580.246,-104.004,32.715,-40.527,-47.363,-178.711
1690200580.250,-75.195,39.062,-41.016,-46.387,-241.211
1690200580.254,4.395,45.898,-46.875,-22.949,-149.414
1690200580.258,32.227,50.781,-46.387,-11.230,245.117
1690200580.261,-27.832,55.664,-41.016,-32.715,328.125
1690200580.265,-94.727,55.664,-43.457,-61.035,-75.684
1690200580.269,-76.172,43.457,-43.457,-66.406,-231.934
1690200580.273,0.977,30.273,-39.551,-33.691,-6.836
1690200580.277,41.504,24.902,-41.504,-5.371,90.332
1690200580.264,-8.301,39.062,-36.133,-19.043,-3.906
1690200580.268,-78.125,53.711,-28.809,-50.781,-64.453
1690200580.272,-77.148,64.941,-25.879,-56.152,-40.039
1690200580.276,-6.836,80.566,-26.367,-25.391,-8.301
1690200580.280,33.691,84.473,-25.879,-5.859,-103.516
1690200580.284,-16.602,71.777,-20.996,-30.273,52.246
1690200580.288,-92.285,59.082,-19.043,-60.547,139.160
1690200580.291,-102.539,38.574,-20.020,-68.359,-94.238
1690200580.295,-24.414,28.320,-20.508,-38.574,-204.102
1690200580.299,36.133,31.738,-18.555,-9.277,-82.031
1690200580.303,3.418,26.367,-17.578,-19.043,213.867
1690200580.307,-82.031,27.832,-16.602,-55.664,83.984
1690200580.310,-99.609,32.227,-18.555,-68.848,-279.785
1690200580.314,-28.809,24.414,-20.020,-33.203,-92.773
1690200580.318,33.691,16.602,-26.367,0.000,96.191
1690200580.322,10.254,22.949,-41.016,-13.184,-51.270
1690200580.326,-74.707,33.203,-34.180,-50.293,-222.656
1690200580.330,-106.934,31.250,-32.715,-70.801,-46.875
1690200580.334,-54.199,34.668,-39.551,-54.199,189.453
1690200580.337,12.207,32.715,-25.391,-33.203,-12.207
1690200580.341,7.812,16.602,-20.996,-28.320,-123.047
1690200580.345,-74.219,12.695,-32.715,-52.246,19.531
1690200580.349,-106.445,18.066,-42.969,-68.359,-8.301
1690200580.353,-48.340,-1.953,-35.156,-50.781,-185.547
1690200580.369,22.461,-18.555,-20.996,-11.230,-93.262
1690200580.373,25.391,-3.418,-19.043,0.488,210.449
1690200580.377,-45.898,20.996,-11.719,-33.203,177.246
1690200580.381,-99.609,29.297,-11.230,-62.012,-173.828
1690200580.385,-59.082,19.043,-16.602,-52.734,-232.910
1690200580.389,24.902,5.371,-15.625,-17.578,197.754
1690200580.393,37.109,-0.488,-19.043,-10.742,247.559
1690200580.396,-30.762,2.930,-23.438,-33.691,-142.578
1690200580.400,-100.586,-7.812,-36.133,-61.035,-186.523
1690200580.404,-83.008,-9.766,-40.039,-59.082,-75.195
1690200580.408,-2.930,-2.441,-25.391,-28.320,-74.219
1690200580.412,21.484,0.488,-20.508,-14.160,-102.051
1690200580.415,-42.480,-4.395,-23.926,-29.785,-77.637
1690200580.419,-103.516,-7.812,-22.949,-54.199,-146.484
1690200580.423,-85.938,-6.348,-29.297,-52.734,-199.707
1690200580.427,-7.812,-0.977,-43.457,-27.344,-170.898
1690200580.431,33.203,-7.324,-47.852,-6.836,108.887
1690200580.435,-22.949,-13.184,-35.156,-21.484,196.777
1690200580.439,-99.609,0.977,-33.203,-56.152,-88.379
1690200580.442,-89.844,0.977,-33.691,-67.871,-225.098
1690200580.446,-5.371,-6.836,-23.926,-30.273,34.180
1690200580.450,33.691,-0.488,-20.020,-8.301,291.992
1690200580.454,-13.184,0.488,-18.066,-35.156,-12.695
1690200580.458,-82.520,-8.301,-15.625,-59.082,-183.594
1690200580.459,-86.914,-12.207,-18.066,-68.359,-95.215
1690200580.463,-13.672,-13.184,-25.391,-38.086,-36.133
1690200580.467,45.410,-15.625,-24.902,-0.977,-52.734
1690200580.471,8.789,-29.297,-20.020,-14.648,-19.531
1690200580.475,-73.730,-32.227,-23.926,-47.363,17.090
1690200580.479,-92.285,-18.555,-30.762,-61.035,-4.883
1690200580.483,-21.973,-6.836,-24.414,-40.527,-48.340
1690200580.486,43.457,-4.883,-20.508,-8.789,-48.828
1690200580.490,13.672,-11.230,-23.926,-6.836,248.535
1690200580.494,-68.359,-18.066,-20.020,-42.480,188.965
1690200580.498,-92.285,-26.855,-20.508,-62.500,-268.555
1690200580.502,-20.508,-32.715,-22.949,-29.297,-172.363
1690200580.504,47.363,-16.602,-23.438,4.883,4.395
1690200580.508,29.297,-3.418,-26.367,-1.465,-32.227
1690200580.512,-47.363,-12.695,-23.438,-32.227,-119.629
1690200580.516,-89.844,-22.461,-22.949,-52.246,-142.578
1690200580.520,-41.016,-20.996,-28.809,-38.086,-107.910
1690200580.524,29.785,-18.555,-27.344,-0.977,14.648
1690200580.528,30.273,-33.203,-22.461,10.254,109.375
1690200580.531,-43.457,-36.133,-22.461,-19.043,155.762
1690200580.535,-94.238,-33.203,-34.180,-45.898,171.387
1690200580.539,-42.969,-32.715,-37.598,-44.922,-89.355
1690200580.543,26.367,-23.438,-26.367,-21.973,-159.180
1690200580.547,17.090,-26.367,-27.832,-13.184,31.250
1690200580.549,-53.223,-27.832,-34.180,-45.898,76.172
1690200580.553,-98.145,-26.367,-26.367,-66.895,-127.930
1690200580.557,-60.547,-31.738,-13.672,-45.410,-219.238
1690200580.561,4.395,-40.527,-11.719,-17.578,101.562
1690200580.565,14.648,-51.270,-20.020,-11.719,193.848
1690200580.569,-47.852,-50.781,-25.391,-40.527,142.090
1690200580.573,-124.023,-41.504,-19.043,-70.312,19.531
1690200580.576,-104.980,-42.480,-12.207,-59.570,53.711
1690200580.580,-20.996,-48.828,-12.695,-28.809,86.426
1690200580.584,15.137,-34.180,-17.578,-17.578,-113.770
1690200580.588,-31.738,-20.996,-18.066,-34.180,-79.590
1690200580.592,-94.727,-21.484,-15.137,-55.664,-73.730
1690200580.594,-80.566,-28.809,-14.648,-57.129,-197.266
1690200580.598,-2.930,-38.574,-18.066,-32.227,-241.699
1690200580.602,39.062,-34.180,-25.391,-8.301,27.832
1690200580.606,-3.906,-30.273,-28.809,-12.207,116.211
1690200580.610,-76.660,-29.785,-27.832,-35.156,-136.719
1690200580.614,-77.148,-30.273,-26.855,-42.969,-201.660
1690200580.618,1.465,-31.738,-21.484,-6.348,116.699
1690200580.621,48.828,-31.738,-20.508,22.949,354.004
1690200580.625,-1.953,-29.297,-26.367,0.488,31.250
1690200580.629,-82.520,-31.250,-27.832,-42.480,-143.066
1690200580.633,-93.750,-32.227,-26.367,-52.734,-87.891
1690200580.637,-28.809,-34.668,-28.320,-31.250,-67.871
1690200580.640,30.762,-34.180,-28.809,-4.883,2.441
1690200580.644,1.465,-29.297,-28.320,-6.836,52.734
1690200580.648,-71.777,-24.902,-28.809,-32.715,221.680
1690200580.652,-92.285,-28.809,-30.762,-49.805,175.781
1690200580.656,-30.762,-36.621,-32.227,-37.598,-180.176
1690200580.660,41.016,-39.551,-29.297,-8.301,-75.195
1690200580.664,13.672,-40.527,-28.809,-9.277,312.012
1690200580.667,-70.312,-35.645,-27.832,-47.363,101.562
1690200580.671,-92.285,-28.320,-25.391,-64.453,-308.594
1690200580.675,-33.691,-28.320,-24.414,-38.086,-191.406
1690200580.679,37.109,-22.949,-23.438,-2.441,-12.207
1690200580.683,28.809,-29.785,-23.438,-0.977,-41.016
1690200580.684,-52.246,-46.387,-30.273,-33.203,-115.234
1690200580.688,-95.703,-35.156,-32.227,-47.363,-120.117
1690200580.692,-48.828,-26.367,-31.250,-26.367,-94.727
1690200580.696,22.949,-30.273,-33.203,-5.371,-64.941
1690200580.700,20.020,-33.203,-36.133,-15.137,-11.230
1690200580.704,-56.641,-32.227,-38.574,-41.504,155.762
1690200580.708,-111.328,-35.645,-34.668,-62.500,272.949
1690200580.711,-77.148,-42.480,-42.480,-57.129,-41.016
1690200580.715,3.418,-38.574,-47.852,-26.855,-177.734
1690200580.719,21.973,-33.203,-39.551,-12.207,-4.395
1690200580.723,-41.992,-29.297,-35.156,-25.879,-30.273
1690200580.727,-107.910,-34.668,-37.109,-56.641,-236.328
1690200580.744,-85.449,-40.527,-38.574,-51.270,-208.984
1690200580.748,3.906,-35.156,-38.086,-12.695,68.848
1690200580.752,41.504,-32.715,-34.668,0.488,145.996
1690200580.756,-23.438,-38.574,-33.691,-25.391,-53.711
1690200580.760,-96.680,-41.504,-36.621,-51.758,-169.434
1690200580.764,-77.637,-35.645,-37.109,-40.527,-56.641
1690200580.768,3.418,-30.762,-27.832,-13.672,71.777
1690200580.771,45.410,-31.250,-26.367,4.883,49.805
1690200580.775,-9.766,-31.250,-30.762,-13.672,-52.246
1690200580.779,-90.332,-36.621,-28.809,-43.457,124.023
1690200580.783,-88.379,-38.574,-27.832,-50.781,64.941
1690200580.787,-11.719,-36.621,-26.367,-31.738,-222.656
1690200580.789,41.016,-31.250,-28.320,-0.488,-45.410
1690200580.793,6.348,-28.320,-30.273,4.395,-9.766
1690200580.797,-85.449,-33.203,-26.367,-35.156,-195.801
1690200580.801,-125.488,-32.227,-26.367,-85.938,-253.906
1690200580.805,-70.801,-34.180,-34.180,-93.262,-85.449
1690200580.809,-24.414,-40.039,-41.504,-73.242,66.406
1690200580.813,-68.848,-37.109,-35.645,-90.820,48.828
1690200580.816,-168.457,-37.598,-33.203,-160.156,-165.527
1690200580.820,-200.195,-38.086,-32.715,-174.316,-58.594
1690200580.824,-141.113,-29.785,-27.344,-151.367,325.195
1690200580.828,-100.586,-26.367,-32.715,-163.086,99.609
1690200580.832,-136.719,-35.156,-42.480,-186.035,-133.789
1690200580.834,-225.586,-35.156,-46.875,-217.285,69.336
1690200580.838,-266.602,-28.809,-48.340,-240.723,-1.465
1690200580.842,-200.195,-27.344,-43.945,-225.098,-249.023
1690200580.846,-133.301,-25.879,-43.945,-203.613,-152.344
1690200580.850,-147.949,-22.949,-47.852,-205.566,-41.504
1690200580.854,-222.168,-22.461,-46.387,-228.516,-2.930
1690200580.858,-258.789,-23.438,-51.270,-250.488,-138.672
1690200580.861,-202.637,-23.926,-55.664,-235.352,-246.582
1690200580.865,-120.605,-19.043,-57.129,-187.500,149.902
1690200580.869,-99.609,-16.602,-57.617,-159.668,197.754
1690200580.873,-155.273,-25.391,-55.176,-177.734,-216.309
1690200580.877,-188.965,-28.320,-48.340,-178.223,-191.406
1690200580.879,-135.742,-26.367,-41.992,-146.484,-74.219
1690200580.883,-45.410,-26.367,-36.621,-102.539,-61.523
1690200580.887,-20.020,-29.297,-34.668,-75.195,-7.324
1690200580.891,-81.055,-32.227,-41.992,-96.680,8.301
1690200580.895,-130.371,-34.180,-44.922,-119.141,-88.867
1690200580.899,-91.797,-29.785,-39.062,-98.145,-47.363
1690200580.903,-3.418,-28.320,-39.551,-60.059,20.508
1690200580.906,19.043,-33.691,-39.062,-39.551,189.941
1690200580.910,-43.945,-37.109,-39.062,-53.711,291.016
1690200580.914,-100.098,-31.738,-40.527,-75.195,-102.051
1690200580.918,-80.078,-25.879,-36.621,-64.453,-213.867
1690200580.922,4.395,-31.738,-31.738,-37.598,-60.547
1690200580.940,43.945,-37.598,-35.156,-24.902,90.820
1690200580.944,-9.766,-41.016,-38.574,-41.992,38.086
1690200580.948,-74.219,-35.645,-31.250,-64.453,-129.883
1690200580.952,-65.918,-34.668,-27.832,-60.059,47.363
1690200580.956,-1.465,-38.574,-34.668,-33.691,149.414
1690200580.960,37.109,-33.691,-38.574,-15.625,68.848
1690200580.964,-1.465,-30.762,-37.109,-17.578,11.719
1690200580.967,-74.707,-31.250,-39.062,-37.109,69.824
1690200580.971,-79.590,-34.668,-41.016,-50.293,-28.809
1690200580.975,0.977,-33.203,-37.109,-28.809,-277.344
1690200580.979,58.105,-31.250,-32.715,11.230,-109.863
1690200580.983,15.625,-34.668,-32.715,4.883,-58.105
1690200580.969,-65.918,-36.133,-31.738,-42.480,-202.637
1690200580.973,-80.078,-38.086,-28.320,-50.293,-294.922
1690200580.977,-12.695,-41.016,-31.250,-20.020,-149.414
1690200580.981,51.758,-40.039,-35.645,-1.953,-0.488
1690200580.985,25.879,-39.062,-35.645,-5.371,-65.430
1690200580.989,-57.129,-36.133,-39.551,-32.227,-106.445
1690200580.993,-86.914,-37.598,-38.086,-50.781,69.824
1690200580.996,-28.809,-36.133,-30.273,-31.738,64.941
1690200581.000,38.574,-30.762,-26.367,2.930,-51.758
1690200581.004,14.160,-40.039,-26.855,-2.930,-50.293
1690200581.008,-64.453,-46.387,-30.762,-30.273,83.984
1690200581.012,-95.215,-45.410,-31.250,-45.410,228.027
1690200581.014,-38.574,-44.434,-31.738,-32.227,21.484
1690200581.018,44.922,-33.691,-24.414,9.766,-75.684
1690200581.022,40.527,-29.785,-18.555,9.766,82.031
1690200581.026,-43.945,-32.715,-20.508,-23.926,52.246
1690200581.030,-89.844,-30.762,-18.066,-45.898,-229.004
1690200581.034,-41.016,-31.250,-20.996,-29.785,-129.395
1690200581.038,43.457,-29.297,-25.391,15.625,279.297
1690200581.041,54.688,-25.391,-19.531,23.926,256.836
1690200581.045,-14.648,-28.320,-15.137,1.953,-125.000
1690200581.049,-62.988,-31.738,-20.020,-11.719,-189.453
1690200581.053,-44.434,-27.832,-21.973,-26.855,-48.828
1690200581.057,12.207,-23.926,-25.879,-24.414,-94.238
1690200581.061,32.715,-25.391,-33.691,-5.371,-129.883
1690200581.065,-26.855,-25.879,-39.551,-20.996,-48.828
1690200581.069,-91.309,-22.949,-41.504,-54.688,-129.883
1690200581.073,-70.312,-21.484,-40.039,-48.340,-244.141
1690200581.077,17.090,-20.996,-41.992,-20.020,-188.477
1690200581.081,47.852,-25.391,-45.410,0.000,186.035
1690200581.085,-12.207,-23.438,-40.527,-11.719,314.453
1690200581.088,-81.055,-21.484,-37.598,-48.828,-109.375
1690200581.092,-70.801,-26.367,-40.527,-45.898,-277.832
1690200581.096,14.160,-24.414,-37.109,-1.465,1.953
1690200581.100,54.688,-23.438,-28.809,8.301,273.438
1690200581.104,-5.859,-29.785,-28.320,-23.438,-1.953
1690200581.134,-82.031,-36.133,-32.227,-50.781,-126.953
1690200581.138,-77.637,-36.133,-32.715,-46.387,-87.402
1690200581.142,-8.301,-39.062,-34.668,-19.043,-139.160
1690200581.146,50.293,-39.062,-33.691,6.348,-104.980
1690200581.150,10.742,-34.668,-32.715,-5.371,-109.375
1690200581.154,-75.195,-37.109,-35.156,-31.250,153.809
1690200581.158,-81.055,-40.039,-34.668,-30.762,229.980
1690200581.161,-8.789,-40.039,-36.133,-22.461,-156.738
1690200581.165,52.734,-47.852,-41.504,-3.418,-119.629
1690200581.169,24.414,-50.781,-36.133,1.953,55.664
1690200581.173,-61.523,-44.922,-30.762,-33.203,-63.477
1690200581.177,-90.820,-42.480,-34.668,-57.129,-255.859
1690200581.164,-24.902,-45.410,-33.691,-34.668,-104.492
1690200581.168,48.828,-41.016,-28.320,-1.953,96.680
1690200581.172,31.738,-30.273,-27.344,0.000,-52.734
1690200581.176,-46.875,-31.250,-29.297,-25.879,-201.172
1690200581.180,-83.008,-39.062,-28.809,-42.480,-167.480
1690200581.184,-32.227,-42.480,-30.273,-21.973,-52.734
1690200581.188,39.551,-39.062,-33.203,2.930,3.418
1690200581.191,23.438,-37.598,-36.621,-1.465,-6.836
1690200581.195,-59.082,-39.551,-41.016,-35.156,-4.395
1690200581.199,-101.562,-40.039,-41.504,-57.129,-116.211
1690200581.203,-41.992,-38.574,-39.062,-33.203,-248.535
1690200581.207,39.062,-39.551,-37.109,-5.859,-134.277
1690200581.210,38.086,-38.086,-36.133,-1.953,229.980
1690200581.214,-38.086,-36.133,-35.645,-20.020,389.648
1690200581.218,-96.680,-34.668,-38.574,-44.922,-0.488
1690200581.222,-55.176,-27.832,-40.039,-39.551,-187.012
1690200581.226,21.484,-28.320,-37.598,-14.648,5.859
1690200581.230,30.273,-33.203,-36.621,-7.812,145.996
1690200581.234,-35.645,-31.250,-36.621,-32.227,36.133
1690200581.237,-93.262,-34.180,-38.086,-57.129,-145.508
1690200581.241,-69.824,-36.621,-36.133,-46.875,1.465
1690200581.245,8.789,-34.180,-36.621,-19.043,38.574
1690200581.249,41.504,-30.762,-40.527,-4.395,-166.504
1690200581.253,-20.020,-34.668,-39.551,-23.926,-142.090
1690200581.254,-82.520,-36.133,-35.156,-57.129,-173.340
1690200581.258,-62.500,-35.645,-29.297,-48.340,-242.188
1690200581.262,12.695,-37.109,-26.855,-18.555,-179.199
1690200581.266,41.016,-31.738,-24.902,-1.465,-13.672
1690200581.270,-20.020,-32.227,-25.391,-24.414,-29.297
1690200581.274,-86.426,-35.156,-29.297,-57.617,-104.004
1690200581.278,-83.008,-32.715,-30.273,-62.500,-67.871
1690200581.281,-14.160,-30.762,-31.738,-33.691,172.852
1690200581.285,38.574,-30.762,-28.320,-6.836,467.773
1690200581.289,-7.812,-30.762,-28.809,-20.996,125.488
1690200581.293,-99.121,-31.738,-30.762,-62.012,-210.449
1690200581.297,-117.676,-34.668,-26.367,-81.055,-208.008
1690200581.299,-52.246,-35.645,-29.785,-64.453,-164.551
1690200581.303,-0.488,-31.738,-29.785,-44.922,-56.152
1690200581.307,-44.922,-24.902,-28.809,-66.406,-35.645
1690200581.311,-137.695,-22.949,-27.832,-106.445,-6.836
1690200581.315,-174.316,-20.996,-25.879,-134.766,-96.680
1690200581.319,-111.328,-19.043,-20.996,-121.582,-113.770
1690200581.323,-52.246,-16.113,-18.066,-95.703,53.711
1690200581.326,-86.426,-11.230,-20.020,-104.492,373.535
1690200581.330,-171.387,-6.348,-18.555,-140.137,274.902
1690200581.334,-205.078,2.930,-18.066,-180.664,-297.852
1690200581.338,-146.484,0.488,-20.508,-166.504,-251.465
1690200581.342,-75.195,-2.930,-16.113,-122.559,-52.246
1690200581.347,-82.520,0.977,-15.625,-126.953,-72.266
1690200581.351,-167.480,0.977,-22.949,-169.922,-164.551
1690200581.355,-199.707,-7.324,-23.926,-182.617,-193.359
1690200581.359,-139.648,-16.602,-21.484,-157.227,-139.648
1690200581.363,-66.895,-12.695,-22.461,-127.930,-51.758
1690200581.367,-55.176,-5.859,-26.367,-119.141,20.996
1690200581.371,-120.117,-7.324,-28.809,-131.836,170.410
1690200581.374,-162.598,-10.254,-30.762,-150.391,203.125
1690200581.378,-108.887,-13.184,-37.598,-131.348,-113.281
1690200581.382,-27.344,-16.602,-36.621,-76.172,-116.699
1690200581.386,-5.859,-16.113,-32.715,-49.316,97.168
1690200581.390,-64.941,-22.949,-38.574,-63.477,-15.137
1690200581.389,-120.117,-30.762,-44.434,-85.938,-139.160
1690200581.393,-78.613,-25.391,-42.969,-77.148,-102.051
1690200581.397,13.672,-23.438,-47.363,-37.109,-15.137
1690200581.401,36.133,-27.832,-53.223,-32.227,41.016
1690200581.405,-33.691,-30.273,-50.293,-47.363,-106.445
1690200581.409,-104.492,-32.715,-43.945,-68.848,-145.020
1690200581.413,-78.613,-32.227,-42.969,-65.430,235.840
1690200581.416,5.371,-31.250,-41.504,-24.902,449.707
1690200581.420,32.715,-37.109,-41.016,-15.625,19.531
1690200581.424,-22.949,-43.457,-41.992,-35.645,-193.359
1690200581.428,-86.426,-39.062,-36.621,-61.035,-159.180
1690200581.432,-64.453,-41.016,-37.109,-52.734,-285.156
1690200581.435,20.508,-50.293,-38.574,-12.695,-272.461
1690200581.439,74.219,-46.875,-32.227,21.484,-35.645
1690200581.443,29.297,-41.504,-30.762,9.277,56.641
1690200581.447,-52.246,-41.016,-35.645,-21.973,-154.785
1690200581.451,-56.641,-43.945,-36.133,-30.273,-281.250
1690200581.455,21.484,-45.410,-34.180,-4.395,-11.230
1690200581.459,76.660,-44.434,-33.691,24.414,198.730
1690200581.462,33.203,-44.922,-32.715,9.766,12.207
1690200581.466,-44.922,-49.805,-34.668,-20.508,-193.848
1690200581.470,-55.664,-54.199,-33.203,-21.484,-61.035
1690200581.474,14.648,-48.828,-30.762,7.812,68.359
1690200581.478,75.684,-46.875,-34.180,28.320,-93.750
1690200581.494,39.062,-54.688,-34.668,14.160,-35.645
1690200581.498,-46.875,-55.176,-35.645,-7.324,54.688
1690200581.502,-62.988,-47.363,-38.086,-17.578,-25.879
1690200581.506,-0.488,-44.434,-39.551,-3.906,-136.719
1690200581.510,70.312,-43.457,-33.691,35.645,-101.074
1690200581.514,55.664,-46.875,-30.273,42.969,238.281
1690200581.518,-29.785,-45.898,-28.809,11.719,201.660
1690200581.521,-67.871,-38.574,-29.785,-21.484,-247.559
1690200581.525,-11.230,-39.551,-34.668,-1.953,-213.379
1690200581.529,60.059,-39.062,-32.715,36.133,30.273
1690200581.533,47.363,-33.691,-29.297,31.738,34.180
1690200581.537,-29.785,-29.785,-29.785,7.324,-93.750
1690200581.539,-81.055,-32.715,-32.227,-22.949,-157.227
1690200581.543,-33.691,-34.180,-29.785,-12.695,-106.445
1690200581.547,51.758,-31.738,-28.320,22.949,-47.852
1690200581.551,59.570,-31.738,-26.367,28.809,-55.176
1690200581.555,-14.648,-31.738,-21.484,3.906,-16.602
1690200581.559,-71.289,-33.691,-23.926,-20.996,40.527
1690200581.563,-34.180,-34.180,-25.879,-8.789,12.695
1690200581.566,45.898,-29.297,-24.902,15.625,-17.090
1690200581.570,64.941,-26.367,-22.949,31.738,179.688
1690200581.574,-4.883,-28.320,-21.973,16.113,377.441
1690200581.578,-75.195,-30.762,-25.391,-26.367,-2.930
1690200581.582,-57.129,-32.715,-28.809,-32.227,-273.438
1690200581.585,26.367,-31.250,-32.227,-4.883,-74.707
1690200581.589,60.059,-24.902,-30.273,13.184,38.086
1690200581.593,-4.395,-26.855,-34.180,-8.789,-90.820
1690200581.597,-75.684,-31.250,-39.062,-34.668,-173.340
1690200581.601,-69.824,-30.762,-38.086,-31.250,-125.488
1690200581.605,6.836,-28.320,-37.109,-0.977,50.293
1690200581.609,50.293,-25.879,-33.203,12.207,81.055
1690200581.612,-2.441,-28.320,-34.668,-7.812,-108.398
1690200581.616,-79.102,-33.203,-38.086,-30.762,115.234
1690200581.620,-81.055,-38.086,-37.109,-44.434,159.668
1690200581.624,-5.371,-30.762,-33.203,-24.902,-154.785
1690200581.628,43.945,-25.391,-32.715,2.441,-0.977
1690200581.629,3.418,-28.320,-30.762,-3.418,18.555
1690200581.633,-67.871,-29.297,-30.273,-28.320,-194.824
1690200581.637,-77.637,-32.227,-31.250,-38.086,-294.922
1690200581.641,-10.742,-38.086,-30.273,-18.066,-192.871
1690200581.645,44.434,-34.668,-25.391,6.348,-20.996
1690200581.649,7.324,-27.832,-24.414,-6.836,51.270
1690200581.653,-72.754,-32.227,-29.785,-42.969,-88.867
1690200581.656,-93.262,-36.133,-28.809,-51.270,-0.977
1690200581.660,-23.926,-28.809,-23.926,-21.973,218.262
1690200581.664,42.480,-23.438,-25.391,0.488,-26.367
1690200581.668,17.090,-24.902,-27.832,-7.812,-110.840
1690200581.672,-61.523,-29.297,-27.832,-35.645,16.113
1690200581.674,-93.262,-28.320,-26.855,-51.270,-25.391
1690200581.678,-30.762,-23.438,-23.438,-32.715,-126.953
1690200581.682,40.039,-25.391,-19.043,-1.953,-107.910
1690200581.686,27.344,-29.297,-21.484,6.348,52.246
1690200581.690,-52.734,-30.762,-28.320,-28.809,55.664
1690200581.694,-100.586,-29.297,-31.250,-60.059,-82.031
1690200581.698,-43.457,-26.367,-27.832,-41.992,-91.797
1690200581.701,35.156,-26.855,-22.949,-2.930,185.547
1690200581.705,32.715,-26.855,-24.414,-1.953,196.777
1690200581.709,-40.527,-27.832,-26.855,-34.180,-183.594
1690200581.713,-95.703,-31.250,-30.273,-54.199,-250.488
1690200581.717,-58.594,-33.203,-33.203,-44.922,-205.078
1690200581.720,26.855,-31.250,-28.809,-0.977,-84.473
1690200581.724,40.039,-29.785,-25.879,11.230,7.812
1690200581.728,-28.320,-34.180,-28.809,-19.531,-2.930
1690200581.732,-87.891,-35.645,-24.414,-35.156,-43.945
1690200581.736,-64.941,-37.598,-21.973,-36.133,-198.242
1690200581.740,9.277,-39.062,-28.320,-15.137,-169.922
1690200581.744,30.762,-36.133,-26.855,4.395,185.547
1690200581.747,-33.691,-32.715,-26.367,-10.254,407.227
1690200581.751,-104.980,-33.203,-31.738,-49.316,-50.293
1690200581.755,-84.961,-28.809,-32.227,-63.965,-241.211
1690200581.759,21.484,-15.137,-32.715,-13.672,25.391
1690200581.763,68.848,-17.578,-30.273,20.020,55.176
1690200581.764,-16.602,-39.062,-23.438,-27.832,-38.086
1690200581.768,-110.352,-47.852,-20.508,-76.660,-80.566
1690200581.772,-109.375,-51.270,-20.508,-74.219,-16.602
1690200581.776,-41.016,-55.176,-20.020,-38.574,125.000
1690200581.780,8.301,-45.898,-20.996,-23.926,-3.906
1690200581.784,-32.715,-38.574,-20.508,-37.598,-76.172
1690200581.788,-106.934,-41.504,-19.043,-49.316,181.152
1690200581.791,-105.957,-49.316,-24.414,-58.105,193.359
1690200581.795,-27.832,-46.387,-24.414,-41.016,-175.293
1690200581.799,28.320,-41.016,-24.414,-9.277,-122.559
1690200581.803,-9.766,-41.992,-30.762,-20.020,-18.066
1690200581.807,-91.309,-40.039,-35.645,-51.758,-183.105
1690200581.809,-103.027,-44.922,-35.156,-59.570,-325.684
1690200581.813,-27.344,-46.387,-32.227,-29.785,-140.137
1690200581.817,37.109,-41.016,-28.809,-4.395,69.824
1690200581.821,13.672,-36.621,-26.367,-16.113,-1.465
1690200581.825,-62.988,-39.551,-24.414,-38.574,-137.695
1690200581.829,-89.844,-41.992,-22.949,-46.875,9.277
1690200581.833,-32.715,-35.645,-22.461,-27.832,183.105
1690200581.836,29.785,-33.691,-24.414,-2.441,110.840
1690200581.840,16.602,-34.180,-26.855,-7.812,-25.391
1690200581.844,-60.059,-32.715,-28.809,-29.297,23.926
1690200581.848,-101.562,-31.738,-30.273,-41.016,111.328
1690200581.852,-47.363,-26.855,-31.738,-39.551,-150.879
1690200581.884,30.762,-26.855,-32.715,-14.648,-83.008
1690200581.888,25.391,-29.297,-29.297,-4.883,239.746
1690200581.892,-53.711,-33.203,-28.809,-34.668,95.215
1690200581.896,-97.168,-36.621,-32.227,-58.105,-243.164
1690200581.900,-48.828,-35.156,-26.367,-47.363,-223.145
1690200581.904,30.762,-34.180,-22.461,-15.137,39.551
1690200581.908,39.551,-32.715,-27.344,-2.441,172.852
1690200581.911,-33.203,-35.156,-28.809,-20.996,-75.684
1690200581.915,-89.355,-34.668,-29.785,-42.969,-270.020
1690200581.919,-59.082,-38.574,-33.691,-40.527,62.012
1690200581.923,20.996,-38.574,-34.180,-5.859,175.293
1690200581.927,41.016,-29.785,-31.250,7.324,-117.188
1690200581.914,-22.949,-26.367,-32.227,-18.066,-116.211
1690200581.918,-82.031,-27.832,-32.227,-54.199,-142.090
1690200581.922,-64.941,-34.668,-26.855,-56.641,-190.430
1690200581.926,17.090,-36.621,-24.414,-11.719,-120.605
1690200581.930,45.898,-40.039,-24.414,8.301,11.719
1690200581.934,-19.043,-46.875,-28.320,-14.648,63.965
1690200581.938,-87.891,-47.363,-31.738,-45.410,-112.305
1690200581.941,-78.613,-44.434,-32.715,-43.945,-229.980
1690200581.945,1.953,-39.551,-38.574,-20.996,-57.129
1690200581.949,45.410,-32.715,-37.598,2.441,51.270
1690200581.953,-5.859,-29.297,-33.203,-10.742,-63.965
1690200581.957,-80.078,-32.227,-33.203,-43.457,-125.000
1690200581.959,-81.543,-34.180,-34.668,-39.062,113.770
1690200581.963,-10.742,-39.551,-36.133,-8.301,527.344
1690200581.967,41.504,-39.551,-30.762,8.789,254.883
1690200581.971,5.859,-32.715,-25.391,-5.859,-129.883
1690200581.975,-66.406,-27.344,-23.438,-22.461,-150.391
1690200581.979,-73.242,-25.879,-20.508,-30.762,-148.438
1690200581.983,-5.371,-31.250,-18.066,-14.160,-94.727
1690200581.986,50.293,-29.785,-17.090,14.160,-76.660
1690200581.990,13.672,-29.785,-23.926,3.418,136.719
1690200581.994,-66.895,-34.180,-29.297,-38.086,60.547
1690200581.998,-72.754,-28.809,-25.879,-45.410,-285.645
1690200582.002,5.371,-22.949,-32.715,-9.766,-166.992
1690200582.007,55.176,-37.109,-31.738,9.766,17.578
1690200582.011,9.766,-50.293,-27.344,-15.137,8.301
1690200582.015,-72.266,-45.410,-27.832,-43.457,-172.363
1690200582.019,-97.656,-45.898,-23.926,-46.875,-153.320
1690200582.023,-33.203,-52.734,-26.855,-18.066,-68.848
1690200582.027,44.434,-62.012,-25.879,17.090,-14.160
1690200582.031,33.203,-67.871,-20.020,19.043,129.883
1690200582.034,-39.551,-67.871,-18.066,2.441,134.766
1690200582.038,-66.895,-63.965,-19.043,0.977,92.285
1690200582.042,-13.184,-60.059,-18.555,19.531,-151.367
1690200582.046,62.988,-63.477,-11.719,59.082,-140.137
1690200582.050,78.125,-62.500,-11.230,75.195,10.254
1690200582.049,13.184,-57.617,-14.648,51.758,-19.043
1690200582.053,-47.852,-55.176,-16.113,20.996,-140.625
1690200582.057,-17.090,-50.293,-12.695,24.414,-224.609
1690200582.061,55.176,-45.410,-5.859,55.176,-56.152
1690200582.065,67.871,-40.527,-10.254,61.035,61.523
1690200582.069,-7.324,-43.457,-15.625,35.645,-20.508
1690200582.073,-77.148,-42.480,-18.555,-0.977,-133.301
1690200582.076,-49.316,-36.133,-19.043,4.395,51.270
1690200582.080,36.621,-32.227,-12.695,40.527,411.133
1690200582.084,64.941,-26.367,-10.254,42.480,149.414
1690200582.088,3.906,-27.344,-14.160,15.625,-116.699
1690200582.092,-67.871,-29.297,-19.531,-19.531,-141.602
1690200582.094,-61.523,-25.879,-19.043,-20.508,-239.258
1690200582.098,15.625,-21.484,-16.602,11.719,-190.918
1690200582.102,58.594,-23.926,-16.602,35.645,-51.270
1690200582.106,2.441,-29.785,-16.113,16.602,-6.836
1690200582.110,-77.637,-28.809,-21.973,-26.367,-108.887
1690200582.114,-74.707,-32.715,-28.809,-30.273,-184.082
1690200582.118,-2.441,-32.715,-26.855,-2.930,70.801
1690200582.121,47.363,-26.855,-19.531,22.461,458.008
1690200582.125,9.277,-20.996,-16.602,8.301,137.695
1690200582.129,-69.824,-20.020,-16.602,-35.156,-212.402
1690200582.133,-81.055,-25.391,-20.508,-49.316,-151.855
1690200582.137,-11.230,-27.832,-26.367,-22.949,-135.254
1690200582.139,42.969,-31.250,-30.273,-5.859,-112.793
1690200582.143,13.184,-30.762,-30.273,-15.137,-100.098
1690200582.147,-64.453,-30.762,-27.344,-33.203,0.977
1690200582.151,-77.637,-34.668,-24.902,-21.973,-83.008
1690200582.155,-1.465,-32.715,-20.508,-2.441,-192.871
1690200582.159,39.551,-30.762,-28.320,-17.090,10.742
1690200582.163,-10.254,-34.668,-34.180,-42.969,370.605
1690200582.166,-101.074,-34.668,-33.203,-81.543,174.805
1690200582.170,-158.203,-28.809,-38.086,-125.000,-277.832
1690200582.174,-112.793,-28.809,-41.992,-104.980,-133.789
1690200582.178,-43.945,-28.320,-41.992,-76.172,51.758
1690200582.182,-72.266,-28.809,-41.016,-109.863,20.996
1690200582.184,-151.367,-34.180,-41.016,-145.020,-135.254
1690200582.188,-194.824,-32.227,-40.039,-169.434,-181.641
1690200582.192,-160.156,-30.273,-40.527,-170.898,-106.934
1690200582.196,-62.988,-28.320,-41.504,-121.582,-43.457
1690200582.200,-46.387,-24.902,-43.457,-103.516,-38.574
1690200582.204,-127.441,-31.738,-45.410,-127.441,77.148
1690200582.208,-161.621,-37.109,-47.363,-136.230,156.250
1690200582.211,-112.793,-36.621,-45.898,-121.582,-82.031
1690200582.215,-31.738,-38.574,-41.504,-81.543,-165.527
1690200582.219,-3.906,-38.086,-39.062,-50.293,41.504
1690200582.223,-71.289,-35.156,-38.086,-69.336,45.410
1690200582.227,-127.441,-36.133,-33.203,-93.262,-121.582
1690200582.244,-85.449,-34.668,-28.809,-72.266,-129.395
1690200582.248,2.930,-30.273,-31.738,-37.109,153.809
1690200582.252,23.438,-32.227,-32.715,-28.809,296.875
1690200582.256,-48.828,-36.133,-33.203,-54.199,-73.242
1690200582.260,-113.281,-37.598,-32.715,-81.055,-214.355
1690200582.264,-90.332,-39.062,-32.227,-70.801,-39.062
1690200582.268,-0.488,-39.551,-32.227,-32.715,60.547
1690200582.271,34.180,-35.645,-36.133,-20.020,-42.480
1690200582.275,-21.484,-33.691,-39.062,-41.016,-131.348
1690200582.279,-91.797,-38.574,-39.062,-62.500,-2.930
1690200582.283,-81.543,-39.062,-36.133,-60.547,-75.684
1690200582.287,0.488,-32.227,-32.715,-30.273,-206.543
1690200582.289,43.945,-30.762,-33.203,-3.906,-70.801
1690200582.293,0.000,-32.227,-27.344,-11.230,-8.789
1690200582.297,-77.148,-28.809,-30.762,-47.363,-95.215
1690200582.301,-89.844,-31.738,-38.086,-65.918,-220.703
1690200582.305,-21.973,-40.527,-37.598,-37.109,-54.199
1690200582.309,35.156,-40.039,-37.109,-8.789,214.355
1690200582.313,3.418,-34.668,-33.691,-21.484,114.258
1690200582.316,-77.148,-33.691,-34.180,-58.105,-146.484
1690200582.320,-97.168,-30.273,-36.133,-58.594,-79.102
1690200582.324,-23.926,-27.832,-36.133,-30.762,129.395
1690200582.328,36.133,-29.297,-33.203,-11.230,-32.715
1690200582.332,10.742,-27.344,-34.180,-12.207,-94.727
1690200582.334,-68.848,-28.320,-36.621,-37.598,-25.879
1690200582.338,-102.539,-31.738,-40.039,-60.547,-71.289
1690200582.342,-37.598,-28.809,-44.434,-45.898,-153.320
1690200582.346,35.156,-22.949,-39.551,-6.836,-105.469
1690200582.350,26.855,-24.414,-32.227,-1.465,281.250
1690200582.354,-50.781,-30.273,-30.762,-35.156,312.988
1690200582.358,-92.285,-31.250,-36.133,-57.129,-125.488
1690200582.361,-25.391,-29.297,-47.852,-35.645,-186.035
1690200582.365,60.059,-29.785,-40.039,16.113,167.969
1690200582.369,32.715,-36.621,-25.879,2.930,169.922
1690200582.373,-62.988,-45.410,-26.855,-43.945,-193.359
1690200582.377,-114.258,-46.387,-27.832,-54.199,-183.594
1690200582.395,-66.895,-39.062,-26.367,-32.715,-155.762
1690200582.399,20.996,-38.574,-24.902,-3.906,-148.438
1690200582.403,34.668,-36.621,-26.367,-5.371,-104.980
1690200582.407,-36.133,-34.180,-31.250,-26.367,-82.031
1690200582.411,-95.215,-33.691,-29.785,-52.246,-120.605
1690200582.415,-63.477,-34.180,-25.879,-47.852,-117.188
1690200582.419,17.578,-37.598,-29.297,-13.672,-104.492
1690200582.422,42.969,-34.180,-29.785,7.812,151.367
1690200582.426,-20.020,-36.133,-26.367,-4.883,362.305
1690200582.430,-95.703,-41.504,-27.344,-44.922,-130.371
1690200582.434,-65.918,-34.668,-26.855,-49.805,-345.703
1690200582.438,20.020,-31.738,-21.484,-6.836,-159.180
1690200582.424,43.945,-31.738,-21.973,9.277,-35.645
1690200582.428,-17.578,-35.156,-31.738,-26.367,-67.383
1690200582.432,-88.379,-39.551,-33.203,-60.059,-291.504
1690200582.436,-75.684,-41.016,-28.809,-49.316,-156.738
1690200582.440,0.000,-41.016,-30.762,-19.531,-22.461
1690200582.444,35.645,-37.598,-34.668,-12.207,-51.758
1690200582.448,-13.184,-38.086,-34.668,-27.832,116.699
1690200582.451,-92.285,-39.062,-36.621,-59.570,118.652
1690200582.455,-95.215,-37.109,-36.133,-64.453,-75.195
1690200582.459,-17.578,-36.133,-26.367,-32.715,-125.000
1690200582.463,30.273,-36.133,-23.438,-5.859,-59.082
1690200582.467,-7.812,-37.598,-24.414,-9.277,283.691
1690200582.469,-80.566,-33.691,-26.367,-40.039,202.148
1690200582.473,-93.750,-28.809,-24.902,-63.965,-227.051
1690200582.477,-27.344,-28.809,-21.484,-32.715,-103.027
1690200582.481,32.715,-26.367,-19.531,2.930,17.578
1690200582.485,12.695,-21.973,-21.484,-5.371,-9.766
1690200582.489,-65.430,-28.320,-25.879,-32.715,-74.707
1690200582.493,-96.191,-28.809,-30.762,-46.387,104.980
1690200582.496,-32.227,-21.484,-34.180,-28.809,269.043
1690200582.500,36.133,-20.996,-35.156,-13.672,-14.648
1690200582.504,16.113,-25.879,-36.621,-20.996,-103.027
1690200582.508,-63.965,-24.902,-37.598,-47.363,-102.051
1690200582.512,-93.262,-19.531,-35.156,-60.547,-95.215
1690200582.515,-35.156,-21.973,-31.250,-31.738,36.133
1690200582.519,27.344,-26.367,-32.227,-7.324,-37.109
1690200582.523,19.043,-24.902,-30.273,-5.859,133.301
1690200582.527,-53.711,-24.902,-24.902,-25.879,222.656
1690200582.531,-98.633,-27.344,-21.973,-47.363,-199.707
1690200582.535,-52.734,-28.320,-21.484,-30.762,-216.309
1690200582.539,28.320,-26.367,-18.555,9.766,235.352
1690200582.542,29.297,-19.043,-14.648,16.602,264.648
1690200582.546,-44.434,-18.555,-20.996,-19.531,-153.809
1690200582.550,-96.680,-26.855,-23.926,-53.223,-236.328
1690200582.554,-56.152,-31.738,-24.414,-40.527,-197.266
1690200582.558,24.414,-32.227,-24.902,-4.883,-136.230
1690200582.560,30.273,-28.809,-23.438,2.441,-136.719
1690200582.564,-38.086,-31.250,-30.273,-27.832,-94.727
1690200582.568,-96.191,-33.691,-31.738,-61.035,-31.250
1690200582.572,-68.848,-28.320,-25.879,-51.758,-113.770
1690200582.576,9.277,-26.855,-25.391,-17.090,-143.066
1690200582.580,35.645,-32.227,-31.250,1.465,116.211
1690200582.584,-30.762,-36.621,-39.062,-23.438,457.520
1690200582.587,-100.586,-34.180,-40.527,-59.082,87.402
1690200582.591,-78.613,-37.109,-40.039,-56.152,-305.176
1690200582.595,2.441,-41.992,-42.969,-29.297,-151.367
1690200582.599,38.086,-39.551,-41.504,-14.160,2.441
1690200582.603,-13.672,-35.645,-30.762,-29.297,-123.047
1690200582.619,-83.984,-34.668,-22.949,-50.293,-248.535
1690200582.623,-80.078,-39.062,-26.855,-50.781,-36.133
1690200582.627,-1.465,-41.016,-25.879,-21.484,27.832
1690200582.631,45.410,-36.621,-19.043,5.859,-124.023
1690200582.635,-4.395,-34.180,-17.578,-4.395,-108.887
1690200582.639,-87.402,-35.645,-21.973,-37.109,49.805
1690200582.643,-98.145,-34.180,-21.973,-62.012,-9.277
1690200582.646,-22.461,-30.762,-23.438,-44.434,-217.773
1690200582.650,42.969,-32.715,-31.250,-6.348,-170.898
1690200582.654,21.484,-26.855,-37.109,1.465,93.262
1690200582.658,-70.801,-29.785,-34.180,-37.109,-41.992
1690200582.662,-104.492,-39.062,-20.508,-52.734,-337.402
1690200582.664,-24.414,-39.062,-18.555,-13.184,-196.289
1690200582.668,53.223,-36.133,-28.809,16.113,-31.250
1690200582.672,33.691,-37.109,-24.902,3.418,-120.117
1690200582.676,-43.945,-37.598,-21.484,-24.414,-215.820
1690200582.680,-80.078,-38.086,-27.344,-41.016,-146.973
1690200582.684,-20.020,-39.062,-34.668,-29.785,-70.312
1690200582.688,52.246,-34.668,-37.109,4.395,1.465
1690200582.691,35.645,-33.691,-32.227,5.371,44.434
1690200582.695,-41.504,-35.645,-32.227,-19.043,61.523
1690200582.699,-83.984,-34.668,-30.273,-34.180,208.496
1690200582.703,-35.645,-29.785,-30.273,-25.391,-37.598
1690200582.707,38.574,-29.785,-37.109,-0.488,-164.551
1690200582.709,37.109,-35.645,-33.203,8.301,103.027
1690200582.713,-33.203,-36.621,-28.809,-14.648,14.160
1690200582.717,-85.938,-38.086,-31.738,-44.922,-236.328
1690200582.721,-47.852,-41.016,-33.203,-36.133,-230.469
1690200582.725,29.297,-37.598,-33.691,-8.301,-63.477
1690200582.729,35.156,-34.668,-29.297,-7.324,36.133
1690200582.733,-35.156,-32.227,-25.391,-25.879,-25.391
1690200582.736,-87.402,-31.738,-22.949,-45.410,-130.859
1690200582.740,-55.664,-33.203,-20.508,-29.297,20.020
1690200582.744,25.391,-32.715,-18.555,6.348,186.523
1690200582.748,47.852,-28.809,-19.043,8.301,-2.441
1690200582.752,-16.602,-27.344,-25.879,-10.254,-62.012
1690200582.754,-87.891,-28.320,-28.320,-33.691,-67.871
1690200582.758,-80.566,-29.297,-29.297,-34.180,-215.332
1690200582.762,0.000,-26.855,-29.297,-19.043,-168.457
1690200582.766,42.480,-25.879,-26.855,-3.906,25.391
1690200582.770,-15.625,-26.367,-32.227,-19.043,-8.301
1690200582.774,-89.355,-22.461,-29.785,-52.734,-63.477
1690200582.778,-76.660,-23.438,-28.320,-51.758,-91.309
1690200582.781,2.441,-27.344,-33.691,-19.531,73.730
1690200582.785,43.457,-23.438,-30.273,9.766,337.891
1690200582.789,-5.859,-21.484,-23.926,-0.977,80.566
1690200582.793,-80.566,-23.926,-21.484,-37.109,-186.035
1690200582.797,-83.008,-26.855,-24.414,-48.828,-160.645
1690200582.799,-10.742,-29.297,-29.297,-23.926,-21.484
1690200582.803,38.086,-32.715,-34.668,-10.254,72.266
1690200582.807,-5.371,-29.297,-35.156,-24.414,-63.965
1690200582.811,-85.449,-31.738,-35.156,-37.109,82.031
1690200582.815,-100.098,-38.086,-33.203,-39.551,117.188
1690200582.819,-34.180,-34.668,-29.785,-37.109,-165.039
1690200582.823,23.438,-30.762,-30.273,-24.902,-11.719
1690200582.826,-2.441,-32.227,-30.273,-18.555,242.188
1690200582.830,-84.473,-33.203,-32.715,-43.457,104.492
1690200582.834,-103.516,-32.227,-34.668,-62.988,-251.953
1690200582.838,-37.598,-31.250,-31.738,-33.203,-207.031
1690200582.842,27.832,-31.738,-32.227,-0.977,-38.086
1690200582.845,15.137,-31.250,-32.227,-8.301,-34.668
1690200582.849,-62.500,-25.879,-28.809,-44.922,-197.754
1690200582.853,-104.004,-27.832,-34.180,-63.965,-86.914
1690200582.857,-48.340,-27.832,-36.133,-41.016,117.188
1690200582.861,27.344,-24.414,-37.109,-11.230,-20.996
1690200582.865,22.949,-25.879,-40.527,-5.371,-64.941
1690200582.869,-45.410,-30.762,-34.668,-24.414,140.625
1690200582.872,-91.309,-34.668,-32.227,-47.363,195.801
1690200582.876,-50.293,-33.203,-34.668,-39.551,-60.547
1690200582.880,23.438,-31.250,-33.203,-5.371,-79.590
1690200582.884,28.809,-33.691,-34.180,-2.930,67.383
1690200582.888,-43.945,-32.715,-35.645,-32.715,-27.832
1690200582.889,-97.656,-27.344,-30.762,-46.875,-253.418
1690200582.893,-59.570,-30.273,-28.809,-36.133,-236.816
1690200582.897,20.020,-34.180,-26.367,-5.859,27.344
1690200582.901,34.668,-30.273,-24.414,6.836,108.398
1690200582.905,-26.855,-29.785,-29.785,-18.066,-83.496
1690200582.909,-73.242,-29.297,-31.738,-35.156,-139.648
1690200582.913,-63.965,-30.273,-29.785,-38.574,171.875
1690200582.916,-25.879,-31.738,-32.715,-43.945,315.430
1690200582.920,-6.348,-27.344,-29.297,-47.363,-58.594
1690200582.924,-65.430,-26.367,-30.273,-71.289,-86.914
1690200582.928,-152.344,-26.367,-31.738,-109.863,-105.957
1690200582.932,-151.367,-28.809,-31.738,-128.418,-267.578
1690200582.934,-78.125,-30.762,-33.203,-99.121,-225.098
1690200582.938,-40.527,-34.668,-29.785,-73.730,-42.480
1690200582.942,-87.891,-33.203,-30.273,-88.379,-19.043
1690200582.946,-150.879,-26.855,-31.738,-104.980,-132.324
1690200582.950,-139.648,-24.414,-32.715,-110.352,-168.945
1690200582.954,-58.594,-30.273,-37.109,-77.637,146.973
1690200582.958,-4.395,-34.668,-40.039,-45.410,337.891
1690200582.961,-37.598,-33.203,-34.668,-62.500,77.637
1690200582.965,-114.258,-32.227,-31.250,-91.309,-195.312
1690200582.969,-122.559,-34.180,-34.180,-94.727,-65.430
1690200582.973,-50.781,-38.086,-36.133,-69.824,140.625
1690200582.977,10.742,-37.109,-31.738,-36.133,-40.527
1690200582.994,-14.160,-37.598,-33.203,-36.621,4.395
1690200582.998,-92.773,-36.621,-36.133,-61.523,100.098
1690200583.002,-112.305,-38.574,-30.762,-67.871,-26.367
1690200583.006,-41.016,-32.715,-26.855,-42.969,-193.848
1690200583.010,27.344,-31.250,-24.902,-14.648,-102.051
1690200583.014,9.277,-34.180,-28.809,-10.742,35.156
1690200583.018,-62.012,-34.668,-27.344,-46.875,-24.414
1690200583.021,-97.168,-35.645,-23.438,-66.895,-172.363
1690200583.025,-42.969,-37.109,-22.461,-42.480,-197.266
1690200583.029,30.273,-40.527,-23.926,-11.719,204.102
1690200583.033,20.996,-40.039,-24.902,-12.695,256.836
1690200583.037,-58.594,-39.062,-24.414,-48.828,-151.855
1690200583.039,-106.934,-38.086,-26.855,-72.266,-165.527
1690200583.043,-52.734,-37.598,-27.344,-48.340,-6.348
1690200583.047,25.391,-37.109,-24.902,-6.836,-27.832
1690200583.051,21.484,-34.180,-24.902,-3.906,-36.621
1690200583.055,-47.363,-32.227,-25.879,-30.762,-5.859
1690200583.059,-92.773,-33.203,-28.320,-52.246,-54.199
1690200583.063,-55.176,-35.156,-35.156,-45.898,-48.828
1690200583.066,21.484,-31.250,-38.086,-14.648,-69.824
1690200583.070,40.039,-28.809,-34.668,1.465,88.379
1690200583.074,-26.855,-26.855,-36.621,-21.484,242.676
1690200583.078,-89.355,-22.949,-39.551,-63.477,-146.973
1690200583.082,-65.430,-26.855,-35.645,-58.105,-300.781
1690200583.084,16.113,-29.785,-35.156,-20.508,-62.500
1690200583.088,41.016,-26.367,-34.180,-12.695,38.574
1690200583.092,-32.715,-27.832,-32.715,-37.109,-103.027
1690200583.096,-103.516,-36.621,-35.645,-63.965,-277.344
1690200583.100,-85.449,-41.992,-36.133,-54.688,-11.719
1690200583.104,0.000,-41.016,-37.598,-20.020,202.148
1690200583.108,35.645,-37.109,-38.086,-4.883,26.855
1690200583.111,-20.508,-35.156,-34.180,-23.926,-75.195
1690200583.115,-90.332,-31.250,-33.203,-42.480,91.309
1690200583.119,-90.332,-31.250,-36.621,-49.316,56.641
1690200583.123,-15.625,-36.133,-37.598,-35.645,-207.031
1690200583.127,34.180,-34.180,-41.016,-15.137,-39.062
1690200583.130,-14.648,-31.250,-43.945,-27.832,70.801
1690200583.134,-91.797,-27.344,-33.203,-51.758,-144.043
1690200583.138,-90.332,-23.438,-24.902,-55.176,-251.465
1690200583.142,-19.531,-27.832,-32.715,-27.344,-32.715
1690200583.146,32.715,-31.250,-34.668,-3.906,159.668
1690200583.150,5.371,-28.809,-33.691,-17.578,35.645
1690200583.154,-71.777,-30.273,-36.133,-49.316,-168.945
1690200583.157,-93.750,-32.227,-31.250,-58.105,-82.031
1690200583.161,-27.344,-28.809,-31.250,-27.344,114.258
1690200583.165,37.109,-23.438,-32.227,9.766,-15.137
1690200583.169,5.859,-21.973,-32.227,0.488,-61.035
1690200583.173,-86.426,-28.809,-35.645,-53.711,-90.332
1690200583.174,-110.352,-33.691,-36.133,-68.848,-110.352
1690200583.178,-33.691,-32.227,-30.762,-44.434,-135.254
1690200583.182,39.062,-32.715,-27.344,-19.531,-84.473
1690200583.186,27.832,-30.762,-27.832,-9.277,110.352
1690200583.190,-55.664,-35.156,-32.227,-51.270,51.758
1690200583.194,-99.609,-41.992,-35.156,-75.195,-104.492
1690200583.198,-44.922,-41.016,-35.156,-56.152,-50.781
1690200583.201,28.320,-41.504,-36.621,-24.414,309.082
1690200583.205,23.926,-35.645,-34.180,-5.859,404.297
1690200583.209,-50.293,-30.273,-29.297,-38.574,-110.840
1690200583.213,-95.703,-34.180,-33.691,-63.965,-249.023
1690200583.217,-53.223,-39.062,-39.062,-45.898,-122.070
1690200583.219,26.367,-37.109,-41.504,-15.625,-121.094
1690200583.223,38.574,-32.227,-38.574,-0.488,-118.652
1690200583.227,-30.762,-31.250,-31.738,-19.043,-126.953
1690200583.231,-94.238,-31.738,-34.180,-47.363,-200.684
1690200583.235,-63.965,-34.180,-34.668,-45.410,-291.504
1690200583.239,24.414,-32.227,-27.832,-14.160,-164.551
1690200583.243,40.527,-36.621,-32.227,-6.348,180.176
1690200583.246,-22.461,-36.621,-39.062,-22.949,367.676
1690200583.250,-79.102,-34.180,-37.109,-41.016,21.484
1690200583.254,-77.637,-39.551,-31.738,-53.711,-249.023
1690200583.258,-14.648,-39.551,-25.391,-28.320,-41.016
1690200583.262,20.996,-35.156,-22.949,-10.254,48.828
1690200583.264,-41.504,-34.180,-23.438,-30.762,-66.895
1690200583.268,-110.352,-38.574,-20.508,-54.199,-173.340
1690200583.272,-94.238,-42.480,-20.020,-54.199,-57.129
1690200583.276,-15.625,-43.945,-21.973,-30.273,64.941
1690200583.280,32.227,-39.551,-20.508,-8.789,-40.039
1690200583.284,-19.043,-40.039,-23.438,-20.508,53.223
1690200583.288,-93.262,-41.992,-21.973,-49.805,171.875
1690200583.291,-89.355,-37.109,-18.555,-55.176,-18.555
1690200583.295,-10.742,-33.691,-20.020,-33.691,-218.262
1690200583.299,41.016,-30.762,-19.043,-8.301,-39.062
1690200583.303,0.488,-27.344,-17.090,-14.160,122.070
1690200583.307,-76.172,-29.297,-17.578,-46.387,-60.059
1690200583.310,-88.379,-31.250,-16.602,-57.617,-267.578
1690200583.314,-20.020,-32.227,-18.555,-29.785,-132.324
1690200583.318,32.715,-35.156,-26.855,1.465,119.141
1690200583.322,5.859,-36.621,-33.203,-6.836,41.016
1690200583.326,-71.289,-39.062,-32.227,-44.434,-147.461
1690200583.330,-97.656,-41.992,-28.320,-60.547,17.090
1690200583.334,-31.738,-40.527,-31.738,-31.250,212.402
1690200583.337,37.598,-32.227,-33.203,-6.836,43.945
1690200583.341,21.973,-25.879,-32.715,-9.277,-83.008
1690200583.345,-56.641,-25.391,-31.738,-31.250,20.020
1690200583.349,-91.797,-24.902,-33.203,-57.617,5.371
1690200583.353,-36.621,-24.902,-34.668,-44.434,-162.598
1690200583.369,40.039,-21.484,-26.367,0.488,-91.309
1690200583.373,31.250,-23.926,-25.879,5.859,259.277
1690200583.377,-52.246,-30.273,-29.785,-29.297,230.469
1690200583.381,-99.609,-28.809,-27.832,-50.781,-260.742
1690200583.385,-45.410,-26.367,-24.902,-39.062,-257.324
1690200583.389,28.809,-20.996,-23.438,-10.742,107.422
1690200583.393,30.762,-20.508,-26.367,-2.441,235.840
1690200583.396,-44.434,-27.832,-35.156,-19.531,-68.848
1690200583.400,-102.051,-27.344,-35.156,-45.898,-269.043
1690200583.404,-59.570,-24.414,-36.621,-40.527,-24.902
1690200583.408,23.438,-27.832,-39.062,-4.395,50.781
1690200583.412,36.621,-30.273,-34.668,0.488,-115.234
1690200583.414,-36.621,-27.344,-33.203,-30.273,-97.656
1690200583.418,-97.656,-25.879,-29.785,-51.270,-125.977
1690200583.422,-65.430,-28.320,-24.902,-44.434,-217.773
1690200583.426,12.207,-24.414,-29.297,-12.695,-135.742
1690200583.430,36.133,-21.484,-35.156,5.371,128.418
1690200583.434,-25.879,-22.461,-34.668,-14.648,241.699
1690200583.438,-96.191,-23.926,-34.180,-42.969,-50.781
1690200583.441,-79.102,-27.344,-30.762,-49.316,-248.535
1690200583.445,7.324,-33.203,-30.762,-16.113,-54.199
1690200583.449,50.293,-30.762,-27.344,16.113,197.266
1690200583.453,-3.906,-25.879,-17.578,-13.184,-54.199
1690200583.457,-79.102,-25.879,-16.602,-50.293,-233.887
1690200583.459,-80.566,-27.344,-18.555,-43.945,-111.816
1690200583.463,-9.277,-31.250,-21.973,-14.648,-57.617
1690200583.467,41.992,-26.855,-24.902,-0.488,-130.859
1690200583.471,-0.977,-23.926,-24.414,-15.625,-128.906
1690200583.475,-76.660,-22.949,-22.461,-42.480,-87.891
1690200583.479,-78.613,-22.461,-23.926,-55.664,-98.145
1690200583.483,-7.324,-21.973,-23.926,-32.227,-109.375
1690200583.486,43.945,-21.484,-20.996,-7.324,20.020
1690200583.490,12.207,-25.879,-16.113,-3.906,262.207
1690200583.494,-66.895,-30.273,-20.996,-30.762,208.496
1690200583.498,-93.262,-29.785,-28.320,-55.664,-199.219
1690200583.502,-30.762,-28.809,-28.809,-34.180,-148.438
1690200583.504,34.668,-32.715,-32.715,-9.766,57.129
1690200583.508,14.160,-31.250,-29.297,-10.254,-30.273
1690200583.512,-71.777,-34.668,-23.926,-39.062,-130.859
1690200583.516,-102.539,-37.109,-28.320,-62.012,-148.926
1690200583.520,-39.551,-34.668,-35.156,-50.293,-168.945
1690200583.524,31.250,-30.762,-33.691,-21.484,-6.348
1690200583.528,21.484,-28.320,-29.785,-21.484,66.895
1690200583.531,-57.617,-34.180,-28.809,-43.945,66.406
1690200583.535,-101.074,-37.109,-29.785,-56.641,304.688
1690200583.539,-51.758,-34.668,-24.414,-41.016,83.008
1690200583.543,30.273,-27.344,-17.578,-12.207,-125.000
1690200583.547,31.738,-27.344,-18.555,-4.883,-21.973
1690200583.549,-41.504,-27.832,-19.531,-31.250,-89.844
1690200583.553,-89.355,-25.879,-19.531,-55.664,-210.938
1690200583.557,-54.199,-27.344,-24.414,-47.852,-246.094
1690200583.561,16.602,-30.762,-29.785,-18.066,-1.953
1690200583.565,27.832,-26.855,-31.250,-6.836,102.539
1690200583.569,-33.691,-24.902,-30.273,-33.691,-38.086
1690200583.573,-90.332,-29.297,-28.320,-58.105,-74.707
1690200583.576,-60.547,-30.762,-21.973,-35.645,116.211
1690200583.580,17.578,-29.785,-22.461,-0.488,149.414
1690200583.584,35.645,-28.809,-26.367,0.977,-60.059
1690200583.588,-32.715,-32.227,-28.809,-27.832,-1.953
1690200583.592,-106.934,-38.574,-29.297,-60.059,-6.836
1690200583.594,-91.797,-38.574,-28.320,-61.035,-170.410
1690200583.598,-15.137,-38.086,-31.738,-31.738,-133.789
1690200583.602,24.414,-33.203,-27.344,-8.789,97.168
1690200583.606,-26.855,-30.273,-28.320,-17.578,109.863
1690200583.610,-98.633,-33.691,-30.762,-46.875,-112.305
1690200583.614,-87.891,-30.273,-24.414,-47.852,-148.926
1690200583.618,-7.812,-29.785,-26.367,-18.555,165.039
1690200583.621,36.621,-29.785,-29.297,-2.930,379.395
1690200583.625,-17.578,-28.809,-29.785,-25.391,15.625
1690200583.629,-95.215,-32.715,-29.785,-54.688,-250.000
1690200583.633,-93.750,-35.645,-31.250,-59.570,-187.012
1690200583.637,-18.066,-36.621,-33.203,-38.574,-109.375
1690200583.641,31.738,-37.109,-31.738,-17.090,-30.762
1690200583.645,-4.395,-39.551,-30.762,-12.695,2.930
1690200583.649,-75.195,-36.133,-27.832,-30.762,156.738
1690200583.653,-103.516,-34.668,-31.250,-58.594,176.758
1690200583.657,-29.785,-38.574,-32.715,-35.645,-77.637
1690200583.661,48.340,-42.480,-36.133,5.859,19.531
1690200583.665,22.461,-41.992,-40.039,9.277,319.336
1690200583.668,-47.852,-37.109,-41.992,-15.137,139.160
1690200583.672,-64.941,-32.715,-42.480,-24.414,-269.531
1690200583.676,5.859,-34.180,-41.992,4.395,-216.309
1690200583.680,79.102,-35.645,-41.016,30.762,-49.805
1690200583.684,67.383,-30.762,-41.504,29.785,-50.293
1690200583.684,-11.719,-24.414,-40.039,8.301,-142.578
1690200583.688,-49.316,-24.414,-36.621,-5.859,-157.227
1690200583.692,3.906,-31.250,-34.668,4.883,-90.820
1690200583.696,74.219,-28.320,-30.762,31.738,-31.250
1690200583.700,68.359,-23.926,-24.902,32.715,-15.625
1690200583.704,-18.555,-29.785,-25.879,6.348,111.816
1690200583.708,-69.336,-28.320,-34.668,-14.648,197.266
1690200583.711,-28.809,-28.320,-41.504,-12.695,-63.477
1690200583.715,44.922,-29.297,-37.109,17.578,-141.113
1690200583.719,52.734,-24.902,-29.297,29.297,145.020
1690200583.723,-26.367,-26.367,-29.785,0.977,239.258
1690200583.727,-83.984,-32.227,-33.691,-33.203,-148.926
1690200583.744,-49.316,-37.598,-37.109,-33.691,-221.680
1690200583.748,28.809,-37.598,-37.598,-0.977,103.027
1690200583.752,46.387,-35.645,-38.086,9.766,143.066
1690200583.756,-25.391,-34.668,-34.180,-20.996,-124.512
1690200583.760,-94.238,-38.574,-29.785,-48.340,-206.055
1690200583.764,-68.848,-38.086,-28.320,-35.645,-77.148
1690200583.768,3.906,-38.086,-29.785,-6.836,42.480
1690200583.771,25.391,-42.480,-30.273,7.324,59.082
1690200583.775,-29.785,-40.527,-27.832,-14.160,-89.355
1690200583.779,-94.727,-41.016,-30.273,-48.340,80.566
1690200583.783,-77.637,-39.062,-28.809,-48.828,82.031
1690200583.787,2.930,-33.203,-26.855,-22.461,-158.203
1690200583.789,41.992,-32.227,-25.879,-0.488,-20.020
1690200583.793,-6.836,-29.785,-24.414,-15.137,-17.090
1690200583.797,-82.031,-25.879,-25.391,-46.387,-184.082
1690200583.801,-79.102,-24.902,-30.762,-48.340,-261.719
1690200583.805,1.953,-28.809,-34.668,-17.578,-75.195
1690200583.809,41.016,-32.227,-32.227,4.883,120.605
1690200583.813,-1.465,-29.785,-32.715,-10.254,86.914
1690200583.816,-75.684,-29.297,-31.738,-50.781,-160.156
1690200583.820,-88.379,-32.715,-25.391,-57.129,-33.691
1690200583.824,-19.043,-33.203,-23.438,-21.973,357.910
1690200583.828,33.691,-31.250,-24.902,-5.859,126.953
1690200583.832,5.371,-29.785,-24.902,-16.602,-133.789
1690200583.834,-70.801,-28.809,-24.414,-40.527,-33.691
1690200583.838,-91.797,-30.762,-27.344,-57.617,-46.387
1690200583.842,-21.484,-28.320,-28.320,-35.645,-171.387
1690200583.846,45.898,-24.902,-27.344,-10.742,-102.539
1690200583.850,20.996,-27.344,-25.879,-11.230,100.098
1690200583.854,-61.035,-25.879,-24.902,-35.156,126.953
1690200583.858,-94.727,-27.832,-28.320,-61.523,-86.914
1690200583.861,-30.762,-28.809,-26.855,-40.039,-186.523
1690200583.865,42.969,-22.461,-25.391,0.488,144.043
1690200583.869,25.391,-23.926,-28.809,-4.395,223.633
1690200583.873,-55.176,-30.273,-29.297,-39.551,-197.266
1690200583.877,-96.680,-31.250,-27.344,-61.523,-201.660
1690200583.879,-45.898,-32.227,-26.855,-42.969,-15.625
1690200583.883,32.227,-27.832,-22.949,-6.348,-37.109
1690200583.887,31.738,-24.414,-27.832,1.953,-89.355
1690200583.891,-41.016,-28.320,-32.227,-27.344,-113.770
1690200583.895,-87.891,-25.391,-30.273,-58.105,-162.598
1690200583.899,-48.828,-26.855,-32.227,-46.387,-118.164
1690200583.903,32.227,-26.367,-27.344,-9.766,4.395
1690200583.906,37.598,-29.785,-30.762,-2.930,210.938
1690200583.910,-43.457,-38.574,-36.133,-33.691,310.547
1690200583.914,-104.980,-38.086,-32.227,-60.547,-52.246
1690200583.918,-75.195,-38.086,-33.203,-54.688,-169.434
1690200583.922,10.254,-36.133,-27.832,-27.344,13.672
1690200583.925,28.320,-33.203,-22.949,-16.113,98.633
1690200583.929,-44.434,-32.227,-30.273,-36.621,17.090
1690200583.933,-107.422,-35.645,-34.668,-61.523,-206.543
1690200583.937,-79.102,-32.227,-35.645,-52.246,-6.348
1690200583.941,-5.371,-28.320,-37.598,-22.949,162.109
1690200583.945,31.738,-35.156,-35.645,-0.488,-33.691
1690200583.949,-8.301,-31.738,-38.574,-12.207,-93.262
1690200583.952,-89.355,-26.855,-40.527,-53.223,63.477
1690200583.956,-88.379,-25.879,-41.504,-62.012,44.434
1690200583.960,3.906,-25.391,-43.945,-26.367,-211.426
1690200583.964,57.129,-23.926,-40.527,-1.953,-100.098
1690200583.968,4.395,-25.879,-41.992,-25.391,-74.707
1690200583.969,-69.824,-30.273,-48.828,-57.617,-221.680
1690200583.973,-74.707,-31.250,-47.363,-60.547,-295.410
1690200583.977,-5.371,-35.156,-43.945,-28.809,-134.277
1690200583.981,52.246,-29.785,-40.527,2.441,60.547
1690200583.985,20.996,-23.438,-35.645,-7.324,63.477
1690200583.989,-63.477,-25.879,-39.062,-42.969,-48.340
1690200583.993,-88.867,-27.344,-39.062,-47.363,5.371
1690200583.996,-20.996,-30.762,-37.598,-17.090,288.574
1690200584.000,47.363,-30.273,-31.738,8.789,133.789
1690200584.004,25.879,-27.832,-24.902,-3.906,-129.883
1690200584.008,-59.570,-31.250,-26.855,-40.527,-144.531
1690200584.012,-87.891,-30.762,-29.297,-50.293,-191.895
1690200584.014,-23.926,-26.367,-28.809,-21.973,-186.523
1690200584.018,44.922,-25.879,-26.367,0.977,-95.215
1690200584.022,30.762,-27.832,-25.391,-1.465,131.348
1690200584.026,-54.199,-29.785,-28.320,-31.738,94.238
1690200584.030,-96.191,-33.203,-30.273,-58.105,-179.199
1690200584.034,-37.109,-34.180,-29.785,-35.156,-147.949
1690200584.038,38.574,-35.645,-32.715,-1.465,323.730
1690200584.041,29.785,-33.203,-32.227,-2.441,408.203
1690200584.045,-46.387,-30.762,-32.227,-30.273,-96.680
1690200584.049,-91.309,-37.598,-32.715,-48.828,-227.539
1690200584.053,-55.664,-39.551,-27.344,-32.227,-76.172
1690200584.057,22.949,-33.691,-25.391,-6.348,-20.020
1690200584.061,38.574,-28.320,-26.367,5.859,-103.516
1690200584.065,-34.180,-29.297,-23.926,-26.855,-82.520
1690200584.069,-89.844,-29.297,-19.043,-54.199,-99.609
1690200584.073,-52.734,-23.438,-16.113,-36.621,-208.008
1690200584.077,18.555,-21.973,-22.949,-18.555,-202.148
1690200584.081,30.273,-27.344,-24.414,-7.812,133.301
1690200584.085,-38.574,-26.855,-24.414,-35.645,351.562
1690200584.088,-104.004,-20.508,-27.344,-64.941,-54.199
1690200584.092,-83.008,-24.902,-32.227,-61.035,-262.695
1690200584.096,-3.418,-30.273,-37.598,-33.203,74.707
1690200584.100,23.438,-29.785,-39.551,-15.137,243.164
1690200584.104,-34.668,-30.762,-38.086,-35.645,-87.891
1690200584.119,-92.773,-31.250,-34.668,-61.523,-158.691
1690200584.123,-85.449,-34.668,-39.551,-64.453,-40.039
1690200584.127,-8.789,-37.598,-38.086,-34.668,-72.266
1690200584.131,38.086,-32.227,-30.762,-1.953,-109.863
1690200584.135,-10.742,-26.367,-30.762,-18.555,-143.066
1690200584.139,-85.938,-31.250,-39.551,-50.781,174.316
1690200584.143,-83.008,-31.250,-41.016,-48.828,323.730
1690200584.146,-9.277,-29.785,-40.039,-21.484,-110.352
1690200584.150,32.715,-31.738,-36.133,-10.742,-135.254
1690200584.154,-7.812,-33.203,-34.668,-35.645,29.297
1690200584.158,-79.102,-34.668,-34.668,-60.547,-103.027
1690200584.162,-92.773,-31.738,-25.391,-66.406,-254.395
1690200584.164,-18.555,-32.715,-26.855,-40.039,-103.516
1690200584.168,41.992,-31.250,-30.762,-7.324,70.312
1690200584.172,3.906,-28.320,-29.785,-16.602,-5.859
1690200584.176,-72.754,-31.738,-34.180,-46.387,-161.133
1690200584.180,-91.797,-30.273,-35.156,-51.758,-189.453
1690200584.184,-32.715,-30.762,-35.156,-33.691,-134.766
1690200584.188,29.297,-28.320,-39.062,-13.672,45.410
1690200584.191,5.859,-24.902,-38.086,-16.113,17.578
1690200584.195,-72.754,-29.785,-38.086,-46.387,10.742
1690200584.199,-109.863,-31.250,-35.156,-66.406,118.652
1690200584.203,-61.523,-28.809,-27.832,-52.246,-141.113
1690200584.207,10.742,-28.320,-27.344,-35.156,-169.434
1690200584.210,5.859,-32.227,-33.691,-32.227,-12.207
1690200584.214,-71.777,-35.156,-33.691,-55.664,-50.781
1690200584.218,-116.699,-30.762,-34.180,-77.637,-156.738
1690200584.222,-64.941,-23.438,-31.250,-53.711,-161.133
1690200584.226,17.578,-26.367,-29.785,-12.695,142.578
1690200584.230,15.625,-29.297,-29.785,-15.137,220.703
1690200584.234,-67.383,-33.203,-25.391,-49.805,-50.293
1690200584.237,-118.652,-33.203,-22.461,-70.801,-151.855
1690200584.241,-71.777,-30.762,-20.020,-43.457,42.969
1690200584.245,6.836,-31.250,-20.996,-13.184,124.512
1690200584.249,18.066,-29.785,-23.438,-17.090,-104.492
1690200584.253,-49.316,-31.738,-23.926,-33.691,-77.148
1690200584.254,-107.422,-34.668,-21.484,-54.199,-89.844
1690200584.258,-60.059,-37.598,-21.484,-36.621,-201.660
1690200584.262,31.250,-32.715,-22.949,4.395,-154.785
1690200584.266,47.852,-26.855,-21.484,7.324,67.871
1690200584.270,-27.832,-37.598,-25.391,-26.367,50.293
1690200584.274,-87.891,-40.527,-27.832,-41.016,-51.758
1690200584.278,-60.059,-39.551,-29.297,-28.809,-58.594
1690200584.281,18.555,-44.922,-34.668,7.812,75.684
1690200584.285,56.152,-40.527,-36.621,32.227,394.043
1690200584.289,1.465,-34.180,-33.203,4.395,130.371
1690200584.293,-73.730,-31.250,-27.344,-29.785,-243.164
1690200584.297,-65.430,-27.832,-27.832,-33.203,-267.578
1690200584.299,6.836,-26.855,-31.738,-8.789,-122.559
1690200584.303,50.293,-27.832,-31.250,2.930,-17.090
1690200584.307,5.371,-30.762,-31.738,-16.113,-118.652
1690200584.311,-80.078,-33.691,-31.250,-40.039,-13.672
1690200584.315,-84.961,-30.273,-28.809,-54.199,-50.781
1690200584.319,-6.836,-29.297,-25.879,-26.367,-145.020
1690200584.323,58.105,-25.879,-21.484,4.395,-7.324
1690200584.326,24.902,-28.320,-20.020,-7.812,326.172
1690200584.330,-66.406,-29.297,-21.973,-32.715,320.801
1690200584.334,-88.379,-23.926,-23.926,-49.316,-206.543
1690200584.338,-23.438,-26.855,-24.414,-27.832,-239.746
1690200584.342,38.574,-29.297,-25.879,-2.441,-42.480
1690200584.344,20.996,-28.320,-30.762,-10.742,-70.312
1690200584.348,-64.453,-31.250,-31.738,-44.434,-200.684
1690200584.352,-95.703,-38.086,-31.250,-58.594,-221.680
1690200584.356,-32.715,-39.551,-35.156,-26.855,-185.059
1690200584.360,35.645,-37.598,-38.574,-2.441,-106.445
1690200584.364,24.902,-37.598,-34.180,-8.301,12.207
1690200584.368,-58.594,-42.969,-29.297,-37.109,153.809
1690200584.371,-96.191,-42.969,-29.297,-50.293,173.828
1690200584.375,-41.016,-33.203,-29.297,-35.645,-90.332
1690200584.379,26.855,-30.273,-24.902,-12.207,-96.680
1690200584.383,28.320,-29.297,-21.973,-1.465,118.652
1690200584.387,-45.410,-34.668,-22.949,-24.414,-10.254
1690200584.389,-96.680,-37.109,-24.902,-52.734,-199.219
1690200584.393,-50.293,-38.086,-24.414,-38.574,-170.410
1690200584.397,25.391,-41.016,-22.949,-10.254,64.941
1690200584.401,26.855,-37.109,-23.926,-4.883,142.578
1690200584.405,-49.805,-37.109,-28.809,-29.785,-126.465
1690200584.409,-108.887,-41.016,-31.738,-60.547,-118.164
1690200584.413,-71.289,-39.551,-30.762,-48.828,217.773
1690200584.416,9.766,-34.668,-27.832,-15.625,247.070
1690200584.420,26.855,-30.762,-27.832,-9.766,-53.711
1690200584.424,-32.715,-31.250,-29.785,-32.715,-96.191
1690200584.428,-90.332,-37.598,-29.785,-58.594,-143.066
1690200584.432,-69.824,-40.039,-30.273,-52.734,-191.406
1690200584.435,1.465,-36.621,-29.785,-21.973,-126.465
1690200584.439,30.273,-36.133,-26.855,0.977,61.523
1690200584.443,-19.531,-31.250,-29.785,-15.625,124.023
1690200584.447,-88.867,-27.344,-31.250,-49.316,-158.203
1690200584.451,-86.914,-30.273,-23.438,-59.570,-287.109
1690200584.455,-12.695,-32.715,-21.973,-24.902,41.016
1690200584.459,38.086,-31.738,-21.484,12.207,276.367
1690200584.462,-4.883,-28.809,-15.625,0.000,-29.785
1690200584.466,-82.031,-30.762,-14.648,-37.109,-240.234
1690200584.470,-79.102,-32.715,-15.625,-43.457,-123.535
1690200584.474,-3.418,-34.180,-18.555,-18.066,31.250
1690200584.478,43.457,-32.715,-25.879,1.465,25.879
1690200584.495,2.930,-33.203,-24.902,-7.812,6.348
1690200584.499,-80.078,-36.133,-24.414,-38.574,110.840
1690200584.503,-91.309,-36.133,-30.273,-47.852,112.793
1690200584.507,-20.508,-40.527,-33.691,-23.926,-94.727
1690200584.511,42.969,-34.668,-32.227,-0.488,-127.441
1690200584.515,17.578,-32.715,-29.785,-2.930,308.594
1690200584.519,-67.871,-40.039,-27.832,-29.297,380.371
1690200584.522,-96.680,-37.109,-28.809,-53.223,-197.266
1690200584.526,-30.273,-37.109,-30.762,-32.715,-238.770
1690200584.530,36.621,-40.039,-30.273,-4.395,28.320
1690200584.534,13.184,-40.039,-32.715,-19.043,-34.668
1690200584.538,-74.707,-46.387,-34.180,-55.176,-254.395
1690200584.539,-108.398,-49.805,-32.715,-67.871,-255.371
1690200584.543,-44.434,-46.387,-32.227,-41.016,-151.855
1690200584.547,23.926,-44.922,-33.203,-9.277,-105.469
1690200584.551,14.648,-41.504,-35.156,-7.812,-123.047
1690200584.555,-60.059,-43.457,-33.691,-35.156,-8.301
1690200584.559,-105.957,-45.410,-33.203,-64.941,69.824
1690200584.563,-59.082,-43.457,-34.180,-53.711,6.836
1690200584.566,18.555,-41.992,-31.738,-15.625,31.738
1690200584.570,22.461,-43.945,-33.691,-18.066,165.039
1690200584.574,-52.734,-44.922,-36.621,-47.852,298.340
1690200584.578,-109.375,-44.434,-36.133,-74.219,-79.590
1690200584.582,-62.988,-41.016,-33.691,-59.570,-278.320
1690200584.584,20.508,-35.156,-33.691,-20.508,23.438
1690200584.588,28.809,-36.133,-29.785,-2.441,123.047
1690200584.592,-31.250,-41.504,-26.367,-14.160,-88.379
1690200584.596,-88.867,-32.227,-34.180,-52.734,-183.594
1690200584.600,-69.824,-22.461,-38.574,-62.012,-103.516
1690200584.604,9.277,-21.973,-41.016,-41.016,52.246
1690200584.608,41.016,-22.461,-45.898,-22.949,83.496
1690200584.611,-20.996,-23.438,-47.852,-36.621,-7.812
1690200584.615,-87.402,-16.602,-46.387,-61.035,139.160
1690200584.619,-75.684,-11.230,-49.316,-63.965,133.301
1690200584.623,4.883,-1.953,-52.734,-38.086,-208.984
1690200584.627,51.270,1.465,-56.152,-13.672,-161.621
1690200584.629,-9.766,-6.348,-57.617,-39.062,-142.578
1690200584.633,-88.379,-14.160,-54.199,-68.359,-304.199
1690200584.637,-78.613,-19.043,-48.340,-61.035,-282.715
1690200584.641,-3.418,-26.855,-44.434,-32.227,-126.465
1690200584.645,42.480,-28.809,-42.969,-15.137,-25.391
1690200584.649,1.465,-21.484,-39.062,-29.297,50.781
1690200584.653,-78.125,-22.461,-43.945,-59.082,43.945
1690200584.656,-84.961,-24.414,-41.504,-64.453,60.547
1690200584.660,-3.418,-17.578,-35.156,-39.062,127.441
1690200584.664,51.758,-14.648,-36.133,-17.578,50.293
1690200584.668,6.836,-20.508,-35.645,-24.902,-7.324
1690200584.672,-79.102,-25.391,-34.668,-49.316,16.602
1690200584.674,-102.539,-24.414,-36.133,-65.430,119.629
1690200584.678,-41.992,-22.949,-34.180,-49.316,-63.965
1690200584.682,25.879,-21.973,-30.762,-15.625,-169.922
1690200584.686,9.277,-23.926,-29.785,-19.531,19.043
1690200584.690,-69.824,-24.902,-28.320,-55.664,-6.348
1690200584.694,-95.703,-22.949,-27.344,-69.824,-189.941
1690200584.698,-30.273,-23.438,-24.414,-41.016,-174.316
1690200584.701,42.480,-23.438,-20.508,3.418,190.918
1690200584.705,31.250,-23.438,-22.461,2.441,253.418
1690200584.709,-42.480,-22.949,-26.855,-32.227,-198.242
1690200584.713,-79.590,-20.020,-26.855,-41.016,-249.512
1690200584.717,-28.320,-18.066,-23.438,-22.949,-167.480
1690200584.722,46.875,-20.996,-24.414,2.441,-28.320
1690200584.726,41.992,-23.438,-29.785,3.418,-21.484
1690200584.730,-35.156,-26.367,-31.738,-20.508,-68.359
1690200584.734,-90.820,-32.227,-34.180,-49.805,0.488
1690200584.738,-51.270,-27.344,-35.156,-41.016,-94.727
1690200584.742,24.414,-24.414,-34.668,-3.906,-46.387
1690200584.746,35.156,-26.367,-36.133,4.395,219.727
1690200584.749,-35.645,-34.180,-36.621,-24.902,326.660
1690200584.753,-94.238,-34.668,-36.621,-57.617,-107.422
1690200584.757,-58.594,-31.738,-35.156,-50.293,-286.133
1690200584.761,15.137,-35.156,-27.832,-17.090,-139.648
1690200584.765,35.645,-34.180,-28.320,-1.953,-68.848
1690200584.764,-30.273,-36.133,-32.227,-32.715,-20.996
1690200584.768,-95.703,-34.668,-29.297,-60.059,-72.754
1690200584.772,-73.730,-30.762,-27.344,-48.340,-86.914
1690200584.776,9.277,-29.297,-24.414,-24.902,6.348
1690200584.780,41.016,-28.320,-26.367,-5.859,-10.742
1690200584.784,-21.973,-33.691,-29.297,-32.227,-55.176
1690200584.788,-87.402,-37.598,-28.809,-62.012,159.180
1690200584.791,-73.730,-34.180,-29.297,-46.875,406.738
1690200584.795,0.488,-28.809,-31.738,-28.320,120.605
1690200584.799,44.434,-27.344,-31.250,-7.812,-87.891
1690200584.803,-3.906,-26.855,-33.691,-14.160,-69.336
1690200584.807,-66.895,-26.855,-36.621,-38.574,-171.387
1690200584.811,-76.172,-37.598,-27.344,-48.828,-242.676
1690200584.815,-27.832,-41.016,-21.484,-40.527,-120.117
1690200584.819,15.137,-35.156,-26.855,-20.508,12.207
1690200584.823,-28.320,-38.086,-34.180,-49.805,-50.293
1690200584.827,-111.328,-40.039,-33.691,-88.867,-192.871
1690200584.831,-121.582,-35.645,-32.227,-93.750,-26.367
1690200584.835,-49.805,-34.668,-33.203,-63.477,187.500
1690200584.838,15.625,-29.297,-31.250,-30.762,49.805
1690200584.842,-11.230,-29.297,-28.320,-37.109,-100.586
1690200584.846,-89.355,-36.621,-22.949,-56.641,-36.621
1690200584.850,-103.027,-34.668,-24.414,-68.848,91.309
1690200584.854,-44.922,-31.738,-29.297,-50.781,-125.977
1690200584.869,12.695,-40.527,-33.691,-28.809,-86.426
1690200584.873,-3.418,-44.922,-38.574,-30.762,83.496
1690200584.877,-75.195,-39.551,-33.203,-51.758,-83.008
1690200584.881,-104.980,-39.551,-27.344,-74.707,-236.328
1690200584.885,-51.758,-38.574,-31.738,-58.105,-226.074
1690200584.889,23.926,-41.016,-30.273,-13.184,249.512
1690200584.893,9.277,-42.480,-25.879,-7.812,511.230
1690200584.896,-69.336,-40.527,-22.949,-39.551,-31.738
1690200584.900,-109.863,-40.039,-20.996,-56.641,-260.742
1690200584.904,-65.430,-36.133,-22.461,-42.969,-67.383
1690200584.908,16.602,-33.203,-24.902,-9.766,2.441
1690200584.912,23.438,-35.156,-27.832,-8.789,-62.012
1690200584.914,-52.734,-38.086,-30.762,-36.621,-68.848
1690200584.918,-104.492,-39.551,-31.738,-55.664,-130.859
1690200584.922,-56.152,-33.203,-31.250,-33.203,-218.750
1690200584.926,30.273,-27.344,-30.762,-0.977,-145.508
1690200584.930,36.133,-30.762,-28.809,9.277,-6.836
1690200584.934,-33.203,-35.156,-27.344,-10.742,22.461
1690200584.938,-89.844,-30.273,-30.273,-45.410,-62.988
1690200584.941,-64.941,-21.973,-26.855,-40.527,-209.961
1690200584.945,20.020,-24.902,-23.438,-7.324,-43.457
1690200584.949,41.016,-28.809,-23.926,12.207,279.785
1690200584.953,-24.414,-28.809,-24.414,-16.113,43.457
1690200584.957,-89.844,-30.273,-23.438,-55.664,-244.141
1690200584.960,-77.148,-29.785,-21.973,-48.828,40.039
1690200584.964,-1.465,-28.320,-24.902,-13.672,268.555
1690200584.968,33.203,-29.785,-26.855,0.000,-36.621
1690200584.972,-20.996,-28.809,-28.320,-22.949,-148.438
1690200584.976,-91.797,-30.273,-33.203,-58.105,-121.094
1690200584.980,-84.473,-33.691,-32.715,-62.500,-154.785
1690200584.984,-8.789,-29.785,-32.715,-40.039,-154.785
1690200584.987,37.109,-26.367,-35.156,-23.438,-65.918
1690200584.991,-5.859,-29.785,-29.297,-27.344,207.031
1690200584.995,-88.867,-28.320,-28.320,-58.594,148.926
1690200584.999,-99.609,-25.391,-26.855,-65.430,-256.836
1690200585.003,-25.879,-28.809,-25.391,-33.691,-225.586
1690200585.004,33.203,-24.414,-26.367,-13.184,0.000
1690200585.008,7.324,-25.391,-26.855,-22.461,25.879
1690200585.012,-70.312,-31.250,-29.785,-50.293,-176.758
1690200585.016,-91.797,-29.785,-25.879,-56.152,-176.758
1690200585.020,-34.180,-29.297,-21.973,-30.762,1.465
1690200585.024,34.668,-28.320,-23.438,-2.930,53.223
1690200585.028,19.043,-25.879,-19.043,-1.953,49.316
1690200585.031,-65.918,-29.297,-19.043,-27.832,15.137
1690200585.035,-96.680,-30.762,-21.973,-26.855,203.613
1690200585.039,-41.992,-26.367,-24.902,-22.461,52.734
1690200585.043,27.344,-28.809,-30.762,-15.625,-173.340
1690200585.047,19.043,-31.250,-28.809,-7.812,-71.777
1690200585.049,-59.082,-30.273,-31.738,-33.691,-29.297
1690200585.053,-85.938,-30.273,-37.109,-41.992,-133.301
1690200585.057,-34.180,-36.621,-26.855,-22.949,-232.422
1690200585.061,19.043,-44.434,-19.043,-14.648,152.832
1690200585.065,7.324,-44.922,-18.555,-27.344,297.363
1690200585.069,-67.871,-44.922,-18.555,-49.805,-62.500
1690200585.073,-126.953,-45.410,-19.531,-75.195,-203.125
1690200585.076,-87.891,-46.875,-15.625,-64.453,46.387
1690200585.080,-7.812,-45.898,-7.812,-29.785,143.066
1690200585.084,-6.836,-43.457,-2.441,-26.855,-126.953
1690200585.088,-76.172,-46.387,1.953,-46.387,-143.066
1690200585.092,-133.789,-49.805,3.418,-74.707,-172.852
1690200585.094,-102.539,-52.246,-0.977,-63.477,-213.867
1690200585.098,-17.090,-53.223,-1.953,-26.367,-155.273
1690200585.102,14.648,-47.363,-1.465,-18.555,-3.906
1690200585.106,-46.387,-42.969,-8.301,-41.504,2.930
1690200585.110,-119.141,-49.316,-13.672,-67.383,-166.016
1690200585.114,-93.262,-47.852,-13.184,-62.988,-132.812
1690200585.118,-6.348,-42.480,-14.648,-28.809,67.383
1690200585.121,26.367,-43.457,-15.625,-13.184,308.105
1690200585.125,-30.273,-42.969,-18.555,-36.621,98.633
1690200585.129,-100.586,-41.992,-22.949,-62.988,-208.008
1690200585.133,-87.402,-49.316,-25.391,-58.594,-105.957
1690200585.137,-12.207,-46.875,-25.391,-39.551,-10.254
1690200585.139,34.180,-38.574,-23.438,-28.320,4.395
1690200585.143,-10.254,-36.133,-22.949,-33.691,-11.230
1690200585.147,-87.402,-32.227,-24.902,-49.316,-11.719
1690200585.151,-96.191,-32.227,-25.879,-54.688,-47.363
1690200585.155,-29.785,-33.203,-26.855,-35.645,-182.129
1690200585.159,30.762,-36.133,-26.367,-11.719,30.273
1690200585.163,-6.348,-41.504,-27.344,-18.555,363.770
1690200585.166,-94.238,-41.504,-33.203,-55.176,193.848
1690200585.170,-104.980,-35.156,-31.738,-71.289,-232.910
1690200585.174,-25.391,-31.250,-25.391,-38.086,-205.078
1690200585.178,35.645,-30.762,-25.391,-10.742,-3.418
1690200585.182,6.348,-32.715,-25.879,-18.066,1.465
1690200585.184,-72.266,-34.668,-23.438,-46.875,-156.738
1690200585.188,-104.492,-38.086,-23.926,-56.152,-214.355
1690200585.192,-38.086,-37.109,-26.367,-29.785,-146.973
1690200585.196,35.156,-38.086,-29.297,-8.789,-30.762
1690200585.200,7.812,-38.574,-33.691,-16.602,-9.766
1690200585.204,-70.312,-36.133,-37.109,-38.574,139.648
1690200585.208,-101.562,-41.992,-38.086,-51.758,255.859
1690200585.211,-46.875,-42.480,-33.691,-35.645,-41.504
1690200585.215,29.785,-34.668,-27.832,-2.441,-175.781
1690200585.219,25.879,-35.156,-29.297,2.441,14.648
1690200585.223,-51.270,-36.621,-31.738,-31.250,89.355
1690200585.227,-99.121,-38.574,-32.715,-56.641,-149.414
1690200585.244,-47.363,-41.016,-33.203,-41.504,-256.348
1690200585.248,30.762,-39.062,-32.227,-10.742,134.766
1690200585.252,29.297,-41.016,-33.691,0.977,325.195
1690200585.256,-41.504,-41.992,-32.715,-33.691,-70.312
1690200585.260,-97.168,-41.992,-32.227,-66.895,-273.438
1690200585.264,-60.059,-41.504,-35.156,-59.082,-80.566
1690200585.268,23.438,-37.598,-37.109,-27.344,66.895
1690200585.271,49.316,-33.203,-41.992,-5.371,-44.922
1690200585.275,-20.020,-35.645,-36.133,-23.438,-163.086
1690200585.279,-97.168,-43.457,-25.879,-60.059,-19.043
1690200585.283,-68.359,-39.551,-29.785,-50.293,-33.203
1690200585.287,19.043,-41.016,-28.320,-6.348,-215.820
1690200585.289,53.223,-41.992,-21.973,21.973,-6.348
1690200585.293,-4.395,-41.016,-21.484,9.277,115.723
1690200585.297,-77.637,-42.480,-18.555,-22.949,-72.266
1690200585.301,-67.383,-38.574,-16.113,-29.785,-217.773
1690200585.305,11.719,-35.645,-20.020,-1.465,-4.395
1690200585.309,51.758,-33.691,-23.438,16.602,323.242
1690200585.313,1.465,-37.109,-22.949,-1.465,137.207
1690200585.316,-73.730,-36.133,-24.414,-31.250,-193.848
1690200585.320,-70.312,-28.320,-21.484,-36.621,-96.680
1690200585.324,8.789,-26.367,-23.438,-6.348,227.051
1690200585.328,59.570,-27.344,-24.414,9.766,93.750
1690200585.332,19.043,-24.902,-22.461,-0.977,-92.773
1690200585.334,-62.012,-24.902,-22.461,-25.879,-6.836
1690200585.338,-75.195,-27.344,-20.996,-37.109,-20.020
1690200585.342,-7.812,-27.344,-27.344,-22.949,-159.180
1690200585.346,41.992,-25.879,-30.273,-2.441,-45.898
1690200585.350,13.672,-21.973,-29.785,-2.930,229.492
1690200585.354,-65.430,-22.461,-33.203,-37.598,171.387
1690200585.358,-105.469,-27.832,-37.109,-65.430,-96.191
1690200585.361,-39.062,-31.250,-33.691,-40.039,-166.016
1690200585.365,37.109,-30.762,-27.344,2.441,170.410
1690200585.369,16.113,-29.785,-27.832,-0.977,220.703
1690200585.373,-62.988,-29.785,-30.273,-39.551,-216.797
1690200585.377,-95.703,-32.715,-33.691,-57.129,-286.621
1690200585.379,-46.875,-31.738,-36.133,-37.598,-199.219
1690200585.383,20.508,-31.250,-35.156,-5.371,-158.203
1690200585.387,11.230,-32.227,-32.227,-4.395,-116.211
1690200585.391,-71.777,-32.227,-28.809,-42.969,-95.215
1690200585.395,-103.027,-36.133,-30.273,-60.547,-88.867
1690200585.399,-41.016,-33.691,-27.832,-35.156,0.000
1690200585.403,28.809,-25.879,-23.926,-11.719,48.828
1690200585.406,28.809,-26.855,-27.344,-5.371,217.285
1690200585.410,-38.574,-30.273,-29.785,-17.578,378.418
1690200585.414,-91.309,-29.297,-27.344,-39.062,-31.250
1690200585.418,-52.246,-24.902,-26.367,-41.016,-314.941
1690200585.422,36.621,-22.461,-22.949,-3.418,-136.719
1690200585.439,43.945,-26.855,-23.926,7.812,34.668
1690200585.443,-25.391,-25.391,-25.879,-30.273,-22.461
1690200585.447,-83.496,-25.391,-27.344,-54.688,-293.457
1690200585.451,-62.500,-29.297,-27.344,-39.062,-142.090
1690200585.455,19.531,-32.227,-24.414,-12.207,50.781
1690200585.459,41.504,-36.621,-32.227,-4.395,53.711
1690200585.463,-30.273,-40.527,-35.156,-29.785,-49.805
1690200585.466,-99.121,-42.480,-36.133,-57.129,40.039
1690200585.470,-81.055,-40.039,-39.062,-52.246,120.605
1690200585.474,-4.395,-35.156,-35.645,-22.461,-159.180
1690200585.478,45.410,-30.273,-33.203,3.418,-85.449
1690200585.482,-2.930,-29.297,-32.227,-17.090,37.109
1690200585.469,-75.195,-27.832,-28.320,-40.527,-122.070
1690200585.473,-65.918,-26.855,-23.438,-41.016,-279.297
1690200585.477,3.906,-29.785,-20.996,-16.113,-193.359
1690200585.481,49.316,-31.250,-18.066,20.020,-52.246
1690200585.485,4.883,-25.879,-23.926,8.301,-59.082
1690200585.489,-82.520,-18.066,-32.715,-42.969,-81.543
1690200585.493,-103.516,-18.555,-37.598,-65.918,-19.043
1690200585.496,-32.227,-18.066,-46.387,-52.734,20.020
1690200585.500,29.297,-8.301,-51.758,-42.480,-32.227
1690200585.504,-5.859,-3.418,-55.664,-44.922,-85.938
1690200585.508,-82.520,-4.395,-60.059,-64.453,5.859
1690200585.512,-97.168,-2.930,-65.918,-71.777,294.434
1690200585.515,-27.832,3.906,-71.777,-58.594,154.297
1690200585.519,41.016,8.301,-70.312,-37.109,-24.902
1690200585.523,18.555,5.371,-75.195,-34.180,138.184
1690200585.527,-59.082,8.301,-80.566,-68.359,13.672
1690200585.531,-85.449,7.324,-78.613,-85.449,-279.297
1690200585.535,-25.391,2.441,-75.195,-62.500,-174.316
1690200585.539,40.527,-1.465,-64.453,-23.926,269.043
1690200585.542,24.414,-7.812,-59.570,-26.855,325.195
1690200585.546,-49.805,-5.371,-61.523,-62.500,-180.664
1690200585.550,-83.496,-6.836,-59.570,-82.520,-297.363
1690200585.554,-38.086,-12.695,-55.664,-55.176,-216.309
1690200585.558,33.203,-14.160,-55.176,-14.160,-132.812
1690200585.560,35.645,-14.648,-55.176,-22.461,-154.785
1690200585.564,-43.945,-14.160,-48.828,-49.805,-65.430
1690200585.568,-92.285,-15.137,-44.922,-65.918,-2.441
1690200585.572,-44.434,-15.137,-45.410,-49.316,-163.086
1690200585.576,35.645,-15.625,-41.992,-13.672,-128.418
1690200585.580,32.715,-18.555,-40.527,-4.395,142.578
1690200585.584,-47.852,-25.391,-44.922,-31.250,310.547
1690200585.587,-95.215,-25.391,-43.457,-50.781,11.719
1690200585.591,-62.500,-22.461,-38.574,-42.480,-236.328
1690200585.595,18.555,-24.902,-37.598,-6.836,-36.621
1690200585.599,43.457,-25.391,-36.133,8.301,118.164
1690200585.603,-19.043,-20.996,-35.156,-22.949,-80.566
1690200585.619,-77.637,-22.949,-35.156,-46.875,-213.867
1690200585.623,-54.688,-29.785,-35.156,-34.668,-5.371
1690200585.627,18.066,-26.855,-37.109,-4.883,120.117
1690200585.631,53.223,-23.438,-35.156,-0.488,-16.602
1690200585.635,-2.930,-22.461,-29.785,-25.879,-50.781
1690200585.639,-81.543,-23.438,-26.855,-50.781,226.074
1690200585.643,-77.148,-28.809,-26.367,-47.852,283.203
1690200585.646,0.977,-28.320,-22.461,-29.297,-109.375
1690200585.650,44.922,-26.367,-24.414,-13.184,-134.277
1690200585.654,-3.418,-22.461,-28.320,-14.160,-42.969
1690200585.658,-74.219,-20.020,-31.738,-36.621,-203.613
1690200585.662,-78.125,-23.438,-32.227,-53.223,-315.918
1690200585.666,-7.812,-24.414,-32.715,-29.297,-162.109
1690200585.670,50.781,-27.344,-32.715,-2.441,-22.461
1690200585.674,4.395,-27.344,-32.715,-28.320,-71.289
1690200585.678,-88.379,-26.367,-33.691,-65.430,-215.332
1690200585.682,-93.750,-28.809,-36.621,-55.664,-133.301
1690200585.686,-16.113,-30.273,-40.039,-31.738,47.852
1690200585.690,42.480,-28.320,-39.062,-19.043,92.773
1690200585.693,5.371,-25.391,-40.527,-19.531,50.293
1690200585.697,-77.148,-27.832,-42.969,-49.316,3.906
1690200585.701,-95.703,-32.227,-41.016,-62.988,185.059
1690200585.705,-30.762,-33.203,-37.598,-43.945,20.508
1690200585.709,37.598,-31.250,-27.832,-15.625,-161.621
1690200585.709,13.184,-32.227,-24.902,-10.254,97.168
1690200585.713,-71.289,-35.645,-31.250,-35.156,66.406
1690200585.717,-96.680,-34.668,-29.785,-52.246,-237.305
1690200585.721,-37.109,-34.180,-28.809,-45.898,-233.398
1690200585.725,29.785,-33.691,-31.250,-17.090,-30.762
1690200585.729,20.508,-31.738,-29.785,-9.277,113.281
1690200585.733,-54.688,-31.738,-29.785,-36.621,104.492
1690200585.736,-93.262,-33.203,-32.227,-54.688,-110.840
1690200585.740,-44.434,-32.715,-29.297,-37.598,68.359
1690200585.744,21.973,-33.203,-25.391,-12.207,522.949
1690200585.748,20.996,-27.344,-30.762,-14.160,193.359
1690200585.752,-49.805,-29.785,-38.574,-40.039,-107.422
1690200585.754,-95.215,-29.785,-34.668,-55.664,-140.137
1690200585.758,-56.152,-32.715,-30.762,-43.457,-223.633
1690200585.762,24.902,-36.133,-29.297,-10.742,-188.477
1690200585.766,47.363,-31.738,-24.902,2.930,-10.254
1690200585.770,-26.367,-34.668,-27.832,-22.461,-26.367
1690200585.774,-92.773,-37.109,-30.273,-45.410,-128.418
1690200585.778,-64.453,-34.180,-25.879,-45.898,-130.371
1690200585.781,6.836,-31.738,-25.879,-18.066,56.641
1690200585.785,31.738,-30.762,-25.879,-4.883,305.176
1690200585.789,-25.391,-30.273,-28.809,-37.598,0.000
1690200585.793,-90.820,-29.785,-30.273,-59.082,-257.324
1690200585.797,-77.637,-25.879,-25.391,-48.340,-127.930
1690200585.799,3.906,-26.367,-32.227,-23.438,17.578
1690200585.803,41.992,-27.832,-37.109,-0.488,-17.578
1690200585.807,-13.672,-25.879,-29.785,-18.555,-152.832
1690200585.811,-81.543,-30.273,-23.438,-44.922,25.879
1690200585.815,-82.520,-33.691,-23.926,-52.246,108.398
1690200585.819,-13.672,-32.715,-24.902,-32.227,-9.766
1690200585.823,39.062,-30.273,-23.926,-5.859,-0.977
1690200585.826,-8.301,-29.297,-28.320,-13.672,166.504
1690200585.830,-87.891,-24.414,-29.785,-43.945,143.066
1690200585.834,-95.703,-20.020,-28.320,-53.711,-275.391
1690200585.838,-18.555,-24.414,-29.785,-28.809,-255.371
1690200585.842,56.152,-22.461,-29.785,-0.977,-2.441
1690200585.845,12.207,-26.855,-22.949,-13.672,-26.367
1690200585.849,-88.867,-33.691,-15.137,-58.594,-155.762
1690200585.853,-98.145,-32.715,-11.230,-62.988,-70.312
1690200585.857,-26.855,-27.344,-7.812,-31.738,-5.371
1690200585.861,30.273,-24.414,-9.766,-6.836,-56.641
1690200585.865,6.348,-30.273,-17.578,-15.625,15.137
1690200585.869,-70.312,-34.180,-23.438,-44.434,152.832
1690200585.872,-96.680,-30.273,-27.832,-51.270,170.898
1690200585.876,-34.180,-25.391,-27.832,-30.273,-73.730
1690200585.880,35.156,-28.320,-28.320,-6.348,-101.074
1690200585.884,26.367,-30.762,-29.297,-1.953,-9.277
1690200585.888,-52.734,-30.273,-28.320,-26.855,-139.160
1690200585.904,-90.332,-25.879,-24.414,-39.062,-203.125
1690200585.908,-33.203,-28.320,-23.438,-22.461,-145.508
1690200585.912,34.180,-35.645,-24.902,1.953,75.684
1690200585.916,26.855,-36.133,-26.367,2.441,104.004
1690200585.920,-45.898,-39.062,-27.832,-33.691,-89.844
1690200585.924,-95.703,-37.598,-26.367,-56.152,-148.926
1690200585.928,-59.082,-41.504,-27.832,-38.086,124.512
1690200585.931,15.137,-45.898,-29.785,-2.930,324.219
1690200585.935,22.461,-42.969,-30.762,4.395,-60.547
1690200585.939,-49.805,-43.457,-32.227,-31.738,-214.355
1690200585.943,-103.516,-41.992,-31.250,-66.406,-234.863
1690200585.947,-67.383,-41.016,-31.250,-51.758,-245.605
1690200585.934,9.277,-46.875,-34.180,-20.020,-146.973
1690200585.938,32.227,-45.410,-32.715,-6.836,-10.742
1690200585.942,-32.227,-36.621,-28.809,-28.809,-23.438
1690200585.946,-103.516,-35.156,-30.762,-53.223,-164.551
1690200585.950,-82.031,-40.527,-34.668,-50.781,-208.008
1690200585.954,-2.441,-45.410,-32.715,-27.344,5.859
1690200585.958,35.156,-40.527,-27.832,-2.441,199.707
1690200585.961,-20.508,-37.109,-25.391,-17.090,51.758
1690200585.965,-96.191,-41.504,-30.273,-57.129,-146.484
1690200585.969,-83.496,-43.945,-30.762,-54.199,-73.242
1690200585.973,-7.812,-44.922,-25.391,-19.531,317.871
1690200585.977,33.203,-41.016,-29.785,-4.883,200.195
1690200585.994,-13.672,-35.645,-32.227,-21.973,-50.293
1690200585.998,-92.285,-35.156,-32.227,-53.223,110.840
1690200586.002,-93.750,-33.203,-29.785,-57.617,38.086
1690200586.006,-19.531,-31.738,-26.367,-34.668,-145.020
1690200586.010,39.062,-32.715,-26.855,-8.789,-45.898
1690200586.014,5.371,-33.203,-23.926,-21.484,77.637
1690200586.018,-78.125,-32.227,-20.508,-51.270,-5.859
1690200586.021,-94.238,-29.297,-22.461,-60.547,-173.828
1690200586.025,-24.414,-29.297,-27.832,-42.969,-183.594
1690200586.029,31.250,-31.250,-31.250,-6.348,205.566
1690200586.033,-7.324,-33.691,-33.203,-16.113,335.938
1690200586.037,-74.707,-26.367,-37.598,-50.781,-109.863
1690200586.039,-78.613,-20.996,-36.133,-44.922,-243.164
1690200586.043,-22.949,-33.691,-25.391,-29.297,-156.250
1690200586.047,23.438,-43.457,-19.043,-19.531,-89.844
1690200586.051,-5.371,-40.527,-20.996,-29.297,-77.148
1690200586.055,-86.426,-42.969,-26.367,-60.547,-68.848
1690200586.059,-121.094,-49.805,-26.367,-76.172,5.371
1690200586.063,-59.570,-48.828,-24.414,-57.129,-34.180
1690200586.066,20.020,-39.551,-26.367,-30.273,-83.496
1690200586.070,6.836,-33.203,-26.855,-23.438,112.305
1690200586.074,-75.195,-34.668,-30.762,-42.480,224.609
1690200586.078,-107.910,-38.086,-27.344,-63.477,-87.891
1690200586.082,-55.176,-41.992,-20.020,-52.246,-238.281
1690200586.084,22.461,-42.480,-24.414,-18.555,85.449
1690200586.088,30.273,-41.992,-28.320,-9.766,215.820
1690200586.092,-41.016,-40.039,-28.809,-37.109,-70.312
1690200586.096,-91.797,-36.133,-27.344,-55.176,-250.000
1690200586.100,-52.734,-34.668,-26.367,-35.645,-75.684
1690200586.104,23.926,-33.691,-21.973,-0.977,187.988
1690200586.108,35.156,-32.715,-18.555,9.766,76.172
1690200586.111,-32.227,-32.715,-20.020,-20.020,-117.676
1690200586.115,-94.238,-38.086,-20.996,-41.992,24.414
1690200586.119,-73.730,-40.527,-23.438,-39.062,19.043
1690200586.123,4.883,-36.621,-27.832,-24.414,-234.863
1690200586.127,33.203,-35.156,-30.762,-6.348,-161.621
1690200586.130,-30.273,-39.551,-36.133,-28.320,-106.934
1690200586.134,-97.656,-43.945,-40.527,-65.918,-220.703
1690200586.138,-79.590,-43.945,-39.551,-63.965,-242.188
1690200586.142,4.395,-39.551,-36.621,-25.391,-19.043
1690200586.146,41.992,-34.668,-34.180,-5.371,152.344
1690200586.150,-13.184,-32.715,-30.273,-27.344,83.008
1690200586.154,-85.449,-30.762,-29.297,-52.734,-61.523
1690200586.157,-84.961,-30.273,-27.832,-45.898,-28.320
1690200586.161,-6.836,-31.250,-26.367,-15.137,203.125
1690200586.165,45.898,-26.367,-29.785,4.395,90.332
1690200586.169,2.441,-24.414,-28.809,-14.160,-93.750
1690200586.173,-75.684,-26.855,-26.367,-47.363,-119.629
1690200586.174,-87.891,-28.320,-29.785,-51.270,-148.926
1690200586.178,-20.508,-30.762,-31.250,-31.250,-126.953
1690200586.182,35.156,-32.227,-31.250,-10.742,-140.137
1690200586.186,3.906,-31.738,-36.133,-14.160,41.504
1690200586.190,-78.613,-30.273,-36.133,-44.922,74.707
1690200586.194,-108.398,-28.320,-28.809,-55.664,-99.609
1690200586.198,-36.621,-28.809,-22.949,-34.668,-77.637
1690200586.201,32.715,-27.832,-21.484,4.883,261.719
1690200586.205,13.184,-25.391,-18.555,6.348,325.684
1690200586.209,-62.500,-24.414,-19.531,-31.250,-173.828
1690200586.213,-97.168,-28.320,-28.809,-50.781,-303.223
1690200586.217,-39.062,-29.297,-29.785,-28.320,-175.781
1690200586.219,32.227,-27.832,-23.926,0.000,-121.094
1690200586.223,18.555,-28.809,-24.902,-7.812,-130.859
1690200586.227,-56.152,-30.762,-32.227,-38.574,-122.070
1690200586.231,-96.191,-27.832,-34.180,-62.988,-122.559
1690200586.235,-53.223,-27.344,-34.180,-45.898,-151.367
1690200586.239,22.461,-27.832,-32.227,-13.672,-45.898
1690200586.243,21.973,-27.344,-27.344,-3.906,143.066
1690200586.246,-59.082,-28.320,-28.320,-26.367,413.086
1690200586.250,-111.816,-26.855,-32.227,-52.734,133.301
1690200586.254,-71.289,-29.785,-31.738,-38.086,-245.605
1690200586.258,19.043,-28.809,-29.785,0.977,-52.246
1690200586.262,37.598,-29.297,-31.738,10.254,38.086
1690200586.264,-40.039,-34.668,-32.715,-22.949,0.977
1690200586.268,-105.957,-37.598,-29.297,-61.523,-145.996
1690200586.272,-78.125,-36.133,-31.250,-58.594,-67.383
1690200586.276,2.930,-30.762,-34.180,-24.902,71.777
1690200586.280,29.297,-30.762,-31.250,-7.812,-64.453
1690200586.284,-34.180,-35.156,-32.715,-35.645,-35.645
1690200586.288,-103.027,-39.062,-36.133,-60.547,153.320
1690200586.291,-87.402,-39.062,-34.180,-62.988,106.934
1690200586.295,-7.812,-34.180,-30.273,-41.504,-145.020
1690200586.299,36.621,-33.691,-27.832,-13.672,12.207
1690200586.303,-19.043,-32.227,-25.879,-30.273,94.238
1690200586.307,-94.727,-31.738,-29.297,-62.988,-145.508
1690200586.309,-87.402,-31.738,-32.715,-62.500,-241.699
1690200586.313,-7.812,-33.203,-31.738,-34.668,-61.523
1690200586.317,37.598,-29.297,-31.738,-15.137,42.480
1690200586.321,-9.766,-28.809,-31.738,-26.855,-55.176
1690200586.325,-83.008,-31.250,-29.297,-45.898,-140.137
1690200586.329,-89.844,-32.715,-36.133,-60.547,-41.016
1690200586.333,-15.625,-31.738,-33.691,-39.551,111.328
1690200586.336,38.086,-29.785,-26.855,-9.277,1.465
1690200586.340,0.000,-32.227,-37.109,-17.578,-126.953
1690200586.344,-74.707,-38.086,-41.016,-44.434,-7.812
1690200586.348,-87.891,-37.598,-37.109,-54.688,24.414
1690200586.352,-20.996,-30.273,-35.156,-37.109,-173.828
1690200586.355,32.715,-35.156,-37.109,-19.043,-66.406
1690200586.359,10.254,-34.668,-37.598,-18.066,231.445
1690200586.363,-73.242,-31.738,-36.621,-37.109,228.516
1690200586.367,-105.469,-33.203,-42.480,-62.988,-169.922
1690200586.371,-30.273,-27.832,-39.062,-45.898,-240.723
1690200586.375,39.062,-29.297,-32.227,-16.113,1.465
1690200586.379,21.484,-33.691,-33.691,-14.648,74.219
1690200586.382,-55.664,-31.738,-33.691,-40.527,-121.582
1690200586.386,-100.586,-35.645,-35.156,-62.988,-291.504
1690200586.390,-49.316,-35.156,-36.133,-47.852,-20.996
1690200586.394,20.020,-27.344,-34.668,-25.879,83.008
1690200586.398,13.672,-29.297,-37.109,-20.020,-112.793
1690200586.414,-59.570,-36.621,-38.086,-34.668,-130.371
1690200586.418,-109.375,-34.180,-39.551,-63.965,-149.414
1690200586.422,-58.594,-34.668,-41.992,-54.199,-125.000
1690200586.426,28.320,-33.691,-38.086,-10.254,-74.219
1690200586.430,26.855,-30.273,-35.645,-4.395,103.516
1690200586.434,-47.852,-32.715,-31.738,-30.273,249.512
1690200586.438,-101.074,-32.227,-27.344,-54.199,34.180
1690200586.441,-68.359,-33.203,-33.203,-63.477,-136.719
1690200586.445,9.766,-32.715,-39.551,-32.715,3.906
1690200586.449,24.902,-34.668,-36.133,-3.906,221.191
1690200586.453,-42.969,-35.645,-34.668,-31.250,-30.762
1690200586.457,-107.422,-34.668,-35.156,-70.312,-292.480
1690200586.459,-79.102,-31.738,-30.762,-51.270,-144.043
1690200586.463,2.441,-31.738,-27.832,-21.484,-38.086
1690200586.467,28.320,-33.691,-32.715,-18.066,-94.727
1690200586.471,-24.414,-31.738,-30.273,-26.367,-72.754
1690200586.475,-96.191,-32.227,-26.855,-51.270,-17.090
1690200586.479,-86.426,-33.691,-30.762,-60.547,-63.965
1690200586.483,-10.742,-36.133,-29.297,-34.180,-40.527
1690200586.486,25.879,-37.598,-31.250,-9.766,25.879
1690200586.490,-21.973,-34.180,-29.297,-14.648,190.430
1690200586.494,-97.168,-28.809,-25.391,-37.598,250.977
1690200586.498,-93.750,-24.414,-26.855,-46.387,-193.848
1690200586.502,-13.184,-26.367,-28.320,-24.414,-204.590
1690200586.504,41.504,-33.691,-25.879,-3.906,0.488
1690200586.508,4.395,-34.180,-23.926,-16.113,-56.152
1690200586.512,-77.637,-35.156,-29.785,-56.641,-199.219
1690200586.516,-93.262,-39.062,-33.691,-62.500,-140.625
1690200586.520,-26.855,-38.574,-33.203,-25.879,-10.742
1690200586.524,25.879,-37.109,-30.273,-5.371,70.312
1690200586.528,1.953,-34.668,-27.832,-12.207,94.727
1690200586.531,-66.895,-35.156,-26.367,-33.203,100.098
1690200586.535,-92.773,-40.527,-26.855,-41.504,297.852
1690200586.539,-30.273,-38.574,-25.879,-26.367,67.383
1690200586.543,56.641,-28.320,-29.785,9.766,-179.199
1690200586.547,55.664,-25.391,-29.785,24.902,-93.262
1690200586.549,-56.641,-35.156,-16.602,-27.344,-112.305
1690200586.553,-126.465,-40.039,-17.090,-77.637,-206.055
1690200586.557,-70.312,-35.156,-26.367,-62.012,-246.582
1690200586.561,-10.254,-36.133,-23.926,-35.645,39.062
1690200586.565,-31.250,-40.527,-23.926,-42.480,157.715
1690200586.569,-112.793,-41.504,-21.484,-84.961,-18.066
1690200586.573,-181.152,-47.363,-20.020,-132.812,-103.027
1690200586.576,-142.090,-52.246,-22.461,-123.047,164.062
1690200586.580,-73.730,-49.316,-20.996,-101.074,254.395
1690200586.584,-83.984,-47.363,-20.020,-107.910,-100.586
1690200586.588,-152.832,-51.270,-20.020,-128.418,-78.613
1690200586.592,-208.008,-52.246,-27.344,-156.250,-32.227
1690200586.609,-172.852,-47.852,-26.855,-147.949,-175.293
1690200586.613,-88.379,-45.898,-21.484,-120.117,-199.707
1690200586.617,-71.289,-57.129,-23.926,-108.398,-56.641
1690200586.621,-123.047,-58.105,-22.461,-106.445,-39.062
1690200586.625,-160.645,-50.781,-16.113,-113.281,-175.781
1690200586.629,-125.000,-51.758,-17.090,-101.074,-180.176
1690200586.633,-39.551,-54.199,-20.020,-66.406,88.867
1690200586.636,-2.930,-55.664,-22.461,-48.828,303.223
1690200586.640,-61.523,-50.781,-22.949,-61.035,37.109
1690200586.644,-126.465,-47.852,-21.973,-80.566,-207.520
1690200586.648,-100.586,-45.410,-27.344,-74.707,-170.898
1690200586.652,-12.695,-41.016,-29.785,-42.480,-114.746
1690200586.640,30.762,-37.109,-27.344,-17.578,3.418
1690200586.644,-21.973,-34.668,-32.227,-28.320,55.664
1690200586.648,-85.938,-31.738,-34.668,-43.457,154.297
1690200586.652,-78.613,-28.320,-33.203,-36.621,191.406
1690200586.656,0.977,-27.344,-36.133,-13.672,-109.863
1690200586.660,55.176,-33.203,-35.645,7.812,-41.016
1690200586.664,7.324,-32.715,-30.273,-5.859,122.070
1690200586.667,-74.707,-29.297,-31.250,-39.551,-84.961
1690200586.671,-85.938,-38.574,-34.180,-50.781,-270.996
1690200586.675,-12.207,-43.457,-32.227,-19.531,-158.691
1690200586.679,51.270,-39.062,-29.297,18.555,240.234
1690200586.683,17.578,-37.598,-29.785,1.953,247.559
1690200586.684,-61.035,-32.715,-30.762,-35.645,-214.355
1690200586.688,-87.402,-35.156,-36.133,-48.828,-280.273
1690200586.692,-20.996,-39.062,-37.598,-34.668,-170.898
1690200586.696,50.293,-33.691,-34.180,-8.301,-31.738
1690200586.700,28.320,-27.832,-32.715,-3.418,-25.879
1690200586.704,-53.223,-30.762,-32.227,-22.461,10.742
1690200586.708,-86.426,-33.203,-32.227,-37.598,321.777
1690200586.711,-27.344,-30.762,-32.715,-24.414,117.188
1690200586.715,37.109,-28.809,-30.273,-3.418,-163.574
1690200586.719,27.832,-23.926,-30.762,4.883,-24.414
1690200586.723,-36.133,-22.949,-33.203,-21.973,-79.590
1690200586.727,-77.148,-33.203,-32.715,-39.062,-283.203
1690200586.745,-43.945,-44.434,-30.273,-32.715,-186.523
1690200586.749,15.137,-47.852,-25.879,-15.625,195.801
1690200586.753,11.719,-43.945,-28.809,-9.277,189.453
1690200586.757,-61.035,-37.109,-32.715,-38.574,-169.922
1690200586.761,-102.539,-34.180,-35.156,-52.734,-246.582
1690200586.765,-61.523,-37.109,-36.621,-44.434,-101.562
1690200586.769,13.184,-38.574,-35.156,-15.625,-9.277
1690200586.772,30.273,-32.715,-32.715,-1.465,69.336
1690200586.776,-41.992,-30.273,-28.809,-24.902,-67.383
1690200586.780,-100.586,-36.133,-26.855,-41.992,76.660
1690200586.784,-69.824,-41.504,-30.273,-37.598,187.988
1690200586.788,8.301,-41.992,-30.762,-20.020,-97.656
1690200586.804,31.250,-37.109,-26.855,-2.930,-18.066
1690200586.808,-27.832,-34.668,-27.344,-26.855,-24.414
1690200586.812,-92.285,-39.062,-27.344,-62.012,-182.617
1690200586.816,-77.148,-37.109,-28.320,-56.152,-274.902
