timestamps,TP9,AF7,AF8,TP10,Right AUX
1690121966.433,-39.062,-58.594,-43.945,65.430,-34.668
1690121966.437,-33.691,-45.410,-42.969,139.648,118.652
1690121966.441,-7.324,-51.758,-36.133,-65.430,-67.383
1690121966.445,-95.215,-55.664,-36.133,-244.629,-160.645
1690121966.449,-47.363,-45.898,-40.527,-179.199,-175.293
1690121966.453,-0.977,-42.480,-36.133,57.129,-65.430
1690121966.457,-18.555,-59.570,-44.922,174.316,190.430
1690121966.460,-0.488,-79.102,-46.875,-11.230,284.668
1690121966.464,-86.914,-72.266,-62.988,-235.352,93.262
1690121966.468,-72.754,-51.758,-83.496,-224.121,-364.258
1690121966.472,-21.973,-55.664,-60.547,5.859,-248.047
1690121966.476,-36.621,-67.871,-46.875,159.180,127.441
1690121966.479,-14.160,-72.266,-53.223,-12.207,48.340
1690121966.483,-90.820,-65.430,-45.410,-228.516,-230.469
1690121966.487,-73.730,-56.641,-37.598,-203.613,-239.746
1690121966.491,-24.414,-44.434,-38.086,-3.418,52.734
1690121966.495,-54.199,-37.109,-48.340,166.016,225.586
1690121966.499,0.977,-47.363,-56.152,44.434,80.078
1690121966.503,-52.734,-58.105,-48.828,-188.477,-16.113
1690121966.506,-77.637,-56.152,-44.434,-210.938,41.504
1690121966.510,-43.945,-43.945,-59.082,-52.734,-29.297
1690121966.514,-54.199,-33.203,-51.758,150.391,23.926
1690121966.518,11.719,-49.805,-38.086,83.984,148.926
1690121966.522,-47.363,-66.406,-45.410,-186.523,19.043
1690121966.523,-100.586,-59.570,-63.477,-267.578,-348.145
1690121966.527,-32.715,-60.547,-58.594,-79.590,-348.145
1690121966.531,-49.316,-66.406,-49.805,142.578,22.949
1690121966.535,-10.254,-63.477,-55.664,89.844,111.816
1690121966.539,-47.852,-53.711,-56.152,-160.645,-154.297
1690121966.543,-110.352,-49.316,-50.781,-254.395,-272.461
1690121966.547,-50.293,-58.594,-43.457,-102.539,125.488
1690121966.550,-69.824,-59.082,-47.363,112.305,404.297
1690121966.554,-28.809,-48.828,-55.664,92.285,187.500
1690121966.558,-34.668,-56.152,-54.688,-146.484,-113.281
1690121966.562,-119.141,-63.965,-60.059,-268.066,-243.164
1690121966.566,-55.176,-54.199,-56.152,-139.648,-183.105
1690121966.569,-42.480,-42.969,-41.992,95.215,-53.223
1690121966.573,-32.715,-60.059,-37.598,134.766,116.211
1690121966.577,-35.156,-63.965,-47.363,-97.656,94.727
1690121966.581,-118.164,-42.480,-49.316,-277.344,-251.953
1690121966.585,-66.406,-36.621,-36.621,-153.809,-384.277
1690121966.589,-36.133,-46.875,-29.297,109.863,89.844
1690121966.593,-25.391,-54.199,-40.039,151.855,488.770
1690121966.596,-24.902,-50.781,-56.641,-77.637,105.957
1690121966.600,-112.793,-40.527,-51.758,-262.695,-384.277
1690121966.604,-51.758,-43.945,-41.016,-171.875,-295.898
1690121966.608,-20.020,-51.758,-37.598,67.871,99.121
1690121966.612,-41.016,-41.992,-42.480,162.598,248.535
1690121966.616,-16.113,-39.062,-48.828,-38.574,0.000
1690121966.620,-84.961,-43.457,-33.691,-228.027,-176.270
1690121966.624,-61.035,-44.922,-37.109,-199.707,-218.750
1690121966.628,-41.016,-47.852,-53.223,2.441,-120.605
1690121966.632,-58.594,-54.199,-46.387,150.391,98.145
1690121966.636,-6.348,-64.941,-37.598,-0.977,295.898
1690121966.640,-83.008,-57.617,-42.969,-219.727,87.891
1690121966.643,-88.867,-42.969,-57.129,-227.539,-314.941
1690121966.647,-39.062,-49.805,-54.199,-24.902,-258.301
1690121966.651,-48.828,-55.664,-46.875,162.109,231.934
1690121966.655,-10.254,-51.270,-63.477,18.066,271.484
1690121966.659,-83.496,-58.105,-73.242,-231.934,-214.355
1690121966.673,-79.102,-65.430,-53.711,-232.422,-334.473
1690121966.677,-11.230,-57.129,-41.992,-30.273,-12.207
1690121966.681,-35.156,-39.551,-38.574,172.852,286.133
1690121966.685,12.695,-34.668,-41.504,65.430,127.930
1690121966.689,-47.852,-52.734,-40.527,-190.918,-178.223
1690121966.693,-94.238,-68.848,-24.902,-214.844,94.727
1690121966.697,-49.316,-54.688,-39.062,-60.059,324.219
1690121966.700,-77.148,-39.062,-59.570,106.934,77.637
1690121966.704,-18.555,-47.852,-50.293,73.730,64.941
1690121966.708,-42.969,-57.129,-51.758,-161.133,-29.297
1690121966.712,-109.375,-53.223,-63.965,-263.184,-376.953
1690121966.716,-62.500,-55.664,-60.547,-116.699,-344.727
1690121966.718,-54.688,-60.547,-47.852,127.441,22.461
1690121966.722,-1.465,-53.223,-41.016,111.328,147.949
1690121966.726,-27.344,-49.316,-41.504,-154.297,-129.395
1690121966.730,-99.121,-42.480,-38.574,-260.254,-342.285
1690121966.734,-45.410,-45.410,-35.645,-120.117,-147.461
1690121966.738,-51.270,-45.898,-34.180,107.910,187.988
1690121966.742,-23.926,-43.945,-45.410,126.465,185.547
1690121966.745,-31.738,-57.129,-62.012,-124.512,-159.180
1690121966.749,-99.609,-64.941,-52.734,-250.000,-154.297
1690121966.753,-44.922,-57.129,-61.523,-152.344,20.020
1690121966.757,-57.129,-45.898,-62.500,52.734,-42.969
1690121966.761,-38.086,-40.039,-31.738,143.555,67.383
1690121966.763,-16.113,-41.504,-36.621,-82.031,-4.883
1690121966.767,-102.539,-51.270,-49.316,-260.254,-156.250
1690121966.771,-57.129,-57.617,-53.223,-171.387,-235.840
1690121966.775,-40.527,-62.500,-53.711,54.688,-33.691
1690121966.779,-53.223,-60.059,-47.852,155.762,362.793
1690121966.783,-25.391,-49.805,-51.270,-49.316,195.312
1690121966.787,-93.750,-55.176,-53.711,-246.582,-231.934
1690121966.790,-46.875,-53.223,-46.875,-188.477,-231.934
1690121966.794,-19.531,-47.852,-37.109,47.852,303.711
1690121966.798,-67.871,-46.387,-56.641,141.113,411.621
1690121966.802,-30.762,-43.457,-66.895,-50.293,-8.789
1690121966.806,-84.473,-50.293,-64.941,-241.211,-162.109
1690121966.810,-77.637,-62.988,-66.406,-227.051,-259.766
1690121966.814,-47.363,-65.918,-58.594,-25.391,-200.195
1690121966.818,-62.988,-59.570,-53.711,150.879,15.625
1690121966.822,-27.344,-58.105,-55.176,10.254,26.855
1690121966.826,-77.148,-51.270,-52.246,-225.586,-233.887
1690121966.830,-77.637,-53.223,-48.340,-223.145,-301.758
1690121966.834,-43.457,-48.828,-50.781,-29.297,-84.473
1690121966.837,-51.270,-56.641,-35.156,173.828,328.613
1690121966.841,-15.625,-57.129,-38.574,54.688,438.965
1690121966.845,-64.453,-41.504,-67.383,-217.773,-83.496
1690121966.849,-84.473,-52.246,-60.547,-242.188,-361.328
1690121966.853,-53.223,-56.152,-54.688,-64.453,-146.484
1690121966.853,-62.988,-43.457,-53.711,144.531,99.121
1690121966.857,-20.996,-41.016,-43.945,85.938,107.910
1690121966.861,-50.781,-56.152,-48.340,-167.969,-68.359
1690121966.865,-86.426,-65.430,-53.223,-248.047,-256.348
1690121966.869,-48.828,-64.941,-59.082,-108.887,-252.930
1690121966.873,-65.430,-59.570,-44.922,122.559,-24.902
1690121966.877,-20.020,-60.059,-38.086,114.258,171.387
1690121966.880,-21.484,-69.336,-35.645,-118.652,296.387
1690121966.884,-87.891,-56.641,-48.340,-246.094,36.133
1690121966.888,-44.434,-45.898,-59.082,-132.324,-314.941
1690121966.892,-58.594,-57.129,-52.246,99.121,-40.527
1690121966.896,-30.273,-62.012,-52.246,105.957,196.289
1690121966.899,-12.695,-51.270,-50.781,-138.672,-80.566
1690121966.903,-92.773,-49.805,-65.918,-266.113,-379.883
1690121966.907,-43.457,-62.012,-63.477,-137.207,-206.543
1690121966.911,-51.758,-52.246,-41.016,76.172,73.242
1690121966.915,-55.176,-50.293,-38.086,123.047,144.043
1690121966.919,-30.762,-73.730,-49.805,-98.145,-9.766
1690121966.923,-98.145,-76.172,-48.340,-253.418,-25.879
1690121966.926,-67.383,-64.453,-49.805,-169.922,24.414
1690121966.930,-74.219,-59.570,-63.477,33.691,-90.820
1690121966.934,-69.824,-61.035,-63.477,131.836,37.109
1690121966.938,-35.156,-68.848,-62.500,-72.266,-30.273
1690121966.942,-91.797,-60.547,-56.152,-257.324,-266.113
1690121966.944,-59.082,-56.152,-50.781,-197.266,-350.098
1690121966.948,-28.320,-58.105,-41.016,31.738,-89.844
1690121966.952,-36.621,-54.688,-44.434,170.898,339.355
1690121966.956,-25.391,-60.547,-65.430,-27.344,125.977
1690121966.960,-80.566,-59.082,-58.105,-245.605,-343.262
1690121966.964,-51.270,-57.617,-32.227,-194.336,-330.566
1690121966.968,-10.254,-62.500,-21.484,24.414,254.395
1690121966.971,-51.758,-51.758,-55.664,146.973,422.852
1690121966.975,-36.133,-39.062,-71.777,-20.996,-117.676
1690121966.979,-64.453,-46.387,-62.500,-217.285,-308.105
1690121966.983,-72.754,-51.270,-56.641,-216.309,-355.469
1690121966.987,-46.387,-45.410,-49.805,-45.410,-284.668
1690121966.990,-43.945,-37.109,-46.875,150.879,-17.578
1690121966.994,-9.277,-46.387,-44.922,49.805,39.062
1690121966.998,-60.547,-58.594,-58.105,-210.449,-170.898
1690121967.002,-78.613,-61.035,-59.082,-240.234,-317.383
1690121967.006,-40.527,-64.453,-43.457,-64.453,-200.684
1690121967.010,-44.922,-67.871,-34.668,150.879,377.441
1690121967.014,-6.836,-58.594,-44.434,76.660,599.121
1690121967.017,-49.805,-50.781,-60.059,-197.754,-54.199
1690121967.021,-84.473,-66.895,-50.781,-254.395,-402.832
1690121967.025,-47.852,-69.336,-42.969,-91.309,-172.363
1690121967.029,-64.941,-61.035,-46.387,118.164,72.266
1690121967.033,-23.438,-62.988,-56.152,85.449,30.762
1690121967.048,-20.508,-62.012,-50.293,-144.043,-199.707
1690121967.052,-73.730,-69.824,-44.922,-236.328,-268.555
1690121967.056,-41.992,-76.172,-55.664,-120.605,-184.082
1690121967.060,-54.199,-69.336,-51.758,95.703,-62.988
1690121967.064,-3.906,-71.777,-42.969,131.348,110.840
1690121967.068,3.906,-79.102,-46.875,-83.984,286.133
1690121967.072,-84.473,-74.707,-54.199,-247.559,22.461
1690121967.075,-45.410,-60.059,-48.340,-156.250,-281.738
1690121967.079,-52.246,-66.406,-42.480,86.914,24.902
1690121967.083,-36.133,-70.312,-45.410,145.020,408.691
1690121967.087,-37.598,-63.965,-61.523,-105.957,22.949
1690121967.091,-105.469,-71.289,-51.758,-263.672,-409.180
1690121967.093,-60.059,-70.801,-45.410,-164.551,-307.129
1690121967.097,-56.641,-61.035,-52.734,48.828,-25.391
1690121967.101,-44.922,-57.617,-46.875,132.324,121.582
1690121967.105,-18.555,-69.336,-46.875,-66.895,-46.875
1690121967.109,-97.168,-77.637,-46.875,-255.371,-231.934
1690121967.113,-90.332,-75.195,-49.805,-195.801,-201.172
1690121967.117,-76.172,-73.730,-62.988,19.043,-11.230
1690121967.120,-71.289,-70.801,-68.359,120.117,95.215
1690121967.124,-21.484,-75.195,-46.875,-44.434,232.910
1690121967.128,-73.242,-89.844,-51.270,-247.070,128.418
1690121967.132,-67.871,-81.543,-60.059,-238.770,-342.773
1690121967.136,-30.762,-68.848,-49.805,-12.207,-193.359
1690121967.138,-38.086,-61.035,-53.711,126.953,231.934
1690121967.142,-9.277,-56.152,-56.152,-48.828,154.297
1690121967.146,-66.406,-62.500,-61.523,-249.512,-175.781
1690121967.150,-73.242,-64.453,-55.664,-237.305,-269.043
1690121967.154,-45.410,-72.266,-56.641,-28.809,45.898
1690121967.158,-70.801,-69.824,-61.523,139.160,373.047
1690121967.162,-27.344,-63.965,-52.734,16.602,179.199
1690121967.165,-48.340,-62.012,-50.293,-188.965,-151.367
1690121967.169,-85.449,-68.848,-54.688,-219.238,-82.031
1690121967.173,-96.680,-72.266,-63.965,-89.844,-109.375
1690121967.177,-84.961,-62.500,-51.758,124.512,-38.574
1690121967.181,-17.578,-66.895,-45.898,71.777,185.547
1690121967.183,-61.523,-69.824,-52.246,-189.453,-46.387
1690121967.187,-107.422,-57.129,-55.176,-255.859,-369.629
1690121967.191,-53.711,-62.012,-53.711,-92.285,-234.375
1690121967.195,-49.805,-66.895,-50.781,124.023,120.605
1690121967.199,-20.996,-55.176,-54.688,78.613,143.555
1690121967.203,-41.992,-51.758,-62.500,-176.758,-121.094
1690121967.207,-103.516,-51.758,-64.941,-269.531,-296.387
1690121967.210,-70.312,-51.758,-52.246,-120.117,-38.086
1690121967.214,-70.312,-45.410,-56.641,96.680,326.172
1690121967.218,-29.297,-34.180,-66.406,85.938,81.543
1690121967.222,-27.832,-41.992,-53.711,-132.324,-201.660
1690121967.226,-94.238,-53.223,-54.688,-249.023,-265.137
1690121967.229,-41.504,-45.410,-57.617,-132.324,-241.699
1690121967.233,-33.691,-50.781,-52.734,93.750,-10.254
1690121967.237,-18.555,-60.547,-51.270,135.254,159.180
1690121967.241,-9.277,-57.617,-46.387,-89.355,231.934
1690121967.245,-94.238,-53.223,-50.781,-260.742,-37.109
1690121967.249,-64.941,-53.711,-60.547,-175.781,-254.395
1690121967.253,-37.598,-60.059,-57.617,66.406,157.227
1690121967.256,-25.391,-67.383,-53.223,153.320,523.926
1690121967.260,-15.137,-60.059,-66.895,-86.914,140.137
1690121967.264,-82.520,-45.898,-57.617,-261.230,-336.914
1690121967.268,-61.035,-48.828,-51.270,-179.688,-288.574
1690121967.272,-33.691,-49.805,-56.152,45.410,-89.355
1690121967.273,-41.016,-47.852,-60.059,152.344,110.840
1690121967.277,-11.230,-48.828,-57.617,-43.457,20.996
1690121967.281,-54.688,-60.547,-50.781,-225.586,-186.523
1690121967.285,-47.363,-58.105,-47.363,-182.129,-254.883
1690121967.289,-24.414,-41.992,-39.551,22.949,-64.941
1690121967.293,-34.668,-45.898,-44.434,166.992,232.910
1690121967.297,-4.395,-64.453,-45.898,13.672,459.961
1690121967.300,-61.035,-60.547,-46.875,-205.566,356.934
1690121967.304,-74.219,-37.109,-62.988,-220.703,-172.363
1690121967.308,-38.086,-41.992,-64.453,-25.391,-166.992
1690121967.312,-50.781,-57.129,-58.594,162.598,126.465
1690121967.316,-15.625,-51.758,-58.594,29.785,62.988
1690121967.333,-70.312,-51.758,-58.105,-214.844,-237.793
1690121967.337,-81.055,-63.965,-50.293,-221.680,-294.434
1690121967.341,-41.992,-61.035,-47.852,-43.945,45.898
1690121967.345,-68.848,-52.734,-57.617,128.906,228.516
1690121967.349,-4.395,-57.617,-59.082,43.457,59.082
1690121967.353,-30.762,-69.824,-44.922,-180.664,-66.406
1690121967.357,-86.426,-71.777,-46.387,-215.332,-58.105
1690121967.360,-54.199,-64.453,-60.059,-63.965,-47.852
1690121967.364,-65.918,-54.199,-53.223,130.371,31.250
1690121967.368,-5.859,-60.059,-39.062,95.215,136.230
1690121967.372,-21.484,-62.500,-40.527,-139.648,71.289
1690121967.376,-87.891,-43.945,-51.758,-242.188,-294.922
1690121967.365,-56.152,-44.922,-56.152,-119.629,-353.516
1690121967.369,-60.059,-50.293,-55.664,105.957,7.324
1690121967.373,-19.043,-50.781,-56.152,103.027,154.785
1690121967.377,-43.457,-50.781,-53.711,-141.602,-120.117
1690121967.381,-97.168,-54.199,-46.387,-246.582,-311.035
1690121967.385,-42.969,-59.082,-51.270,-122.070,-209.961
1690121967.389,-50.781,-55.176,-56.641,98.633,85.449
1690121967.392,-31.250,-48.828,-47.852,126.465,178.711
1690121967.396,-21.484,-58.594,-42.480,-113.281,-110.840
1690121967.400,-76.660,-62.500,-36.621,-230.957,-69.824
1690121967.404,-62.988,-54.199,-46.875,-144.531,147.949
1690121967.408,-70.312,-47.363,-63.477,41.504,44.434
1690121967.423,-49.805,-46.387,-55.176,129.395,116.699
1690121967.427,-26.367,-52.734,-59.082,-81.543,29.785
1690121967.431,-96.680,-58.594,-63.965,-264.648,-258.789
1690121967.435,-69.336,-52.734,-62.500,-194.336,-346.191
1690121967.439,-39.062,-55.664,-57.129,32.227,-35.645
1690121967.443,-41.504,-72.266,-46.387,151.367,492.188
1690121967.447,-23.926,-62.012,-54.688,-54.199,338.379
1690121967.450,-96.191,-57.129,-61.035,-254.395,-217.285
1690121967.454,-68.359,-70.312,-51.758,-199.219,-243.652
1690121967.458,-30.762,-58.594,-45.410,25.391,84.961
1690121967.462,-58.105,-43.457,-59.570,141.113,107.910
1690121967.466,-14.648,-50.781,-52.246,-32.227,-154.785
1690121967.468,-64.453,-55.664,-35.156,-217.285,-188.965
1690121967.472,-73.242,-52.246,-40.527,-215.332,-87.402
1690121967.476,-52.734,-51.270,-55.664,-22.949,-126.953
1690121967.480,-55.664,-54.688,-52.246,166.992,32.715
1690121967.484,4.395,-46.875,-43.457,40.527,93.262
1690121967.488,-54.199,-37.598,-40.039,-194.824,-121.094
1690121967.492,-88.867,-52.246,-43.457,-226.562,-207.520
1690121967.495,-51.270,-58.105,-47.363,-49.316,-164.551
1690121967.499,-52.246,-68.848,-44.434,171.875,265.137
1690121967.503,-15.625,-65.430,-58.105,64.941,388.672
1690121967.507,-69.336,-43.945,-69.336,-216.797,-196.289
1690121967.511,-83.496,-51.270,-55.664,-254.395,-375.977
1690121967.514,-41.504,-52.734,-53.223,-81.055,-187.500
1690121967.518,-69.336,-55.664,-52.734,121.582,77.637
1690121967.522,-9.277,-62.012,-56.152,65.430,182.617
1690121967.526,-32.227,-68.359,-55.664,-177.734,-50.293
1690121967.530,-82.520,-81.055,-46.387,-239.746,-50.781
1690121967.534,-38.086,-68.848,-55.664,-99.609,74.219
1690121967.538,-68.359,-54.199,-61.523,109.375,81.055
1690121967.541,-6.836,-47.363,-54.688,106.445,164.062
1690121967.545,-13.184,-53.711,-54.199,-135.742,125.000
1690121967.549,-110.840,-43.457,-57.129,-259.277,-243.652
1690121967.553,-57.617,-24.414,-50.293,-127.441,-366.211
1690121967.557,-62.988,-46.387,-56.641,86.914,9.277
1690121967.559,-50.293,-46.387,-63.965,94.238,175.293
1690121967.563,-41.992,-28.320,-59.082,-141.113,-83.008
1690121967.567,-93.750,-30.273,-46.387,-269.531,-353.027
1690121967.571,-63.477,-38.574,-41.016,-149.902,-298.828
1690121967.575,-56.641,-51.758,-47.852,75.684,9.766
1690121967.579,-33.203,-51.758,-47.363,127.441,159.668
1690121967.583,-20.508,-43.945,-46.387,-87.891,-1.953
1690121967.586,-75.195,-57.129,-41.992,-236.328,42.969
1690121967.590,-63.965,-60.059,-46.875,-171.387,151.855
1690121967.594,-64.453,-38.086,-61.035,30.273,-31.738
1690121967.598,-46.387,-41.992,-51.270,142.090,68.359
1690121967.602,-16.602,-48.828,-57.129,-66.406,56.152
1690121967.603,-76.172,-37.109,-61.035,-251.953,-241.211
1690121967.607,-43.945,-37.598,-49.316,-186.523,-282.227
1690121967.611,-38.086,-44.434,-55.664,24.414,-32.715
1690121967.615,-53.711,-40.527,-62.012,160.156,277.344
1690121967.619,-0.488,-38.086,-50.781,-19.531,103.516
1690121967.623,-57.617,-41.016,-47.852,-243.652,-185.059
1690121967.627,-51.758,-47.852,-49.805,-209.473,-196.289
1690121967.630,-20.996,-58.594,-36.621,21.484,293.457
1690121967.634,-66.406,-43.945,-53.223,152.344,483.887
1690121967.638,-38.086,-30.762,-67.871,-18.066,-32.715
1690121967.642,-71.777,-34.668,-51.758,-222.168,-252.930
1690121967.646,-88.867,-40.527,-50.781,-224.609,-294.922
1690121967.648,-71.777,-42.480,-62.988,-59.570,-193.359
1690121967.652,-76.172,-39.062,-59.082,119.141,46.387
1690121967.656,-9.277,-39.062,-48.340,38.574,71.777
1690121967.660,-41.016,-42.969,-42.969,-191.895,-160.156
1690121967.664,-80.566,-49.805,-40.039,-229.004,-348.145
1690121967.668,-63.965,-58.105,-36.133,-68.359,-271.484
1690121967.672,-80.078,-67.383,-26.855,147.461,298.828
1690121967.675,-40.527,-65.430,-35.645,83.008,466.309
1690121967.679,-53.223,-56.152,-51.270,-181.152,-144.043
1690121967.683,-73.730,-57.129,-40.039,-230.957,-372.559
1690121967.687,-58.594,-62.988,-37.598,-90.332,-223.633
1690121967.691,-82.031,-60.059,-41.016,101.074,8.789
1690121967.694,-26.367,-48.340,-35.156,82.520,58.594
1690121967.698,-19.043,-58.594,-45.898,-137.207,-52.246
1690121967.702,-68.848,-75.195,-56.152,-220.215,63.477
1690121967.706,-69.336,-70.312,-56.641,-122.070,-17.090
1690121967.710,-100.586,-72.266,-48.828,70.312,-46.387
1690121967.714,-46.387,-79.590,-32.715,106.445,238.281
1690121967.718,-3.906,-69.336,-33.691,-97.656,276.367
1690121967.721,-65.918,-58.594,-50.293,-250.000,-130.859
1690121967.725,-62.988,-55.664,-52.734,-160.645,-353.516
1690121967.729,-87.891,-59.082,-44.922,64.941,-35.156
1690121967.733,-72.266,-58.594,-52.734,104.004,187.988
1690121967.737,-18.555,-56.152,-60.547,-111.328,-92.285
1690121967.756,-60.059,-59.082,-54.199,-237.305,-315.430
1690121967.760,-49.805,-61.523,-43.457,-147.461,-141.602
1690121967.764,-74.219,-63.477,-47.363,42.480,51.758
1690121967.768,-81.543,-66.406,-51.758,112.793,117.188
1690121967.772,-8.789,-75.684,-42.969,-62.012,-1.465
1690121967.776,-23.438,-69.824,-41.504,-205.566,-158.203
1690121967.780,-26.855,-56.152,-49.805,-145.020,-102.539
1690121967.783,-64.453,-52.246,-54.688,17.090,2.441
1690121967.787,-80.078,-45.410,-50.293,120.117,48.828
1690121967.791,-5.371,-53.223,-43.457,-13.184,175.781
1690121967.795,-37.598,-55.664,-56.152,-199.707,6.348
1690121967.799,-40.527,-52.246,-68.359,-195.801,-351.074
1690121967.798,-58.594,-60.547,-58.105,-5.371,-158.691
1690121967.802,-99.609,-63.477,-51.270,147.949,217.773
1690121967.806,-24.414,-60.059,-50.781,7.812,155.273
1690121967.810,-27.832,-59.082,-51.758,-193.848,-220.703
1690121967.814,-30.762,-64.941,-46.387,-180.664,-270.020
1690121967.818,-56.152,-72.754,-47.363,-11.230,89.844
1690121967.822,-113.281,-62.500,-59.570,127.441,314.453
1690121967.825,-13.184,-55.176,-57.129,12.695,107.422
1690121967.829,5.859,-55.176,-46.875,-178.711,-195.312
1690121967.833,-31.738,-56.641,-40.527,-180.176,103.027
1690121967.837,-69.824,-47.363,-50.293,-55.664,222.656
1690121967.841,-124.023,-23.438,-54.688,104.492,27.832
1690121967.844,-41.016,-34.668,-48.828,47.363,72.754
1690121967.848,-5.859,-53.711,-58.594,-171.875,-152.344
1690121967.852,-26.855,-47.363,-65.918,-218.262,-355.957
1690121967.856,-50.293,-41.992,-54.199,-84.961,-304.199
1690121967.860,-126.465,-51.270,-48.340,94.238,-17.578
1690121967.864,-67.871,-55.664,-57.129,57.617,128.418
1690121967.868,7.812,-50.293,-56.152,-142.578,-86.426
1690121967.871,-17.090,-62.012,-56.152,-212.891,-226.074
1690121967.875,-47.363,-62.500,-48.340,-91.797,29.297
1690121967.879,-134.277,-48.828,-50.293,77.148,361.328
1690121967.883,-104.492,-45.410,-72.266,41.504,109.375
1690121967.887,4.395,-40.039,-67.383,-138.672,-189.941
1690121967.888,-10.742,-37.598,-62.012,-225.586,-275.391
1690121967.892,-50.781,-40.039,-54.688,-136.230,-177.734
1690121967.896,-145.020,-37.109,-46.875,29.785,-23.926
1690121967.900,-132.812,-35.156,-40.039,53.223,57.129
1690121967.904,-30.762,-37.598,-38.086,-124.023,40.039
1690121967.908,-38.086,-45.898,-56.152,-248.047,-171.875
1690121967.912,-80.566,-46.387,-54.688,-194.336,-269.043
1690121967.915,-210.938,-48.828,-48.828,-47.363,-20.508
1690121967.919,-217.285,-57.129,-38.574,31.738,514.160
1690121967.923,-94.727,-44.922,-52.734,-146.973,315.918
1690121967.927,-80.566,-24.414,-49.316,-310.059,-241.211
1690121967.931,-100.098,-33.691,-31.250,-253.906,-239.746
1690121967.934,-219.238,-48.340,-43.945,-104.004,-106.934
1690121967.938,-261.719,-45.410,-46.875,-17.578,2.441
1690121967.942,-98.145,-56.641,-41.992,-134.277,-86.914
1690121967.946,-31.738,-67.383,-34.180,-253.906,-214.355
1690121967.950,-43.457,-51.270,-41.504,-217.285,-171.875
1690121967.954,-127.441,-53.711,-54.199,-64.453,-48.828
1690121967.958,-199.707,-59.082,-57.617,44.434,179.688
1690121967.961,-61.035,-61.523,-47.363,-55.176,358.398
1690121967.965,15.137,-55.176,-51.758,-199.707,147.949
1690121967.969,8.301,-47.852,-67.383,-206.055,-287.598
1690121967.973,-47.852,-60.547,-57.129,-55.664,-168.945
1690121967.977,-152.832,-58.594,-56.152,73.730,167.969
1690121967.979,-39.551,-55.664,-72.266,-24.414,15.137
1690121967.983,69.336,-68.359,-76.172,-165.039,-189.453
1690121967.987,52.734,-70.801,-63.965,-165.039,-222.168
1690121967.991,-38.574,-58.105,-55.176,-55.664,-39.551
1690121967.995,-159.668,-45.410,-48.340,69.336,123.535
1690121967.999,-50.293,-50.781,-64.941,13.184,87.891
1690121968.003,78.125,-64.941,-76.172,-115.723,14.160
1690121968.006,67.383,-67.383,-58.594,-124.512,60.059
1690121968.010,-36.621,-61.035,-59.082,-56.152,-8.301
1690121968.014,-197.266,-60.059,-60.547,61.035,-84.473
1690121968.018,-108.398,-51.758,-55.176,40.039,8.301
1690121968.022,61.523,-53.223,-55.664,-104.980,-141.602
1690121968.025,78.613,-55.176,-50.781,-140.625,-258.789
1690121968.029,0.488,-54.688,-45.410,-58.594,-176.758
1690121968.033,-185.059,-74.219,-45.898,56.152,81.055
1690121968.037,-142.090,-73.242,-66.406,35.156,150.879
1690121968.041,62.500,-49.316,-60.547,-81.543,-144.531
1690121968.045,93.262,-55.176,-45.898,-131.836,-256.348
1690121968.049,6.836,-70.801,-54.688,-68.848,47.363
1690121968.052,-192.871,-63.477,-55.176,40.527,278.320
1690121968.056,-192.383,-42.969,-55.176,18.555,6.836
1690121968.060,30.762,-42.480,-43.945,-90.820,-175.781
1690121968.064,101.074,-49.316,-42.969,-132.324,-184.082
1690121968.068,44.434,-48.340,-48.340,-83.008,-153.809
1690121968.069,-160.156,-44.922,-46.387,20.020,-142.578
1690121968.073,-203.613,-47.852,-43.457,58.594,0.977
1690121968.077,23.926,-53.711,-51.270,-46.387,125.000
1690121968.081,114.258,-49.316,-59.570,-124.512,-28.809
1690121968.085,58.105,-40.039,-51.270,-91.797,-220.215
1690121968.089,-148.438,-50.293,-40.527,21.484,-15.625
1690121968.093,-235.352,-69.824,-36.133,88.867,505.371
1690121968.096,-7.812,-52.246,-42.969,-26.855,281.738
1690121968.100,127.930,-35.156,-51.758,-127.930,-278.320
1690121968.104,95.215,-53.223,-52.734,-93.262,-254.883
1690121968.108,-105.957,-56.641,-53.223,-2.441,-125.977
1690121968.112,-253.906,-54.199,-49.805,46.875,-62.012
1690121968.115,-34.180,-50.781,-45.898,-33.691,-99.121
1690121968.119,140.625,-47.852,-50.781,-115.234,-182.129
1690121968.123,115.234,-45.898,-46.875,-101.074,-202.148
1690121968.127,-80.566,-52.734,-41.016,-14.648,-148.438
1690121968.131,-266.602,-60.547,-39.551,58.105,-10.742
1690121968.135,-57.129,-57.617,-42.480,-11.230,67.383
1690121968.139,145.996,-45.898,-46.875,-100.098,-26.855
1690121968.142,121.582,-45.898,-41.504,-89.844,-96.191
1690121968.146,-66.895,-54.199,-44.922,-32.227,-118.652
1690121968.150,-277.832,-57.129,-39.551,43.457,167.480
1690121968.154,-117.188,-58.594,-55.176,-14.160,311.035
1690121968.158,102.539,-47.852,-76.660,-138.184,-100.586
1690121968.173,110.352,-46.875,-54.199,-128.906,-219.727
1690121968.177,-41.992,-59.570,-37.598,-50.293,-41.504
1690121968.181,-272.949,-62.500,-39.062,19.531,69.824
1690121968.185,-153.809,-48.340,-54.688,-25.879,-78.125
1690121968.189,107.910,-36.621,-51.270,-111.328,-150.391
1690121968.193,135.742,-42.480,-29.785,-96.191,160.645
1690121968.197,-15.625,-54.688,-47.363,-54.199,120.605
1690121968.200,-263.184,-56.641,-55.176,0.000,-136.230
1690121968.204,-176.758,-60.547,-40.527,2.930,91.309
1690121968.208,88.379,-60.059,-44.434,-78.613,236.328
1690121968.212,127.930,-44.434,-58.105,-126.953,-81.055
1690121968.216,31.738,-36.133,-51.758,-65.918,-223.633
1690121968.218,-215.820,-52.246,-33.691,37.109,20.020
1690121968.222,-209.961,-62.500,-48.340,20.020,52.246
1690121968.226,62.500,-59.082,-68.359,-86.914,-179.688
1690121968.230,148.438,-62.988,-61.523,-115.723,-242.188
1690121968.234,35.645,-60.547,-44.434,-45.410,-114.746
1690121968.238,-210.938,-63.477,-36.621,24.902,57.617
1690121968.242,-204.102,-67.383,-43.945,19.531,73.730
1690121968.245,50.293,-60.547,-50.293,-61.523,-113.281
1690121968.249,156.250,-61.523,-38.086,-93.262,-6.348
1690121968.253,80.078,-55.664,-41.992,-69.824,133.301
1690121968.257,-166.992,-48.340,-54.199,-18.066,-11.230
1690121968.261,-250.488,-57.617,-47.363,23.926,39.551
1690121968.265,25.879,-48.340,-48.828,-49.316,0.977
1690121968.269,169.434,-44.434,-49.316,-114.746,-117.676
1690121968.273,104.492,-47.852,-41.504,-105.957,-197.754
1690121968.277,-142.578,-60.059,-36.621,-30.273,-92.285
1690121968.281,-284.668,-72.266,-41.504,26.367,168.945
1690121968.285,-28.809,-60.059,-51.758,-40.039,125.000
1690121968.289,145.020,-50.781,-52.734,-110.840,-120.117
1690121968.292,108.887,-56.152,-38.574,-96.191,-113.281
1690121968.296,-98.633,-63.965,-32.227,-17.090,121.094
1690121968.300,-305.664,-61.523,-54.199,18.555,28.320
1690121968.304,-77.637,-58.105,-60.547,-46.875,-146.484
1690121968.308,139.160,-60.059,-53.223,-115.234,-133.789
1690121968.309,112.305,-55.664,-54.688,-95.703,-185.547
1690121968.313,-82.520,-56.641,-44.922,-32.227,-112.305
1690121968.317,-309.082,-65.430,-37.109,5.371,-16.113
1690121968.321,-118.164,-60.547,-44.434,-38.086,68.359
1690121968.325,116.211,-52.246,-49.316,-125.977,-57.129
1690121968.329,93.750,-48.340,-41.016,-124.512,-161.621
1690121968.333,-81.543,-52.734,-43.457,-63.965,-37.109
1690121968.336,-289.551,-60.059,-38.574,18.555,207.520
1690121968.340,-132.812,-51.270,-35.156,-4.883,403.320
1690121968.344,105.469,-31.738,-51.270,-115.234,-4.883
1690121968.348,123.535,-27.832,-46.875,-111.816,-243.164
1690121968.352,-18.066,-41.016,-41.016,-55.664,-141.602
1690121968.353,-267.090,-51.758,-44.922,5.859,-52.734
1690121968.357,-161.133,-59.082,-49.316,4.395,31.250
1690121968.361,115.723,-52.734,-47.363,-68.848,-88.379
1690121968.365,151.367,-41.016,-45.898,-88.379,-40.527
1690121968.369,8.789,-51.270,-58.594,-76.660,-4.395
1690121968.373,-256.836,-64.453,-52.734,-20.020,-39.551
1690121968.377,-212.891,-63.965,-49.805,-6.348,88.379
1690121968.380,81.543,-64.453,-51.270,-65.430,265.625
1690121968.384,132.324,-54.199,-65.918,-118.652,80.566
1690121968.388,12.695,-55.176,-65.918,-109.375,-302.734
1690121968.392,-235.840,-71.289,-47.363,-14.160,-127.441
1690121968.396,-251.953,-57.129,-61.035,-0.977,0.977
1690121968.398,33.691,-40.527,-68.848,-81.543,-114.746
1690121968.402,137.207,-37.109,-59.570,-113.770,-277.344
1690121968.406,56.641,-46.875,-49.805,-81.543,-260.254
1690121968.410,-208.984,-59.570,-47.363,-21.484,-103.516
1690121968.414,-279.785,-50.293,-45.898,14.648,-37.598
1690121968.418,17.578,-40.039,-47.852,-53.711,-87.402
1690121968.422,150.391,-50.781,-47.363,-104.980,130.859
1690121968.425,69.336,-61.523,-57.129,-93.750,319.336
1690121968.429,-181.152,-56.152,-76.660,-53.711,-23.438
1690121968.433,-305.176,-49.805,-55.176,5.859,-113.281
1690121968.437,-23.438,-45.410,-45.410,-49.805,9.277
1690121968.441,160.156,-45.898,-55.176,-119.629,-107.422
1690121968.444,117.188,-50.293,-42.480,-93.750,-283.691
1690121968.448,-124.512,-56.641,-33.691,-21.973,-64.453
1690121968.452,-332.031,-54.199,-40.039,20.996,249.512
1690121968.456,-79.590,-46.875,-53.711,-53.711,69.336
1690121968.460,149.902,-45.898,-54.199,-128.418,-192.383
1690121968.464,127.441,-48.828,-41.016,-97.656,-95.215
1690121968.468,-91.797,-52.734,-37.598,-33.691,180.176
1690121968.471,-327.148,-34.668,-41.992,7.812,104.492
1690121968.475,-94.238,-38.086,-43.945,-21.484,-92.773
1690121968.479,163.086,-57.129,-55.176,-92.773,-70.312
1690121968.483,155.762,-45.410,-51.758,-99.121,-26.367
1690121968.487,-49.316,-35.156,-47.363,-48.828,-105.469
1690121968.489,-317.871,-41.504,-39.551,20.020,-92.773
1690121968.493,-130.859,-43.457,-39.551,-8.301,7.812
1690121968.497,144.531,-33.203,-47.852,-106.445,-102.539
1690121968.501,143.555,-38.086,-50.781,-116.699,-197.754
1690121968.505,-20.508,-59.570,-45.898,-47.852,-141.602
1690121968.509,-297.363,-65.918,-36.621,33.203,79.102
1690121968.513,-182.129,-57.129,-47.852,10.254,185.547
1690121968.516,113.770,-42.969,-60.547,-89.355,-42.969
1690121968.520,150.391,-44.434,-61.035,-123.047,-197.754
1690121968.524,4.395,-51.758,-56.152,-82.031,-103.516
1690121968.528,-278.809,-48.340,-42.969,-2.930,16.602
1690121968.532,-226.074,-63.965,-45.410,-1.465,12.207
1690121968.548,80.078,-73.242,-57.617,-101.074,-136.719
1690121968.552,164.062,-63.477,-53.223,-116.699,87.402
1690121968.556,32.715,-59.082,-55.176,-73.242,406.738
1690121968.560,-277.832,-50.293,-63.477,-29.297,71.289
1690121968.564,-288.086,-44.922,-57.129,-11.230,-30.762
1690121968.568,43.945,-48.828,-49.805,-79.102,70.801
1690121968.572,154.297,-42.969,-45.410,-128.906,-6.836
1690121968.575,57.617,-39.551,-47.852,-90.332,-145.020
1690121968.579,-205.566,-56.641,-47.852,8.301,-65.918
1690121968.583,-285.645,-60.059,-51.270,33.203,249.512
1690121968.587,17.090,-35.645,-62.988,-70.801,33.203
1690121968.591,170.898,-35.156,-56.641,-131.836,-242.676
1690121968.593,88.867,-59.570,-49.316,-104.980,-222.168
1690121968.597,-172.363,-71.289,-48.828,-24.902,-42.480
1690121968.601,-305.664,-64.453,-59.082,21.973,45.410
1690121968.605,-24.902,-49.805,-61.035,-50.781,-120.117
1690121968.609,171.387,-47.852,-40.527,-116.211,-107.910
1690121968.613,68.359,-51.270,-37.109,-100.586,-42.969
1690121968.617,-204.590,-46.875,-39.551,-31.738,-12.695
1690121968.620,-340.820,-44.434,-40.039,10.742,19.531
1690121968.624,-63.965,-55.176,-41.016,-28.809,114.746
1690121968.628,155.273,-53.223,-42.480,-112.305,90.332
1690121968.632,110.840,-49.316,-47.852,-135.742,-232.910
1690121968.636,-127.930,-74.707,-45.410,-66.895,-171.875
1690121968.639,-375.000,-81.055,-38.574,-9.766,-25.879
1690121968.643,-127.930,-68.848,-40.039,-59.570,-11.719
1690121968.647,132.812,-67.871,-47.363,-140.137,-128.418
1690121968.651,128.906,-62.988,-39.062,-123.047,-258.789
1690121968.655,-70.801,-74.219,-20.508,-33.691,161.133
1690121968.659,-350.586,-85.449,-43.945,17.090,349.609
1690121968.663,-157.227,-68.848,-64.453,-31.738,-29.297
1690121968.666,142.090,-59.570,-49.316,-106.445,-121.094
1690121968.670,158.691,-57.129,-40.527,-106.445,95.703
1690121968.674,-49.316,-52.246,-47.363,-75.684,-10.742
1690121968.678,-347.656,-57.129,-45.898,-10.742,-138.184
1690121968.682,-193.359,-58.105,-39.062,-15.625,-66.406
1690121968.698,122.070,-48.828,-30.273,-102.051,-128.906
1690121968.702,161.133,-46.387,-41.016,-125.977,-219.727
1690121968.706,8.301,-50.781,-48.340,-76.172,-176.270
1690121968.710,-299.316,-51.270,-41.504,2.930,4.883
1690121968.714,-235.352,-56.152,-42.480,0.488,66.406
1690121968.718,93.750,-60.547,-44.922,-73.730,-26.367
1690121968.722,166.016,-56.641,-43.945,-105.957,-134.766
1690121968.725,43.945,-58.594,-37.598,-37.109,156.250
1690121968.729,-264.648,-61.035,-42.480,41.016,455.078
1690121968.733,-278.809,-57.129,-57.129,-4.395,102.539
1690121968.737,54.199,-56.641,-58.105,-93.262,-180.664
1690121968.741,163.086,-52.246,-59.570,-127.441,-223.633
1690121968.728,67.383,-54.199,-52.246,-92.773,-226.562
1690121968.732,-232.910,-71.777,-36.133,-10.742,-131.348
1690121968.736,-310.547,-67.871,-40.527,10.254,15.137
1690121968.740,24.902,-53.223,-49.316,-60.547,100.586
1690121968.744,168.457,-47.363,-45.410,-122.559,-44.922
1690121968.748,95.703,-47.852,-41.992,-104.492,-149.902
1690121968.752,-173.828,-49.316,-32.227,-1.953,47.363
1690121968.755,-306.641,-57.129,-26.367,46.875,171.875
1690121968.759,-5.371,-61.035,-41.504,-56.152,-53.711
1690121968.763,165.527,-52.734,-49.805,-128.418,-216.309
1690121968.767,125.488,-47.852,-47.852,-83.984,-103.516
1690121968.771,-125.488,-53.223,-26.855,7.324,314.941
1690121968.773,-354.980,-53.223,-35.156,26.855,268.066
1690121968.777,-79.102,-46.875,-46.875,-56.152,-127.441
1690121968.781,157.227,-46.387,-48.340,-115.234,-128.418
1690121968.785,122.070,-50.293,-48.340,-103.027,-119.629
1690121968.789,-119.141,-53.711,-40.527,-42.969,-115.723
1690121968.793,-354.004,-58.105,-37.109,9.277,33.691
1690121968.797,-87.891,-52.246,-31.250,-32.227,316.406
1690121968.800,167.480,-63.965,-52.246,-133.789,271.484
1690121968.804,139.160,-62.500,-62.988,-157.715,-142.090
1690121968.808,-62.988,-46.875,-36.621,-63.477,-179.688
1690121968.812,-323.242,-53.223,-32.227,7.812,-79.102
1690121968.816,-127.930,-52.734,-46.875,-40.527,-36.133
1690121968.820,145.020,-43.945,-52.734,-124.512,-123.535
1690121968.824,134.277,-46.875,-41.992,-126.953,-188.965
1690121968.828,-52.246,-57.129,-28.320,-38.574,171.387
1690121968.832,-348.145,-46.387,-45.410,20.020,288.086
1690121968.836,-202.148,-31.738,-56.641,-31.250,-20.508
1690121968.840,142.578,-33.691,-41.016,-95.703,-39.062
1690121968.844,168.945,-47.363,-40.527,-101.074,129.883
1690121968.847,-36.133,-57.617,-53.223,-74.219,-0.977
1690121968.851,-334.961,-57.129,-50.293,-3.418,-135.742
1690121968.855,-229.004,-54.688,-38.574,13.184,-1.465
1690121968.859,92.285,-46.387,-50.293,-69.824,-52.734
1690121968.863,155.762,-44.434,-65.430,-115.723,-237.793
1690121968.866,29.785,-46.387,-45.898,-66.406,-249.512
1690121968.870,-260.742,-56.152,-30.273,20.020,-31.738
1690121968.874,-242.188,-60.059,-45.410,9.277,82.520
1690121968.878,80.078,-40.527,-51.270,-89.355,-116.211
1690121968.882,174.316,-36.621,-35.645,-119.629,-250.000
1690121968.886,55.664,-71.289,-34.180,-70.801,89.844
1690121968.890,-250.000,-84.961,-41.016,-7.812,411.621
1690121968.893,-317.383,-60.059,-53.711,-19.043,65.918
1690121968.897,9.766,-51.270,-63.477,-83.984,-219.727
1690121968.901,148.438,-54.688,-55.176,-121.094,-176.758
1690121968.905,60.059,-53.711,-39.551,-103.516,-126.465
1690121968.909,-207.031,-51.758,-31.738,-23.926,-113.770
1690121968.924,-315.918,-59.082,-40.527,9.277,-87.891
1690121968.928,-10.742,-65.430,-46.875,-63.965,-56.152
1690121968.932,157.227,-55.664,-41.504,-130.859,-139.648
1690121968.936,103.027,-47.363,-39.551,-118.164,-262.695
1690121968.940,-145.020,-48.340,-41.016,-22.461,-124.023
1690121968.944,-321.777,-69.336,-37.109,56.641,437.988
1690121968.948,-55.664,-75.195,-41.504,-39.551,391.602
1690121968.951,149.902,-53.711,-51.270,-140.137,-198.730
1690121968.955,120.117,-55.664,-44.922,-108.398,-221.191
1690121968.959,-114.258,-62.988,-42.969,-25.879,35.645
1690121968.963,-342.773,-48.828,-46.387,20.508,-5.859
1690121968.967,-84.473,-40.039,-37.109,-40.527,-165.527
1690121968.968,164.551,-50.293,-40.527,-115.234,-203.125
1690121968.972,135.254,-61.035,-59.570,-125.000,-224.121
1690121968.976,-92.285,-60.547,-57.617,-67.383,-202.148
1690121968.980,-339.844,-60.547,-29.297,13.184,-67.871
1690121968.984,-117.676,-59.570,-29.785,-33.691,64.453
1690121968.988,137.695,-56.641,-46.875,-121.582,43.457
1690121968.992,133.789,-63.477,-47.852,-114.258,-85.938
1690121968.995,-39.551,-61.523,-42.969,-65.430,-36.133
1690121968.999,-307.129,-60.059,-31.738,20.508,266.602
1690121969.003,-151.855,-63.477,-43.945,-5.371,380.371
1690121969.007,136.230,-50.293,-64.453,-116.699,-47.363
1690121969.011,156.738,-50.293,-50.293,-121.582,-265.137
1690121969.014,-23.926,-65.430,-42.969,-70.801,-152.832
1690121969.018,-320.801,-69.824,-41.016,1.465,-44.922
1690121969.022,-226.074,-65.430,-47.852,-20.508,-78.125
1690121969.026,99.121,-68.359,-53.711,-102.539,-208.008
1690121969.030,161.133,-62.012,-35.645,-112.793,-74.707
1690121969.034,19.531,-45.410,-18.066,-62.500,53.711
1690121969.038,-287.109,-54.199,-32.227,4.883,68.848
1690121969.041,-258.789,-64.941,-38.086,-0.488,93.262
1690121969.045,77.637,-61.035,-41.504,-70.312,143.555
1690121969.049,167.969,-54.199,-64.941,-119.141,7.324
1690121969.053,57.617,-44.922,-52.734,-93.262,-201.172
1690121969.057,-228.027,-53.711,-32.715,-0.488,-68.359
1690121969.058,-276.367,-65.918,-37.109,18.555,83.496
1690121969.062,26.367,-58.105,-53.711,-86.426,-87.891
1690121969.066,161.621,-62.012,-53.711,-128.906,-219.238
1690121969.070,89.844,-64.453,-51.758,-79.590,-156.250
1690121969.074,-187.012,-52.246,-54.199,4.883,-66.895
1690121969.078,-285.156,-52.246,-57.129,47.363,71.777
1690121969.082,28.809,-47.852,-54.688,-31.250,47.363
1690121969.085,185.059,-44.434,-41.992,-88.379,26.855
1690121969.089,103.516,-59.082,-45.410,-74.707,86.426
1690121969.093,-172.852,-58.105,-53.711,-31.250,-87.891
1690121969.097,-326.660,-62.012,-46.875,18.066,-86.914
1690121969.101,-30.762,-63.477,-37.598,-34.668,-19.043
1690121969.104,160.645,-54.199,-43.457,-112.305,-114.258
1690121969.108,111.816,-56.641,-51.758,-101.562,-199.707
1690121969.112,-111.328,-52.734,-40.527,-11.719,-71.777
1690121969.116,-314.453,-55.176,-27.832,63.477,278.809
1690121969.120,-70.801,-51.758,-43.945,-16.602,214.844
1690121969.124,153.320,-38.574,-48.828,-120.117,-99.609
1690121969.128,132.812,-42.969,-36.133,-101.074,-40.039
1690121969.131,-74.219,-40.527,-23.926,-13.672,161.133
1690121969.135,-338.379,-37.109,-34.180,31.738,85.938
1690121969.139,-131.836,-47.363,-59.082,-29.785,-145.020
1690121969.143,133.789,-59.570,-74.219,-109.863,-162.109
1690121969.147,137.207,-49.805,-73.730,-112.305,-192.871
1690121969.150,-55.176,-43.945,-48.828,-52.246,-231.445
1690121969.154,-336.426,-57.129,-32.715,8.789,-161.133
1690121969.158,-156.738,-58.594,-31.738,-12.695,35.645
1690121969.162,129.883,-48.340,-43.945,-114.258,-74.219
1690121969.166,143.555,-41.504,-39.062,-131.348,-301.270
1690121969.170,-22.949,-50.293,-32.227,-62.500,-164.062
1690121969.174,-293.945,-60.059,-32.715,32.227,296.387
1690121969.177,-184.570,-59.082,-51.270,17.090,425.293
1690121969.181,97.656,-38.574,-61.523,-112.793,-52.734
1690121969.185,147.949,-30.762,-45.898,-128.906,-232.910
1690121969.189,3.906,-43.945,-51.270,-74.707,-179.688
1690121969.193,-283.203,-46.387,-51.270,-6.836,-81.543
1690121969.193,-227.051,-44.434,-42.969,-4.883,-63.477
1690121969.197,83.496,-58.105,-48.828,-85.938,-109.863
1690121969.201,159.668,-62.012,-55.176,-113.770,30.273
1690121969.205,26.855,-58.594,-58.594,-87.402,-64.453
1690121969.209,-270.020,-67.383,-59.082,-17.578,-100.586
1690121969.213,-257.812,-69.336,-59.082,14.648,118.652
1690121969.217,69.336,-58.105,-57.129,-55.664,269.043
1690121969.220,151.855,-54.688,-65.918,-137.207,62.012
1690121969.224,66.406,-51.758,-64.453,-119.629,-275.391
1690121969.228,-200.195,-63.965,-48.340,-13.672,-82.031
1690121969.232,-294.922,-66.895,-39.551,22.461,193.848
1690121969.236,11.719,-45.898,-32.715,-73.242,-50.781
1690121969.240,176.270,-39.551,-21.973,-128.418,-245.605
1690121969.244,98.145,-49.316,-32.715,-88.867,-161.621
1690121969.248,-182.617,-58.105,-48.828,-10.254,-65.918
1690121969.252,-328.613,-64.453,-43.457,12.695,-7.324
1690121969.256,-35.156,-64.453,-39.062,-61.523,-11.230
1690121969.260,163.574,-62.500,-36.133,-110.352,88.379
1690121969.264,117.188,-62.012,-44.434,-103.027,67.383
1690121969.267,-125.977,-51.758,-39.551,-32.715,15.625
1690121969.271,-330.078,-53.223,-38.086,22.949,24.414
1690121969.275,-54.199,-59.570,-35.645,-20.020,123.047
1690121969.279,172.852,-53.711,-40.527,-94.238,142.090
1690121969.283,110.352,-58.594,-61.523,-139.160,-224.121
1690121969.298,-117.676,-73.242,-54.688,-79.590,-209.473
1690121969.302,-350.586,-83.008,-53.223,7.812,112.305
1690121969.306,-134.277,-77.148,-65.430,-47.852,83.496
1690121969.310,129.395,-60.547,-68.848,-139.160,-181.152
1690121969.314,129.395,-55.664,-49.316,-120.117,-193.359
1690121969.318,-65.918,-60.059,-41.992,-33.691,118.652
1690121969.322,-332.031,-63.477,-57.617,16.113,222.656
1690121969.325,-152.344,-58.105,-58.105,-48.340,12.695
1690121969.329,142.090,-55.664,-41.016,-112.305,-110.352
1690121969.333,151.855,-61.035,-37.109,-104.492,-53.223
1690121969.337,-28.320,-54.199,-37.598,-65.430,-67.383
1690121969.341,-311.523,-52.734,-32.715,7.324,-87.891
1690121969.343,-190.430,-62.012,-38.086,-4.395,52.246
1690121969.347,125.000,-52.734,-44.434,-84.961,0.977
1690121969.351,163.574,-28.809,-44.434,-118.164,-276.855
1690121969.355,-1.465,-37.109,-41.016,-78.613,-250.488
1690121969.359,-294.434,-65.918,-46.387,7.812,-22.949
1690121969.363,-226.074,-71.289,-56.641,4.883,141.602
1690121969.367,88.379,-59.082,-60.547,-102.051,21.973
1690121969.370,142.578,-51.270,-56.641,-145.996,-199.219
1690121969.374,31.250,-61.035,-36.621,-64.941,-7.324
1690121969.378,-248.047,-63.477,-40.039,21.973,217.773
1690121969.382,-263.184,-49.805,-63.965,-8.789,-21.973
1690121969.386,58.105,-51.758,-53.711,-83.984,-124.512
1690121969.389,153.320,-55.664,-44.434,-120.117,-113.770
1690121969.393,61.523,-54.688,-46.387,-88.379,-94.238
1690121969.397,-219.238,-57.129,-50.781,-4.883,0.977
1690121969.401,-293.945,-64.453,-46.875,34.180,35.645
1690121969.405,26.855,-70.801,-37.109,-39.551,164.551
1690121969.409,152.344,-56.152,-52.246,-118.652,44.434
1690121969.413,82.031,-41.992,-48.828,-92.773,-206.543
1690121969.416,-175.781,-51.270,-39.551,-5.371,-52.246
1690121969.420,-303.223,-59.570,-47.363,41.992,255.859
1690121969.424,-8.301,-52.246,-61.523,-57.129,62.500
1690121969.428,165.039,-41.016,-53.223,-138.672,-265.625
1690121969.432,113.281,-44.922,-47.852,-99.121,-180.176
1690121969.433,-140.625,-58.594,-42.969,-18.555,-58.105
1690121969.437,-327.148,-72.266,-40.039,19.043,-57.617
1690121969.441,-51.270,-66.895,-46.875,-37.598,-77.148
1690121969.445,166.016,-47.363,-43.945,-107.910,-37.109
1690121969.449,130.371,-32.715,-64.453,-101.562,-51.758
1690121969.453,-99.121,-35.645,-73.242,-21.973,-125.488
1690121969.457,-328.125,-48.340,-43.457,36.133,36.621
1690121969.460,-101.562,-47.852,-29.297,-28.320,167.969
1690121969.464,140.137,-42.969,-32.715,-129.395,-47.852
1690121969.468,109.863,-52.734,-44.922,-145.020,-228.027
1690121969.472,-84.473,-53.223,-48.340,-62.988,-209.961
1690121969.476,-308.105,-54.199,-38.086,46.875,185.059
1690121969.478,-122.070,-52.246,-49.316,-5.371,248.535
1690121969.482,156.738,-46.875,-53.223,-121.582,-102.539
1690121969.486,154.785,-52.734,-46.387,-127.930,-175.293
1690121969.490,-46.387,-51.758,-42.969,-61.523,-28.809
1690121969.494,-323.730,-46.875,-35.156,16.602,50.781
1690121969.498,-183.594,-42.969,-44.434,-9.277,-52.734
1690121969.502,126.953,-37.598,-48.340,-104.980,9.277
1690121969.505,171.875,-40.527,-24.902,-102.539,311.523
1690121969.509,-11.719,-42.480,-36.621,-65.918,156.250
1690121969.513,-304.199,-36.621,-50.781,-2.441,-159.668
1690121969.517,-208.008,-39.062,-37.598,21.484,-47.852
1690121969.521,103.027,-52.734,-42.480,-82.031,-118.164
1690121969.523,155.762,-52.246,-55.176,-125.977,-269.043
1690121969.527,19.043,-44.922,-50.781,-69.336,-243.652
1690121969.531,-272.949,-50.293,-41.504,12.207,-36.133
1690121969.535,-262.207,-49.805,-30.273,23.438,68.359
1690121969.539,66.895,-53.223,-30.762,-79.590,-69.336
1690121969.543,172.363,-45.410,-35.645,-136.719,-140.137
1690121969.547,82.520,-46.875,-29.785,-60.547,123.047
1690121969.550,-216.309,-63.965,-30.273,34.180,330.078
1690121969.554,-295.410,-61.035,-47.852,12.207,72.266
1690121969.558,37.109,-58.105,-51.758,-77.637,-123.047
1690121969.562,179.199,-57.129,-51.270,-131.348,-104.980
1690121969.566,93.750,-45.898,-44.922,-102.539,-137.207
1690121969.569,-188.477,-51.270,-40.527,-8.789,-145.020
1690121969.573,-311.523,-69.336,-49.805,41.992,20.996
1690121969.577,-5.859,-76.660,-56.152,-49.805,138.672
1690121969.581,160.156,-70.312,-68.359,-154.297,-69.336
1690121969.585,115.723,-63.477,-55.176,-129.395,-262.207
1690121969.589,-139.160,-68.848,-31.738,-21.973,-12.695
1690121969.593,-331.543,-72.754,-37.598,46.875,368.652
1690121969.596,-57.129,-60.059,-58.105,-51.270,209.961
1690121969.600,153.320,-49.805,-60.059,-153.809,-176.270
1690121969.604,122.070,-56.641,-42.969,-109.375,-128.906
1690121969.608,-125.488,-67.871,-43.945,-26.855,83.984
1690121969.612,-365.234,-72.754,-62.500,14.648,69.336
1690121969.615,-85.449,-58.105,-51.270,-45.410,-41.992
1690121969.619,178.711,-49.805,-41.504,-133.789,-90.332
1690121969.623,139.160,-60.059,-51.758,-145.508,-96.191
1690121969.627,-91.309,-66.895,-55.176,-80.078,-153.320
1690121969.631,-354.004,-69.824,-43.945,21.973,-103.027
1690121969.635,-130.371,-71.777,-41.504,-14.648,14.160
1690121969.639,158.691,-63.477,-58.105,-129.395,-22.949
1690121969.642,153.320,-54.688,-65.430,-140.625,-214.844
1690121969.646,-54.199,-61.523,-56.152,-68.848,-270.020
1690121969.650,-345.703,-74.219,-44.434,46.875,108.398
1690121969.654,-193.848,-67.871,-47.363,10.254,212.402
1690121969.658,116.211,-48.340,-48.828,-132.812,-206.543
1690121969.674,158.203,-43.945,-41.992,-140.137,-241.699
1690121969.678,-12.695,-51.270,-44.922,-57.617,48.828
1690121969.682,-327.637,-59.570,-44.922,30.762,132.324
1690121969.686,-231.445,-51.758,-43.457,0.977,-39.551
1690121969.690,133.789,-33.203,-34.668,-105.957,-201.172
1690121969.694,200.195,-45.410,-21.973,-126.465,64.453
1690121969.698,16.602,-60.547,-40.527,-94.238,179.688
1690121969.701,-309.570,-53.223,-55.176,-6.836,-58.594
1690121969.705,-275.391,-59.570,-44.434,33.203,39.062
1690121969.709,81.055,-60.547,-53.711,-84.961,57.617
1690121969.713,180.664,-47.363,-65.918,-161.133,-168.945
1690121969.717,53.223,-41.992,-52.734,-97.656,-277.832
1690121969.718,-254.395,-55.176,-40.527,22.949,-22.949
1690121969.722,-300.781,-52.734,-33.691,53.223,221.680
1690121969.726,31.250,-33.203,-34.180,-71.777,-51.270
1690121969.730,174.805,-41.992,-32.715,-144.043,-183.594
1690121969.734,88.867,-57.129,-28.320,-93.262,14.160
1690121969.738,-202.637,-62.500,-23.438,16.602,161.133
1690121969.742,-313.965,-51.758,-32.227,65.430,166.504
1690121969.745,3.418,-47.852,-48.828,-56.641,-27.832
1690121969.749,187.500,-63.477,-46.387,-147.949,-39.551
1690121969.753,121.094,-63.965,-46.387,-116.211,64.453
1690121969.757,-181.152,-61.523,-62.500,-30.273,-83.496
1690121969.761,-352.539,-69.824,-56.152,52.246,30.762
1690121969.763,-44.922,-62.012,-53.223,-43.457,-41.992
1690121969.767,181.641,-46.875,-40.527,-145.020,-120.117
1690121969.771,129.395,-37.109,-33.203,-124.023,-152.832
1690121969.775,-125.000,-42.969,-30.273,-20.020,-160.156
1690121969.779,-334.961,-50.293,-30.273,72.266,139.648
1690121969.783,-67.383,-44.434,-41.016,-10.742,131.348
1690121969.787,193.359,-43.945,-44.922,-124.512,-106.445
1690121969.790,177.246,-44.922,-41.504,-111.816,-138.184
1690121969.794,-64.941,-61.035,-25.391,-4.395,211.914
1690121969.798,-364.258,-68.848,-31.250,68.359,331.543
1690121969.802,-114.258,-40.039,-42.480,5.859,-63.965
1690121969.806,213.379,-36.621,-50.293,-104.004,-177.734
1690121969.808,192.871,-52.734,-60.059,-138.672,-182.129
1690121969.812,-42.480,-43.945,-49.316,-63.477,-227.539
1690121969.816,-343.262,-41.016,-45.898,37.109,-100.098
1690121969.820,-154.785,-43.945,-49.316,8.301,41.992
1690121969.824,177.734,-27.832,-57.129,-114.746,-62.500
1690121969.828,207.520,-31.738,-62.012,-139.648,-75.684
1690121969.832,16.113,-41.504,-58.594,-70.312,-61.523
1690121969.835,-321.777,-50.293,-50.293,36.621,168.945
1690121969.839,-210.449,-45.898,-52.734,18.555,390.625
1690121969.843,135.254,-26.367,-63.477,-124.512,-64.941
1690121969.847,187.500,-31.250,-53.223,-164.062,-324.707
1690121969.851,27.832,-40.527,-49.805,-100.586,-160.645
1690121969.853,-300.293,-46.875,-53.711,5.859,-1.465
1690121969.857,-243.652,-45.898,-53.711,22.949,86.914
1690121969.861,114.258,-39.062,-59.570,-89.844,7.812
1690121969.865,189.941,-39.551,-56.641,-149.902,-97.168
1690121969.869,60.059,-34.180,-45.410,-109.375,-127.441
1690121969.873,-254.883,-39.062,-48.828,3.906,-108.398
1690121969.877,-287.109,-47.363,-51.758,51.758,110.840
1690121969.880,73.730,-49.316,-47.852,-61.035,289.062
1690121969.884,185.059,-51.758,-59.570,-166.016,-25.879
1690121969.888,82.031,-49.805,-56.152,-131.348,-322.266
1690121969.892,-201.172,-55.176,-38.086,-8.789,-55.664
1690121969.896,-322.754,-55.176,-42.480,36.133,169.434
1690121969.899,11.230,-41.016,-52.246,-75.195,-117.676
1690121969.903,190.918,-44.922,-49.805,-145.996,-279.297
1690121969.907,109.375,-59.082,-49.805,-105.469,-132.812
1690121969.911,-176.758,-55.664,-56.152,-15.625,-20.996
1690121969.915,-345.215,-59.082,-42.969,36.621,2.930
1690121969.919,-23.438,-60.547,-41.992,-49.316,-42.480
1690121969.923,185.547,-54.688,-50.293,-130.371,138.672
1690121969.926,130.371,-50.781,-41.504,-106.934,126.465
1690121969.930,-127.930,-35.156,-38.574,-37.109,-169.434
1690121969.934,-347.656,-42.969,-34.180,43.945,-98.633
1690121969.938,-65.430,-49.805,-38.086,-22.461,-81.543
1690121969.942,168.945,-40.527,-42.969,-140.625,-208.008
1690121969.945,126.953,-36.621,-41.992,-128.906,-269.531
1690121969.949,-92.773,-48.828,-38.086,-25.879,-134.277
1690121969.953,-340.820,-65.430,-45.898,57.129,317.383
1690121969.957,-114.746,-56.152,-64.941,-23.926,257.812
1690121969.961,145.508,-42.480,-53.711,-140.137,-233.398
1690121969.965,144.531,-34.668,-30.762,-126.953,-271.973
1690121969.969,-43.457,-51.758,-31.738,-36.133,174.805
1690121969.972,-345.215,-65.918,-52.246,29.785,287.109
1690121969.976,-182.129,-53.711,-58.105,-30.273,-91.797
1690121969.980,127.930,-54.688,-48.828,-124.512,-152.832
1690121969.984,141.113,-63.477,-52.246,-147.949,-162.598
1690121969.988,-40.527,-61.035,-49.316,-78.613,-232.910
1690121969.990,-301.270,-48.828,-37.109,41.504,-75.684
1690121969.994,-179.199,-47.363,-36.133,32.715,102.539
1690121969.998,102.051,-47.852,-46.387,-109.375,-64.453
1690121970.002,128.906,-41.992,-46.875,-157.715,-234.375
1690121970.006,-20.020,-41.016,-45.898,-87.891,-180.176
1690121970.010,-277.832,-52.246,-36.133,36.621,250.977
1690121970.014,-207.031,-44.922,-39.062,45.898,577.148
1690121970.017,68.359,-29.785,-60.547,-102.051,41.992
1690121970.021,126.953,-35.156,-55.176,-153.320,-314.941
1690121970.025,45.410,-49.316,-42.480,-75.684,-124.023
1690121970.029,-220.703,-55.176,-44.434,23.926,27.832
1690121970.033,-223.633,-39.551,-41.504,38.086,-53.223
1690121970.049,84.961,-26.367,-30.762,-59.082,-113.281
1690121970.053,143.555,-34.180,-36.621,-135.742,-137.207
1690121970.057,50.781,-46.875,-54.688,-107.422,-143.066
1690121970.061,-194.336,-50.781,-59.082,2.441,-75.195
1690121970.065,-266.602,-44.434,-38.574,57.617,4.395
1690121970.069,28.809,-41.016,-28.320,-27.344,290.039
1690121970.073,122.559,-40.039,-46.875,-135.742,274.902
1690121970.076,63.477,-30.273,-45.898,-117.188,-80.566
1690121970.080,-145.508,-43.457,-29.297,7.324,-6.836
1690121970.084,-286.621,-66.895,-37.598,79.102,275.391
1690121970.088,-21.973,-50.293,-52.246,-40.039,87.402
1690121970.092,125.977,-36.621,-51.270,-166.992,-282.227
1690121970.093,80.078,-44.434,-45.410,-125.000,-268.066
1690121970.097,-115.234,-43.457,-44.922,-6.348,-114.258
1690121970.101,-284.668,-41.016,-49.316,67.383,-22.461
1690121970.105,-36.133,-40.039,-53.711,-10.742,-35.156
1690121970.109,132.812,-35.156,-49.805,-130.859,-135.254
1690121970.113,91.797,-37.598,-41.016,-135.742,-114.746
1690121970.117,-108.398,-41.504,-46.875,-39.551,-1.953
1690121970.120,-312.500,-41.016,-53.711,42.480,13.184
1690121970.124,-66.895,-47.852,-43.945,-3.906,264.648
1690121970.128,126.953,-38.574,-51.270,-114.746,388.672
1690121970.132,92.773,-25.391,-64.941,-154.785,-86.426
1690121970.136,-56.152,-39.062,-41.992,-57.617,-197.754
1690121970.139,-284.180,-42.969,-38.086,55.176,23.926
1690121970.143,-99.609,-31.250,-42.969,19.043,103.027
1690121970.147,123.535,-34.180,-53.711,-125.488,-124.512
1690121970.151,99.609,-44.922,-60.059,-163.574,-305.176
1690121970.155,-34.668,-63.965,-51.270,-57.129,-75.195
1690121970.159,-270.508,-67.383,-55.664,48.340,120.605
1690121970.163,-146.973,-44.434,-50.293,18.066,85.449
1690121970.166,96.191,-33.691,-44.922,-109.375,-30.762
1690121970.170,113.770,-41.992,-46.387,-154.297,41.992
1690121970.174,-25.391,-38.086,-52.734,-92.773,-10.254
1690121970.178,-275.391,-42.480,-43.457,35.645,-95.215
1690121970.182,-173.340,-55.176,-36.133,55.176,156.738
1690121970.198,91.797,-43.945,-44.922,-92.285,102.539
1690121970.202,113.281,-30.273,-48.340,-178.711,-261.230
1690121970.206,15.625,-38.574,-41.992,-101.562,-260.254
1690121970.210,-217.285,-46.875,-41.016,22.461,-64.453
1690121970.214,-202.148,-44.434,-47.363,42.969,26.855
1690121970.218,70.312,-48.340,-53.711,-84.473,-18.066
1690121970.222,129.395,-46.387,-58.594,-168.945,-104.004
1690121970.225,45.410,-51.270,-40.527,-91.797,6.348
1690121970.229,-199.707,-59.570,-40.527,27.344,198.242
1690121970.233,-250.977,-48.828,-57.617,46.875,33.203
1690121970.237,33.691,-45.898,-46.387,-54.688,-124.512
1690121970.241,112.793,-49.805,-39.551,-158.691,-191.895
1690121970.230,37.109,-56.641,-42.480,-125.977,-231.445
1690121970.234,-165.039,-61.523,-40.039,14.648,-41.992
1690121970.238,-255.859,-54.688,-39.062,86.914,156.738
1690121970.242,10.254,-47.363,-42.480,-24.414,293.945
1690121970.246,119.141,-36.621,-54.688,-163.574,97.168
1690121970.250,52.246,-35.645,-52.246,-149.414,-213.867
1690121970.254,-135.254,-47.363,-35.645,-19.043,14.160
1690121970.257,-269.531,-50.293,-37.598,81.055,200.684
1690121970.261,-39.062,-46.875,-44.434,-15.137,-3.418
1690121970.265,108.887,-40.527,-48.828,-159.180,-246.582
1690121970.269,67.383,-45.410,-41.504,-136.719,-250.000
1690121970.273,-110.352,-64.941,-35.645,-19.043,89.355
1690121970.273,-296.387,-52.734,-50.293,57.617,126.953
1690121970.277,-62.500,-36.133,-45.898,-1.465,-110.840
1690121970.281,123.047,-50.293,-41.504,-134.277,-211.914
1690121970.285,82.031,-52.734,-44.922,-156.738,-247.070
1690121970.289,-78.613,-46.875,-49.805,-56.152,-147.949
1690121970.293,-298.340,-49.316,-50.781,43.457,36.621
1690121970.297,-94.727,-45.898,-29.785,30.273,249.512
1690121970.300,131.836,-46.387,-32.227,-100.586,314.941
1690121970.304,79.102,-46.875,-64.941,-189.453,-123.535
1690121970.308,-67.383,-47.852,-63.965,-98.633,-266.113
1690121970.312,-275.391,-60.547,-62.500,37.109,1.465
1690121970.316,-131.836,-62.500,-56.152,10.254,70.312
1690121970.318,106.934,-42.480,-33.203,-126.953,-126.953
1690121970.322,92.285,-36.133,-30.273,-164.551,-174.316
1690121970.326,-50.293,-44.434,-34.668,-84.961,73.242
1690121970.330,-289.062,-44.434,-36.133,26.855,93.750
1690121970.334,-183.594,-45.410,-40.039,33.203,-78.613
1690121970.338,89.355,-50.781,-43.945,-82.520,-103.516
1690121970.342,106.445,-52.734,-42.480,-151.367,-66.406
1690121970.345,2.930,-46.875,-41.504,-104.980,-92.285
1690121970.349,-243.164,-40.039,-41.016,4.395,-67.383
1690121970.353,-212.402,-50.781,-33.203,48.828,62.012
1690121970.357,88.379,-54.199,-32.227,-54.688,140.625
1690121970.361,123.047,-34.668,-52.246,-170.410,-174.805
1690121970.364,17.578,-38.086,-52.246,-129.395,-294.922
1690121970.368,-211.426,-44.922,-38.574,9.277,-72.754
1690121970.372,-251.953,-44.434,-46.387,47.852,6.348
1690121970.376,31.738,-42.480,-56.152,-75.195,-118.652
1690121970.380,123.535,-41.992,-51.270,-158.203,-234.863
1690121970.384,45.898,-46.875,-44.922,-105.957,-23.926
1690121970.388,-173.340,-51.270,-46.387,-6.836,123.047
1690121970.391,-262.695,-52.246,-51.270,49.805,51.270
1690121970.395,7.812,-49.805,-48.340,-40.527,-68.848
1690121970.399,123.047,-48.828,-53.711,-157.227,-89.355
1690121970.403,59.570,-43.457,-59.082,-150.879,-145.996
1690121970.407,-152.832,-45.410,-47.852,-38.086,-158.203
1690121970.424,-289.062,-50.781,-44.434,50.781,-42.969
1690121970.428,-9.766,-54.688,-37.109,-0.488,264.648
1690121970.432,128.418,-46.387,-41.992,-127.930,283.203
1690121970.436,58.594,-38.086,-54.688,-163.086,-216.309
1690121970.440,-108.887,-52.246,-41.016,-43.457,-188.965
1690121970.444,-275.391,-57.129,-31.738,69.824,190.430
1690121970.448,-51.758,-48.828,-42.480,-5.371,180.176
1690121970.451,123.535,-30.762,-43.945,-145.020,-166.016
1690121970.455,94.238,-33.203,-40.527,-146.484,-236.816
1690121970.459,-79.102,-59.082,-50.293,-56.641,37.598
1690121970.463,-296.387,-53.223,-63.477,23.926,87.402
1690121970.467,-77.637,-47.852,-61.035,3.906,6.836
1690121970.483,113.281,-60.547,-48.340,-106.445,3.906
1690121970.487,54.688,-56.152,-53.223,-146.973,-135.742
1690121970.491,-72.266,-40.039,-52.734,-72.754,-265.625
1690121970.495,-257.812,-45.410,-44.922,46.387,-89.844
1690121970.499,-89.844,-58.105,-48.828,20.508,68.359
1690121970.503,111.816,-59.570,-44.434,-125.977,-21.973
1690121970.507,75.195,-52.246,-36.133,-175.293,-149.414
1690121970.510,-35.156,-50.293,-34.180,-109.863,-240.234
1690121970.514,-222.656,-62.500,-32.715,32.227,102.051
1690121970.518,-103.516,-62.988,-44.922,39.551,356.934
1690121970.522,105.469,-45.898,-53.223,-123.047,-95.703
1690121970.526,71.289,-49.805,-42.969,-175.293,-302.246
1690121970.515,-33.691,-56.152,-46.387,-109.863,-200.195
1690121970.519,-227.539,-52.246,-43.457,13.184,-58.105
1690121970.523,-164.551,-52.246,-37.109,48.340,68.359
1690121970.527,62.500,-50.781,-40.527,-66.895,-45.898
1690121970.531,52.734,-48.340,-45.898,-160.156,-165.527
1690121970.535,-26.367,-43.945,-40.039,-114.746,-130.371
1690121970.539,-193.359,-50.781,-25.879,20.020,-16.602
1690121970.542,-168.945,-61.523,-32.715,73.242,93.750
1690121970.546,66.895,-61.523,-35.156,-24.902,282.715
1690121970.550,60.547,-47.363,-38.574,-156.738,111.328
1690121970.554,-23.438,-34.180,-44.434,-146.973,-327.637
1690121970.558,-154.785,-48.340,-26.855,5.371,-77.148
1690121970.559,-166.992,-58.594,-26.367,97.656,364.258
1690121970.563,33.203,-52.246,-52.734,-36.133,117.188
1690121970.567,71.289,-55.176,-50.781,-171.875,-221.680
1690121970.571,32.227,-58.105,-31.738,-137.207,-157.227
1690121970.575,-119.141,-58.594,-35.645,-9.277,-45.898
1690121970.579,-196.777,-51.758,-38.574,90.820,113.281
1690121970.583,31.250,-41.016,-44.922,-0.488,87.891
1690121970.586,93.750,-47.363,-48.828,-125.488,65.918
1690121970.590,16.113,-53.223,-41.992,-121.094,177.246
1690121970.594,-138.672,-47.852,-44.922,-44.922,-91.309
1690121970.598,-238.281,-41.992,-36.133,74.219,-44.434
1690121970.602,-9.277,-33.203,-43.945,29.785,92.285
1690121970.604,90.820,-34.180,-49.805,-122.070,-188.477
1690121970.608,23.926,-45.410,-41.016,-148.438,-247.559
1690121970.612,-86.914,-48.340,-38.574,-43.457,-71.777
1690121970.616,-224.609,-52.734,-49.316,74.219,149.414
1690121970.620,-32.715,-41.016,-52.246,25.391,109.375
1690121970.624,108.887,-32.715,-46.387,-116.211,-82.031
1690121970.628,38.086,-42.480,-44.434,-151.367,-114.258
1690121970.631,-65.918,-59.570,-35.156,-47.363,279.785
1690121970.635,-225.098,-59.570,-48.828,52.734,386.230
1690121970.639,-77.637,-43.457,-59.570,12.207,-55.176
1690121970.643,101.074,-46.387,-52.734,-107.910,-160.645
1690121970.647,51.758,-54.199,-49.805,-170.898,-205.078
1690121970.648,-60.547,-50.293,-47.852,-112.793,-208.984
1690121970.652,-198.730,-35.645,-39.551,39.062,-66.895
1690121970.656,-61.035,-36.621,-38.574,58.105,86.426
1690121970.660,104.492,-44.434,-54.199,-104.492,-40.527
1690121970.664,60.547,-36.621,-46.387,-178.223,-290.527
1690121970.668,-31.250,-46.387,-30.762,-101.074,-303.711
1690121970.672,-184.082,-65.430,-24.414,66.895,142.578
1690121970.675,-101.562,-48.828,-37.109,92.773,424.805
1690121970.679,81.543,-20.996,-47.852,-96.680,-24.414
1690121970.683,61.523,-29.785,-44.922,-188.477,-260.742
1690121970.687,2.930,-51.758,-46.387,-119.141,-125.488
1690121970.691,-157.227,-57.129,-40.527,19.043,-59.570
1690121970.694,-133.789,-45.898,-32.715,73.242,-15.625
1690121970.698,80.566,-31.250,-29.785,-40.527,-3.906
1690121970.702,68.359,-34.180,-33.203,-152.832,17.090
1690121970.706,-15.137,-36.621,-40.039,-134.766,-125.488
1690121970.710,-159.180,-42.480,-40.527,4.883,-165.039
1690121970.714,-152.344,-44.434,-30.273,109.375,142.578
1690121970.718,52.246,-42.969,-35.156,-6.836,317.871
1690121970.721,53.711,-40.039,-56.152,-179.688,-41.504
1690121970.725,4.395,-33.203,-44.922,-155.762,-374.023
1690121970.729,-121.094,-48.828,-25.391,-5.371,-96.191
1690121970.733,-185.059,-55.176,-34.180,82.520,160.156
1690121970.737,33.691,-47.363,-46.387,-14.648,27.344
1690121970.741,79.102,-49.805,-43.457,-154.785,-179.688
1690121970.745,8.789,-58.105,-33.691,-151.855,-119.629
1690121970.749,-109.863,-51.270,-30.273,-28.809,64.453
1690121970.753,-189.941,-36.621,-46.875,79.102,70.801
1690121970.757,7.324,-33.203,-48.340,6.348,-4.395
1690121970.761,83.496,-35.156,-35.645,-141.113,16.602
1690121970.765,8.789,-44.922,-41.504,-159.180,45.898
1690121970.768,-110.352,-47.363,-48.340,-72.266,-127.441
1690121970.772,-203.125,-46.387,-43.945,64.453,-49.316
1690121970.776,-12.207,-51.270,-41.992,44.922,171.387
1690121970.780,83.008,-51.758,-51.758,-129.883,25.879
1690121970.784,12.695,-47.852,-53.711,-193.848,-296.387
1690121970.800,-85.938,-57.129,-48.828,-83.008,-270.508
1690121970.804,-196.777,-61.523,-40.039,87.891,48.828
1690121970.808,-37.598,-59.570,-41.504,57.617,99.609
1690121970.812,83.008,-53.711,-52.246,-131.348,-240.234
1690121970.816,19.043,-39.551,-51.270,-184.570,-422.363
1690121970.820,-64.941,-45.898,-33.691,-52.246,56.641
1690121970.824,-213.867,-47.852,-33.203,82.520,421.387
1690121970.827,-83.496,-25.879,-45.410,42.969,88.867
1690121970.831,97.168,-27.344,-34.180,-95.703,-109.375
1690121970.835,38.574,-41.016,-35.645,-163.086,-152.832
1690121970.839,-47.852,-40.527,-47.852,-112.305,-210.449
1690121970.843,-198.242,-40.527,-33.203,33.691,-92.285
1690121970.844,-107.910,-54.688,-48.340,81.543,61.523
1690121970.848,78.613,-57.129,-78.125,-76.172,-11.719
1690121970.852,30.762,-44.922,-48.828,-195.312,-219.727
1690121970.856,-44.922,-48.340,-23.926,-136.230,-225.586
1690121970.860,-200.684,-56.641,-21.973,31.738,22.949
1690121970.864,-154.297,-55.664,-31.738,92.773,233.887
1690121970.868,63.477,-54.688,-47.852,-50.293,91.797
1690121970.871,33.203,-45.410,-48.828,-184.082,-177.734
1690121970.875,-26.367,-49.805,-37.598,-145.508,-84.473
1690121970.879,-180.664,-64.453,-38.574,6.836,259.277
1690121970.883,-209.961,-50.781,-54.688,64.453,157.227
1690121970.887,25.879,-43.945,-49.805,-52.734,-52.246
1690121970.889,51.758,-49.805,-43.945,-176.270,-176.270
1690121970.893,-12.207,-51.270,-46.387,-156.738,-208.008
1690121970.897,-158.691,-49.805,-47.363,-18.066,-87.402
1690121970.901,-193.359,-47.852,-36.621,94.238,45.410
1690121970.905,45.898,-54.688,-32.227,6.836,139.160
1690121970.909,85.938,-58.105,-44.434,-150.879,-15.625
1690121970.913,6.348,-57.129,-39.062,-164.062,-194.336
1690121970.916,-135.254,-53.711,-34.180,-26.367,-100.586
1690121970.920,-209.961,-59.082,-29.785,118.652,372.559
1690121970.924,-6.348,-47.363,-49.805,17.578,328.613
1690121970.928,64.941,-32.715,-62.988,-165.039,-250.000
1690121970.932,17.090,-46.875,-37.598,-162.109,-327.637
1690121970.934,-101.562,-44.922,-34.668,-34.180,-184.570
1690121970.938,-206.055,-33.691,-38.574,92.773,-10.254
1690121970.942,-15.625,-44.922,-40.039,23.926,16.113
1690121970.946,78.613,-60.059,-42.480,-135.254,-105.469
1690121970.950,9.277,-62.988,-38.574,-174.805,-229.980
1690121970.954,-94.238,-62.988,-35.645,-50.293,-124.023
1690121970.958,-213.867,-60.059,-38.086,104.980,77.148
1690121970.961,-16.113,-54.688,-34.180,72.754,270.508
1690121970.965,129.883,-44.434,-36.621,-89.844,214.355
1690121970.969,43.457,-31.738,-45.410,-171.875,-213.867
1690121970.973,-74.219,-39.551,-39.551,-90.820,-176.270
1690121970.977,-236.328,-47.363,-40.039,56.152,146.484
1690121970.979,-82.031,-44.434,-46.875,57.129,164.062
1690121970.983,87.891,-45.898,-51.758,-105.469,-65.430
1690121970.987,23.926,-52.246,-46.875,-184.082,-205.566
1690121970.991,-62.988,-48.340,-39.062,-97.656,-82.031
1690121970.995,-221.680,-41.016,-40.039,40.527,74.707
1690121970.999,-116.699,-46.875,-41.016,53.223,94.727
1690121971.003,78.613,-54.688,-39.062,-94.238,-30.762
1690121971.006,39.062,-53.711,-37.109,-185.059,-17.090
1690121971.010,-46.387,-33.691,-42.480,-135.254,-81.055
1690121971.014,-206.543,-33.691,-49.316,6.836,-138.184
1690121971.018,-145.508,-53.711,-55.176,75.195,114.258
1690121971.022,69.824,-48.828,-51.270,-55.176,72.266
1690121971.025,51.758,-43.945,-45.410,-189.453,-149.414
1690121971.029,-25.391,-47.852,-42.969,-158.203,-245.605
1690121971.033,-171.387,-62.012,-29.785,14.648,-54.199
1690121971.037,-160.156,-59.082,-37.109,100.098,172.852
1690121971.041,58.105,-45.898,-53.711,-44.434,-7.812
1690121971.045,56.152,-57.129,-54.199,-172.852,-168.945
1690121971.049,-18.555,-78.613,-40.527,-131.348,-5.371
1690121971.052,-166.504,-75.195,-37.109,-1.953,174.316
1690121971.056,-208.008,-47.852,-45.410,80.078,46.875
1690121971.060,36.133,-38.574,-32.227,-5.859,-62.500
1690121971.064,74.219,-39.062,-30.273,-163.086,-138.184
1690121971.068,-5.859,-41.016,-39.062,-177.246,-180.664
1690121971.069,-138.672,-52.246,-39.062,-39.062,-149.902
1690121971.073,-209.473,-60.059,-34.180,96.191,23.438
1690121971.077,16.602,-59.082,-36.133,19.531,227.539
1690121971.081,86.914,-51.270,-40.527,-145.020,-36.133
1690121971.085,22.949,-39.062,-32.715,-156.250,-319.336
1690121971.089,-101.562,-54.199,-41.504,-39.062,-194.824
1690121971.093,-208.984,-73.242,-47.363,107.422,277.344
1690121971.096,-17.090,-62.500,-52.734,34.180,303.711
1690121971.100,72.754,-46.387,-51.270,-157.715,-280.762
1690121971.104,2.930,-46.387,-39.062,-178.223,-302.246
1690121971.108,-112.793,-49.316,-33.203,-66.406,-147.949
1690121971.112,-231.934,-56.641,-28.809,69.336,-29.785
1690121971.115,-32.227,-60.059,-34.668,40.039,20.020
1690121971.119,108.887,-49.316,-39.062,-108.887,15.625
1690121971.123,23.926,-43.945,-41.016,-174.805,-43.945
1690121971.127,-92.773,-42.969,-32.715,-94.727,-164.062
1690121971.131,-237.793,-52.734,-29.785,71.289,-37.109
1690121971.135,-69.336,-62.012,-37.109,76.172,203.125
1690121971.139,103.516,-55.664,-44.434,-102.539,127.441
1690121971.142,39.551,-43.457,-46.387,-172.363,-71.289
1690121971.146,-61.523,-46.875,-44.922,-95.215,-172.852
1690121971.150,-204.590,-72.754,-38.086,61.523,115.723
1690121971.154,-89.355,-73.730,-52.246,75.195,419.922
1690121971.158,78.613,-50.293,-69.336,-115.234,-27.344
1690121971.174,34.180,-49.805,-49.316,-186.523,-313.477
1690121971.178,-47.852,-55.176,-44.922,-107.910,-177.734
1690121971.182,-196.289,-43.457,-51.758,39.062,18.555
1690121971.186,-124.023,-38.086,-44.434,83.984,58.105
1690121971.190,68.848,-44.434,-39.551,-69.824,-140.625
1690121971.194,40.039,-54.199,-30.273,-167.480,56.152
1690121971.198,-37.598,-51.270,-36.621,-135.254,147.949
1690121971.201,-179.688,-42.480,-41.504,-2.930,-91.309
1690121971.205,-141.113,-40.039,-38.086,94.238,96.680
1690121971.209,61.523,-39.551,-47.852,-38.574,147.461
1690121971.213,36.621,-41.504,-50.781,-190.430,-153.320
1690121971.217,-16.113,-31.738,-35.645,-145.020,-304.199
1690121971.219,-131.348,-39.551,-26.367,12.695,-101.562
1690121971.223,-167.969,-65.918,-42.969,85.449,86.426
1690121971.227,24.902,-63.965,-60.547,-34.180,-50.781
1690121971.231,45.898,-46.875,-49.805,-171.387,-292.969
1690121971.235,-0.488,-35.645,-34.180,-149.414,-272.949
1690121971.239,-118.164,-39.062,-40.039,-16.113,-7.324
1690121971.243,-182.129,-48.340,-48.340,85.449,239.258
1690121971.246,22.461,-47.363,-57.617,-3.418,137.695
1690121971.250,60.547,-40.527,-48.340,-141.113,17.090
1690121971.254,-11.719,-44.922,-37.598,-164.062,19.531
1690121971.258,-136.230,-48.340,-39.551,-64.941,-82.031
1690121971.262,-220.703,-54.199,-33.203,77.148,13.184
1690121971.264,0.000,-55.664,-32.227,28.320,81.055
1690121971.268,77.148,-44.434,-41.016,-138.672,-70.312
1690121971.272,5.859,-39.062,-39.062,-175.781,-298.828
1690121971.276,-90.332,-41.016,-29.297,-55.176,-249.512
1690121971.280,-196.777,-48.340,-37.598,91.797,105.957
1690121971.284,-22.949,-61.035,-61.035,39.551,174.805
1690121971.288,72.266,-57.129,-55.664,-138.184,-84.473
1690121971.291,-0.488,-49.805,-32.715,-194.336,-212.402
1690121971.295,-80.078,-54.199,-20.996,-78.125,30.273
1690121971.299,-218.750,-54.199,-41.992,51.270,164.062
1690121971.303,-60.547,-46.387,-53.711,28.809,-1.953
1690121971.307,87.891,-52.734,-42.480,-113.281,-124.512
1690121971.309,11.230,-55.176,-41.992,-186.523,-193.848
1690121971.313,-70.801,-44.434,-46.875,-109.863,-165.039
1690121971.317,-194.336,-40.039,-49.805,45.898,-80.078
1690121971.321,-56.152,-46.875,-44.922,74.707,167.969
1690121971.325,98.145,-47.363,-49.805,-92.773,98.145
1690121971.329,24.414,-42.480,-46.875,-198.242,-197.754
1690121971.333,-43.457,-41.992,-38.086,-124.023,-214.355
1690121971.336,-167.480,-47.363,-26.855,52.734,157.715
1690121971.340,-80.078,-33.691,-22.949,90.820,376.465
1690121971.344,89.844,-19.531,-45.898,-100.098,-24.902
1690121971.348,44.434,-36.133,-49.805,-213.867,-282.227
1690121971.352,-5.859,-38.086,-48.340,-142.578,-241.211
1690121971.354,-149.414,-33.203,-41.504,5.859,-72.266
1690121971.358,-137.207,-40.039,-33.203,66.406,116.699
1690121971.362,75.195,-30.273,-27.344,-45.898,-1.465
1690121971.366,53.223,-21.973,-6.836,-156.738,63.477
1690121971.370,-37.598,-35.645,-20.020,-164.551,55.176
1690121971.374,-197.754,-32.715,-37.109,-51.270,-123.047
1690121971.378,-232.422,-19.043,-29.785,41.016,77.637
1690121971.381,-26.855,-12.695,-29.785,-81.055,248.047
1690121971.385,-48.828,-10.742,-54.199,-274.414,-1.465
1690121971.389,-109.375,-4.883,-60.547,-287.598,-324.707
1690121971.393,-234.863,-2.441,-37.598,-128.906,-167.969
1690121971.397,-325.195,-15.137,-34.668,-40.527,83.496
1690121971.414,-110.352,-10.254,-38.574,-167.480,2.930
1690121971.418,-64.453,-6.836,-18.066,-314.941,-213.379
1690121971.422,-132.324,-26.367,-17.090,-306.152,-248.047
1690121971.426,-264.648,-20.996,-36.133,-187.988,-75.684
1690121971.430,-338.379,-3.418,-23.926,-48.340,60.547
1690121971.434,-93.262,-10.254,-17.578,-98.633,-12.207
1690121971.438,-8.789,-10.742,-13.184,-233.398,78.613
1690121971.441,-79.590,3.906,-6.836,-243.164,201.172
1690121971.445,-193.848,-17.578,-30.273,-146.484,-84.961
1690121971.449,-288.086,-36.621,-26.367,16.113,-104.004
1690121971.453,-58.105,-27.832,-33.203,9.766,102.051
1690121971.457,62.500,-32.715,-50.293,-154.297,4.883
1690121971.444,5.859,-32.227,-42.969,-198.730,-325.195
1690121971.448,-80.078,-26.855,-30.762,-70.312,-197.754
1690121971.452,-226.562,-35.156,-42.480,82.520,254.883
1690121971.456,-34.180,-28.809,-59.570,63.965,193.848
1690121971.460,136.719,-21.973,-56.152,-91.797,-195.312
1690121971.464,68.359,-36.133,-50.781,-146.973,-175.781
1690121971.468,-13.184,-41.504,-46.387,-45.898,24.414
1690121971.471,-169.434,-41.504,-53.711,97.168,34.668
1690121971.475,-46.875,-45.410,-60.547,104.492,39.551
1690121971.479,149.414,-51.270,-49.805,-35.645,-60.059
1690121971.483,103.516,-56.152,-37.109,-102.539,102.051
1690121971.487,-1.953,-44.434,-52.734,-62.012,111.816
1690121971.490,-166.016,-34.180,-59.082,73.242,-74.707
1690121971.494,-53.223,-43.457,-51.758,128.906,62.012
1690121971.498,154.785,-35.645,-58.105,-24.414,-19.043
1690121971.502,100.586,-24.414,-57.129,-137.207,-224.121
1690121971.506,18.066,-31.250,-49.316,-77.148,-267.578
1690121971.510,-144.043,-56.152,-48.340,78.125,-25.391
1690121971.514,-104.492,-61.035,-60.059,136.719,193.848
1690121971.517,128.906,-44.922,-58.105,-2.441,49.805
1690121971.521,111.328,-36.621,-51.270,-128.418,-250.488
1690121971.525,40.039,-50.293,-35.645,-75.684,-108.887
1690121971.529,-123.535,-60.059,-35.156,61.523,225.098
1690121971.533,-135.254,-51.758,-57.617,117.676,148.438
1690121971.549,110.840,-56.641,-54.688,9.766,-43.457
1690121971.553,114.746,-52.734,-38.574,-107.422,-19.531
1690121971.557,27.344,-42.969,-41.992,-112.305,-74.219
1690121971.561,-117.676,-41.016,-40.039,-0.977,-202.637
1690121971.565,-150.879,-48.340,-40.039,117.188,-20.508
1690121971.569,90.820,-47.363,-43.457,43.945,304.199
1690121971.573,114.258,-33.203,-49.805,-112.793,73.242
1690121971.576,31.250,-42.969,-56.641,-152.832,-347.168
1690121971.580,-100.098,-58.594,-45.898,-27.832,-220.215
1690121971.584,-191.406,-55.664,-43.457,108.398,139.160
1690121971.588,39.062,-42.480,-55.176,22.461,26.367
1690121971.592,113.281,-44.434,-54.688,-140.625,-260.254
1690121971.594,39.062,-62.500,-50.293,-152.832,-214.844
1690121971.598,-79.102,-70.312,-48.828,-31.738,-86.914
1690121971.602,-208.008,-57.129,-51.270,93.262,13.672
1690121971.606,3.906,-36.133,-50.781,42.969,-62.500
1690121971.610,110.352,-33.691,-47.852,-103.027,-76.660
1690121971.614,22.949,-47.363,-49.316,-138.672,-94.727
1690121971.618,-81.055,-47.852,-48.340,-46.387,-107.910
1690121971.621,-218.262,-39.551,-48.340,86.914,16.113
1690121971.625,-27.832,-62.012,-43.945,89.355,235.352
1690121971.629,113.281,-75.195,-47.852,-77.637,216.309
1690121971.633,23.438,-46.387,-57.617,-177.246,-264.648
1690121971.637,-65.918,-43.457,-49.805,-72.754,-282.227
1690121971.639,-195.312,-53.711,-48.828,79.590,20.996
1690121971.643,-36.133,-51.270,-52.246,75.195,212.402
1690121971.647,124.512,-38.086,-45.410,-75.684,61.523
1690121971.651,59.570,-28.809,-41.016,-163.574,-172.852
1690121971.655,-28.809,-43.945,-34.180,-74.707,167.480
1690121971.659,-194.336,-49.805,-38.574,72.754,422.363
1690121971.663,-85.449,-39.062,-50.293,74.219,231.445
1690121971.666,114.258,-35.156,-41.504,-70.312,-0.488
1690121971.670,56.152,-45.898,-36.133,-158.691,26.367
1690121971.674,-34.180,-45.898,-54.688,-121.094,-61.035
1690121971.678,-182.129,-40.527,-53.223,26.855,-197.754
1690121971.682,-122.070,-45.898,-46.875,96.191,21.484
1690121971.684,73.730,-44.434,-50.293,-50.293,15.625
1690121971.688,41.016,-42.480,-43.945,-172.852,-204.102
1690121971.692,-3.906,-48.340,-34.180,-125.488,-269.043
1690121971.696,-146.973,-52.246,-36.621,18.555,-69.824
1690121971.700,-148.438,-52.246,-45.410,93.262,142.090
1690121971.704,63.477,-51.758,-43.457,-24.414,39.551
1690121971.708,44.434,-49.316,-38.086,-163.086,-246.582
1690121971.711,3.418,-57.617,-26.367,-119.141,-61.523
1690121971.715,-121.582,-62.988,-25.879,31.250,352.051
1690121971.719,-180.664,-41.504,-37.109,93.750,174.316
1690121971.723,48.828,-33.203,-34.180,-5.371,-91.309
1690121971.727,72.754,-38.086,-37.109,-153.320,-242.676
1690121971.759,8.789,-41.016,-38.574,-159.180,-266.602
1690121971.763,-102.539,-47.363,-38.574,-7.324,-91.797
1690121971.767,-178.223,-50.781,-41.016,119.629,41.992
1690121971.771,29.297,-52.734,-41.504,22.461,127.441
1690121971.775,69.824,-43.945,-52.246,-160.156,-69.824
1690121971.779,5.859,-53.223,-50.293,-171.875,-330.078
1690121971.783,-100.586,-68.359,-39.062,-40.039,-95.703
1690121971.786,-200.684,-57.129,-36.133,106.934,304.688
1690121971.790,3.418,-40.039,-49.316,40.527,235.840
1690121971.794,74.219,-33.203,-55.664,-146.973,-153.809
1690121971.798,5.859,-37.598,-42.480,-174.805,-288.086
1690121971.802,-84.961,-51.270,-37.598,-63.477,-130.859
1690121971.774,-232.422,-60.547,-49.316,63.965,-23.926
1690121971.778,-45.898,-44.922,-49.805,41.992,-41.992
1690121971.782,86.426,-36.133,-45.410,-123.047,-128.418
1690121971.786,8.301,-41.992,-51.270,-187.988,-239.746
1690121971.790,-82.520,-47.852,-57.129,-91.309,-217.773
1690121971.794,-220.215,-58.594,-45.410,63.965,74.707
1690121971.798,-59.570,-69.336,-42.969,67.383,287.598
1690121971.801,94.727,-54.688,-58.594,-105.469,62.500
1690121971.805,17.090,-33.691,-53.223,-192.871,-258.301
1690121971.809,-59.570,-37.598,-33.691,-98.633,-220.215
1690121971.813,-198.242,-57.129,-32.227,62.988,86.426
1690121971.817,-82.520,-56.152,-53.223,81.543,183.594
1690121971.819,93.262,-44.434,-53.711,-78.125,-81.543
1690121971.823,41.504,-35.645,-32.227,-177.246,-244.141
1690121971.827,-19.531,-37.598,-17.578,-95.215,48.828
1690121971.831,-178.223,-57.129,-25.391,61.523,532.227
1690121971.835,-138.672,-48.340,-51.758,72.754,325.195
1690121971.839,59.082,-36.133,-52.734,-78.125,-28.809
1690121971.843,32.227,-55.664,-44.434,-175.781,94.238
1690121971.846,-35.645,-56.152,-53.223,-151.367,-39.062
1690121971.850,-175.781,-50.293,-50.293,-10.742,-212.891
1690121971.854,-152.832,-53.223,-41.504,86.914,5.371
1690121971.858,62.500,-54.199,-42.480,-30.762,1.953
1690121971.862,61.035,-55.176,-43.945,-168.457,-262.207
1690121971.865,-12.695,-41.992,-43.457,-142.090,-340.332
1690121971.869,-156.250,-46.387,-33.691,17.090,-43.457
1690121971.873,-176.758,-50.781,-33.203,109.375,167.969
1690121971.877,33.203,-37.598,-44.922,-15.625,-12.695
1690121971.881,56.641,-38.086,-43.457,-154.297,-241.211
1690121971.885,1.953,-54.199,-28.809,-124.512,-38.086
1690121971.889,-133.789,-60.547,-30.273,-5.859,294.434
1690121971.892,-199.707,-51.270,-39.551,88.867,138.184
1690121971.896,30.762,-50.293,-41.504,16.602,-51.758
1690121971.900,76.172,-45.410,-41.504,-134.766,-89.355
1690121971.904,-11.230,-38.574,-41.016,-167.969,-199.707
1690121971.908,-125.977,-44.922,-39.062,-60.547,-211.914
1690121971.924,-213.379,-54.688,-33.203,82.031,-15.625
1690121971.928,1.953,-67.871,-29.297,50.781,277.832
1690121971.932,73.242,-58.105,-48.828,-118.652,114.258
1690121971.936,-10.254,-51.758,-60.059,-172.852,-292.480
1690121971.940,-105.957,-51.758,-52.734,-81.543,-210.938
1690121971.944,-210.449,-46.387,-43.945,73.242,317.871
1690121971.948,-29.785,-40.039,-58.105,30.273,389.648
1690121971.951,70.801,-18.555,-68.848,-165.039,-201.172
1690121971.955,-0.977,-22.461,-50.293,-198.242,-300.781
1690121971.959,-97.168,-32.715,-44.434,-94.727,-111.816
1690121971.963,-227.051,-32.715,-49.316,35.156,-17.578
1690121971.967,-62.012,-38.086,-55.176,35.156,-10.742
1690121971.969,88.379,-42.969,-47.363,-110.840,-114.258
1690121971.973,16.602,-34.180,-40.039,-191.406,-241.699
1690121971.977,-78.125,-39.062,-39.062,-110.352,-220.215
1690121971.981,-211.914,-50.293,-36.621,50.293,-18.555
1690121971.985,-65.430,-37.109,-40.039,83.984,105.957
1690121971.989,115.723,-34.180,-49.805,-78.613,48.340
1690121971.993,33.691,-45.898,-50.781,-180.664,-72.754
1690121971.996,-58.105,-40.039,-48.828,-114.258,-204.102
1690121972.000,-172.852,-38.086,-38.086,51.758,104.980
1690121972.004,-96.680,-40.039,-39.551,104.492,484.375
1690121972.008,54.688,-29.297,-61.523,-82.520,33.203
1690121972.012,21.484,-28.320,-48.340,-187.988,-364.258
1690121972.014,-40.527,-38.086,-42.480,-132.812,-296.387
1690121972.018,-173.828,-49.805,-43.457,8.301,-34.180
1690121972.022,-132.324,-48.828,-43.945,87.402,147.461
1690121972.026,68.848,-40.527,-42.969,-41.992,-33.203
1690121972.030,45.898,-43.945,-37.109,-167.969,-105.957
1690121972.034,-23.438,-41.504,-42.480,-148.926,-66.406
1690121972.038,-143.555,-40.527,-39.551,-7.812,-22.949
1690121972.041,-150.391,-44.922,-38.574,96.680,87.402
1690121972.045,57.129,-54.199,-41.504,-1.953,308.105
1690121972.049,47.363,-46.875,-49.316,-158.691,80.566
1690121972.053,-17.578,-33.203,-49.805,-174.316,-390.137
1690121972.057,-119.629,-43.945,-37.598,-21.484,-126.465
1690121972.059,-176.758,-60.547,-51.758,95.215,192.871
1690121972.063,15.625,-53.711,-65.918,-20.508,-42.480
1690121972.067,50.293,-37.109,-47.852,-171.387,-232.910
1690121972.071,-7.812,-36.621,-38.086,-164.062,-216.309
1690121972.075,-121.582,-49.316,-37.109,-41.016,-115.234
1690121972.079,-199.707,-54.199,-41.504,89.844,97.168
1690121972.083,23.926,-44.922,-50.293,24.414,130.371
1690121972.086,83.008,-45.410,-38.574,-135.254,137.695
1690121972.090,2.441,-42.480,-37.109,-171.875,89.355
1690121972.094,-105.469,-42.480,-51.758,-83.496,-163.574
1690121972.098,-208.496,-53.711,-39.062,78.613,-46.875
1690121972.102,-5.859,-49.316,-37.109,55.664,100.098
1690121972.104,83.496,-49.316,-49.316,-125.000,-118.164
1690121972.108,1.953,-55.664,-38.574,-172.363,-286.621
1690121972.112,-84.473,-48.828,-25.391,-63.477,-171.875
1690121972.116,-193.359,-48.828,-24.902,94.238,197.266
1690121972.120,-23.438,-36.133,-40.527,64.941,297.363
1690121972.124,93.262,-28.809,-46.387,-107.910,-112.305
1690121972.128,10.254,-40.039,-42.480,-169.922,-231.445
1690121972.131,-65.430,-49.805,-38.574,-74.707,111.328
1690121972.135,-187.988,-43.945,-31.738,71.289,177.734
1690121972.139,-57.129,-32.715,-38.086,67.871,-53.711
1690121972.143,97.168,-44.434,-45.898,-90.332,-121.582
1690121972.147,13.184,-53.223,-44.434,-189.941,-245.605
1690121972.150,-71.289,-54.688,-44.922,-117.188,-264.160
1690121972.154,-181.641,-61.523,-39.551,42.969,-65.430
1690121972.158,-71.777,-61.523,-34.180,87.402,221.191
1690121972.162,83.496,-55.664,-41.992,-67.871,93.750
1690121972.166,20.508,-57.617,-45.410,-191.895,-268.066
1690121972.170,-33.691,-60.059,-35.156,-125.000,-206.543
1690121972.174,-162.598,-72.266,-33.691,37.598,231.445
1690121972.177,-128.906,-79.102,-48.340,85.938,450.195
1690121972.181,49.805,-58.105,-53.711,-75.684,-5.859
1690121972.185,27.344,-53.223,-44.434,-198.242,-367.676
1690121972.189,-25.879,-65.430,-43.945,-151.367,-230.469
1690121972.193,-155.762,-68.359,-55.664,-17.090,-15.137
1690121972.194,-149.902,-69.336,-53.223,71.777,-14.160
1690121972.198,62.988,-64.453,-49.805,-27.344,-29.297
1690121972.202,59.082,-56.641,-56.641,-172.852,-11.230
1690121972.206,-10.742,-55.176,-51.758,-168.945,-128.418
1690121972.210,-121.094,-56.641,-41.016,-27.832,-146.973
1690121972.214,-149.902,-59.082,-42.969,76.172,53.711
1690121972.218,58.594,-65.918,-41.016,-3.906,406.250
1690121972.221,60.059,-61.523,-41.992,-162.109,246.094
1690121972.225,-26.855,-53.711,-48.828,-190.918,-268.555
1690121972.229,-131.836,-61.523,-41.016,-43.457,-147.949
1690121972.233,-197.754,-60.547,-38.574,94.238,43.945
1690121972.237,12.207,-52.246,-44.434,16.602,-61.523
1690121972.240,60.547,-54.199,-51.758,-151.367,-253.418
1690121972.244,-6.348,-66.406,-46.875,-159.668,-241.699
1690121972.248,-111.816,-73.242,-40.039,-49.316,-132.324
1690121972.252,-224.121,-59.570,-38.574,74.219,13.672
1690121972.256,-7.324,-45.898,-37.598,40.527,10.254
1690121972.260,91.797,-50.781,-37.109,-104.980,21.484
1690121972.264,-3.418,-46.875,-38.086,-150.879,44.434
1690121972.267,-93.750,-38.574,-41.504,-67.871,-21.484
1690121972.271,-208.008,-41.016,-38.574,73.242,-7.324
1690121972.275,-15.137,-43.457,-28.809,82.520,164.551
1690121972.279,110.352,-45.410,-32.715,-77.637,262.207
1690121972.283,19.043,-42.480,-40.527,-171.387,-133.301
1690121972.299,-62.012,-43.945,-38.574,-75.195,-236.816
1690121972.303,-200.195,-49.316,-44.434,72.266,30.762
1690121972.307,-54.199,-39.551,-49.316,66.406,62.988
1690121972.311,99.609,-33.691,-43.945,-94.727,-192.871
1690121972.315,25.879,-48.828,-37.598,-186.523,-308.594
1690121972.319,-50.781,-74.219,-32.715,-100.098,79.102
1690121972.323,-203.125,-70.801,-42.480,38.574,316.406
1690121972.326,-96.680,-36.621,-49.805,58.105,62.012
1690121972.330,95.215,-23.926,-41.504,-68.848,-88.379
1690121972.334,26.367,-33.203,-41.016,-168.945,-42.969
1690121972.338,-60.547,-36.621,-44.922,-135.742,-137.207
1690121972.342,-192.871,-42.480,-37.109,0.977,-163.574
1690121972.344,-117.676,-50.293,-29.785,86.914,122.070
1690121972.348,83.496,-51.758,-33.691,-43.945,130.371
1690121972.352,30.762,-42.969,-46.387,-196.777,-213.867
1690121972.356,-31.738,-42.969,-38.574,-152.832,-260.742
1690121972.360,-158.203,-58.105,-22.461,10.742,-15.625
1690121972.364,-149.902,-64.941,-28.320,91.309,174.805
1690121972.368,50.293,-47.363,-43.457,-45.410,133.301
1690121972.371,38.574,-45.898,-49.316,-189.453,-202.148
1690121972.375,-13.672,-55.664,-36.621,-141.602,-134.766
1690121972.379,-144.043,-45.410,-35.156,-3.418,229.492
1690121972.383,-184.570,-38.086,-48.340,74.219,81.055
1690121972.387,46.875,-50.293,-43.457,-4.883,-104.004
1690121972.389,64.453,-63.477,-40.039,-146.973,-160.645
1690121972.393,-14.160,-62.012,-46.875,-158.691,-155.762
1690121972.397,-128.906,-54.688,-51.270,-38.086,-80.566
1690121972.401,-189.453,-59.082,-41.016,83.008,-20.996
1690121972.405,24.902,-62.500,-33.691,23.926,86.914
1690121972.409,65.430,-53.223,-40.527,-136.230,-58.594
1690121972.413,-9.277,-40.527,-45.898,-163.574,-250.000
1690121972.416,-103.027,-35.645,-41.992,-45.898,-175.293
1690121972.420,-175.781,-45.898,-33.691,99.609,240.723
1690121972.424,11.719,-40.527,-40.527,35.156,207.031
1690121972.428,87.891,-32.227,-43.945,-142.578,-297.363
1690121972.432,4.395,-55.176,-41.016,-172.363,-350.098
1690121972.435,-96.680,-69.824,-36.621,-63.477,-186.523
1690121972.439,-189.453,-54.688,-34.180,79.102,1.953
1690121972.443,-20.508,-49.316,-38.574,53.223,41.504
1690121972.447,88.379,-55.176,-37.598,-104.980,-24.414
1690121972.451,12.207,-54.688,-37.598,-167.969,-121.094
1690121972.455,-80.566,-48.340,-33.691,-83.496,-175.293
1690121972.459,-192.383,-44.922,-32.227,75.195,104.980
1690121972.462,-40.039,-63.965,-36.133,92.773,322.266
1690121972.466,85.938,-72.754,-42.480,-79.590,136.719
1690121972.470,-1.953,-51.270,-45.898,-189.941,-283.203
1690121972.474,-62.500,-49.805,-31.250,-95.703,-301.270
1690121972.478,-180.664,-55.176,-30.762,62.988,-42.480
1690121972.479,-71.777,-44.922,-40.039,85.938,69.824
1690121972.483,100.586,-46.875,-35.645,-50.293,-74.219
1690121972.487,41.504,-46.875,-38.574,-147.949,-238.281
1690121972.491,-32.715,-38.086,-48.340,-98.633,-91.309
1690121972.495,-168.457,-30.273,-52.734,39.062,144.531
1690121972.499,-98.145,-20.996,-48.828,87.402,187.012
1690121972.503,88.379,-20.996,-43.457,-56.641,62.988
1690121972.506,49.805,-44.922,-31.738,-150.879,282.227
1690121972.510,-32.227,-42.969,-38.574,-122.070,224.121
1690121972.514,-160.645,-19.531,-51.758,-7.324,-157.227
1690121972.518,-120.605,-13.184,-44.434,86.426,12.207
1690121972.522,62.988,-7.812,-45.410,-42.969,-24.902
1690121972.524,32.715,-12.695,-47.363,-191.406,-261.719
1690121972.528,-28.809,-22.949,-41.992,-160.156,-358.887
1690121972.532,-140.625,-35.156,-31.250,2.441,-96.680
1690121972.536,-154.785,-30.762,-40.527,102.539,134.277
1690121972.540,38.086,-13.184,-47.852,-18.066,-57.129
1690121972.544,49.316,-14.648,-34.180,-158.691,-166.992
1690121972.548,-4.883,-34.180,-27.832,-140.137,91.309
1690121972.551,-115.723,-55.664,-29.785,-11.230,364.258
1690121972.555,-177.246,-54.199,-42.969,85.938,210.449
1690121972.559,36.133,-41.016,-42.969,9.766,42.969
1690121972.563,83.984,-31.738,-35.156,-131.348,-30.762
1690121972.567,5.859,-26.367,-37.109,-155.762,-135.254
1690121972.569,-108.887,-33.203,-37.598,-43.945,-186.523
1690121972.573,-195.312,-40.039,-35.156,98.145,99.609
1690121972.577,6.348,-45.410,-39.062,41.016,347.656
1690121972.581,86.426,-41.504,-44.922,-135.254,26.855
1690121972.585,10.254,-33.691,-46.387,-177.734,-279.297
1690121972.589,-95.215,-34.668,-42.969,-64.453,-93.750
1690121972.593,-210.938,-42.969,-46.875,81.055,348.145
1690121972.596,-20.508,-28.320,-52.734,35.156,272.949
1690121972.600,104.004,-15.625,-45.898,-132.812,-227.051
1690121972.604,26.855,-30.762,-34.668,-171.875,-228.516
1690121972.608,-70.801,-42.480,-31.250,-79.590,-24.902
1690121972.612,-216.797,-43.945,-39.551,54.199,-2.930
1690121972.614,-51.758,-46.875,-43.457,54.688,-49.805
1690121972.618,116.699,-41.016,-38.086,-86.914,-74.219
1690121972.622,37.598,-41.992,-42.480,-164.062,-183.105
1690121972.626,-64.941,-55.176,-42.969,-101.562,-322.266
1690121972.630,-214.355,-62.012,-42.969,45.410,-166.504
1690121972.634,-79.102,-54.199,-47.852,85.938,189.941
1690121972.638,102.539,-32.227,-58.105,-70.312,136.719
1690121972.641,32.715,-16.602,-65.430,-192.383,-253.906
1690121972.645,-46.387,-20.996,-59.570,-133.789,-295.898
1690121972.649,-189.941,-40.527,-49.805,36.621,51.758
1690121972.653,-116.211,-36.133,-52.246,83.496,190.918
1690121972.657,83.496,-18.555,-55.176,-69.336,-133.789
1690121972.674,49.316,-26.855,-47.852,-170.410,-249.023
1690121972.678,-16.113,-44.434,-43.945,-105.469,63.965
1690121972.682,-166.016,-49.805,-44.434,30.273,263.184
1690121972.686,-146.973,-37.598,-50.781,81.055,13.184
1690121972.690,78.125,-39.062,-47.363,-34.180,-127.930
1690121972.694,74.219,-41.504,-43.457,-149.902,-133.789
1690121972.698,-3.906,-35.156,-42.480,-132.324,-161.133
1690121972.701,-161.133,-34.668,-45.410,-12.695,-135.742
1690121972.705,-164.551,-34.180,-43.457,92.285,23.926
1690121972.709,69.336,-39.551,-47.852,-5.859,148.926
1690121972.713,66.406,-33.691,-50.781,-160.645,-79.102
1690121972.717,-3.418,-31.738,-45.410,-155.762,-271.973
1690121972.719,-129.395,-39.551,-46.387,-22.461,-108.887
1690121972.723,-196.777,-34.668,-49.316,95.703,73.730
1690121972.727,21.484,-29.785,-53.711,10.254,72.754
1690121972.731,62.500,-33.203,-55.664,-151.855,-152.832
1690121972.735,4.883,-44.922,-46.875,-158.203,-147.461
1690121972.739,-96.191,-47.852,-35.645,-19.531,169.434
1690121972.743,-203.125,-39.551,-39.551,92.773,234.863
1690121972.746,4.883,-29.785,-54.199,9.766,5.859
1690121972.750,94.727,-36.133,-45.898,-123.047,-73.242
1690121972.754,1.465,-37.109,-42.969,-156.738,-8.301
1690121972.758,-122.559,-30.273,-54.199,-84.473,-173.828
1690121972.762,-218.262,-37.109,-43.945,68.359,-38.086
1690121972.764,-13.184,-34.180,-45.898,44.434,41.992
1690121972.768,91.797,-27.344,-48.828,-109.375,-98.145
1690121972.772,-0.977,-25.879,-38.574,-166.504,-299.316
1690121972.776,-93.750,-27.832,-30.762,-76.172,-310.059
1690121972.780,-209.961,-41.992,-30.762,72.754,83.984
1690121972.784,-50.781,-42.969,-45.898,53.711,206.543
1690121972.788,84.961,-41.992,-46.875,-108.887,-62.988
1690121972.791,13.184,-45.898,-43.457,-177.734,-258.301
1690121972.795,-71.289,-54.199,-38.574,-82.031,48.340
1690121972.799,-213.867,-50.781,-48.828,50.781,297.852
1690121972.803,-82.520,-31.738,-60.547,48.828,19.531
1690121972.807,91.797,-30.762,-47.852,-74.219,-122.070
1690121972.809,20.508,-33.691,-48.828,-160.645,-244.141
1690121972.813,-67.871,-27.344,-49.805,-104.004,-330.078
1690121972.817,-200.684,-26.855,-38.574,43.945,-149.902
1690121972.821,-100.098,-42.969,-38.086,87.891,114.746
1690121972.825,89.355,-41.016,-42.969,-43.945,-6.348
1690121972.829,45.898,-37.109,-46.387,-155.762,-201.172
1690121972.833,-34.668,-40.527,-51.270,-131.836,-169.922
1690121972.836,-190.918,-51.270,-44.434,14.648,163.086
1690121972.840,-147.949,-53.223,-46.875,88.379,549.316
1690121972.844,64.941,-33.203,-57.129,-58.594,213.379
1690121972.848,54.199,-29.297,-48.340,-170.410,-161.133
1690121972.852,-7.812,-40.527,-42.969,-136.719,-142.090
1690121972.854,-163.086,-35.645,-44.434,-10.254,-14.648
1690121972.858,-174.805,-30.762,-46.387,84.961,116.211
1690121972.862,65.918,-36.621,-48.340,-20.996,116.211
1690121972.866,67.871,-32.715,-46.875,-155.273,83.496
1690121972.870,-4.395,-30.762,-43.945,-149.902,-8.789
1690121972.874,-132.324,-40.527,-39.551,-26.367,-93.750
1690121972.878,-189.453,-48.828,-40.527,87.402,100.586
1690121972.881,49.805,-45.898,-38.086,24.414,370.117
1690121972.885,79.102,-27.832,-50.293,-144.531,89.355
1690121972.889,-2.441,-20.996,-46.387,-168.945,-367.676
1690121972.893,-115.234,-40.039,-24.902,-24.414,-128.906
1690121972.897,-205.566,-45.898,-28.809,93.750,185.547
1690121972.899,14.160,-37.109,-44.434,14.160,8.301
1690121972.903,80.078,-34.668,-44.434,-132.324,-241.699
1690121972.907,4.395,-32.715,-38.574,-153.320,-225.586
1690121972.911,-104.492,-39.551,-35.645,-49.805,-104.004
1690121972.915,-214.844,-51.270,-43.945,77.148,5.859
1690121972.919,-2.441,-44.434,-53.223,41.992,90.820
1690121972.923,115.723,-37.109,-33.691,-90.332,193.359
1690121972.926,20.996,-37.109,-28.320,-144.043,183.105
1690121972.930,-102.051,-30.273,-43.945,-92.285,-155.762
1690121972.934,-211.914,-31.250,-33.203,52.246,-119.629
1690121972.938,-23.926,-31.738,-32.715,49.316,16.602
1690121972.942,100.098,-22.949,-45.898,-111.816,-169.922
1690121972.945,13.672,-23.438,-43.457,-172.852,-238.281
1690121972.949,-79.590,-37.598,-40.527,-94.238,-202.637
1690121972.953,-208.008,-50.781,-32.715,51.758,210.449
1690121972.957,-69.824,-38.086,-40.527,59.082,419.434
1690121972.961,84.961,-27.832,-51.758,-98.145,-30.273
1690121972.965,16.602,-42.969,-41.992,-173.828,-179.688
1690121972.969,-74.219,-45.898,-41.016,-114.746,51.758
1690121972.972,-207.520,-39.062,-47.363,3.418,121.582
1690121972.976,-103.027,-30.273,-52.734,43.945,-15.137
1690121972.980,84.961,-31.250,-46.875,-66.406,-83.008
1690121972.984,35.645,-36.621,-42.480,-171.875,-153.809
1690121972.988,-50.293,-41.016,-44.922,-142.578,-246.094
1690121972.991,-187.988,-48.340,-43.945,-3.906,-149.414
1690121972.995,-126.953,-48.340,-41.992,72.754,136.719
1690121972.999,75.195,-34.668,-41.504,-42.480,30.273
1690121973.003,34.180,-28.320,-42.480,-161.621,-177.734
1690121973.007,-36.133,-34.180,-43.945,-145.020,-245.605
1690121973.011,-148.926,-41.504,-32.227,1.953,63.965
1690121973.015,-125.488,-48.340,-40.527,100.586,547.852
1690121973.018,69.336,-38.086,-59.082,-34.180,159.180
1690121973.022,43.457,-40.039,-42.969,-164.551,-299.316
1690121973.026,-20.508,-44.434,-37.109,-141.113,-284.180
1690121973.030,-150.879,-49.316,-42.480,-19.043,-150.391
1690121973.034,-187.500,-48.828,-43.457,82.031,-55.176
1690121973.049,37.109,-44.434,-43.457,-3.418,-77.148
1690121973.053,51.270,-52.734,-47.363,-146.973,-34.180
1690121973.057,-23.926,-51.758,-48.828,-161.621,-96.680
1690121973.061,-139.648,-47.363,-41.992,-53.223,-173.340
1690121973.065,-202.148,-58.105,-38.574,76.660,-31.250
1690121973.069,35.156,-62.988,-32.227,43.945,337.891
1690121973.073,78.613,-47.363,-35.156,-118.652,322.266
1690121973.076,-20.508,-33.203,-42.480,-174.805,-114.746
1690121973.080,-124.023,-41.992,-34.180,-65.918,-142.578
1690121973.084,-216.797,-53.223,-35.645,65.918,209.473
1690121973.088,-15.625,-38.574,-49.316,4.883,228.027
1690121973.092,76.660,-20.020,-40.527,-145.020,-165.039
1690121973.094,0.488,-23.438,-35.156,-164.062,-270.020
1690121973.098,-96.191,-45.410,-41.504,-75.195,-175.781
1690121973.102,-211.914,-54.199,-42.969,47.363,-71.289
1690121973.106,-22.949,-41.016,-42.480,44.922,-12.207
1690121973.110,85.449,-36.621,-39.551,-104.004,-57.617
1690121973.114,-10.742,-41.992,-47.363,-177.246,-37.598
1690121973.118,-95.703,-46.387,-47.852,-104.492,-34.668
1690121973.121,-226.562,-45.410,-42.480,33.203,-71.289
1690121973.125,-66.406,-47.363,-34.180,66.895,242.676
1690121973.129,90.820,-34.668,-39.062,-78.125,252.441
1690121973.133,9.277,-23.926,-47.852,-183.105,-289.551
1690121973.137,-64.941,-37.598,-32.715,-114.746,-332.520
1690121973.139,-187.988,-45.410,-22.949,36.621,96.191
1690121973.143,-67.383,-32.227,-37.598,66.895,324.707
1690121973.147,102.051,-20.508,-48.340,-92.773,-3.906
1690121973.151,36.621,-37.109,-39.551,-198.730,-294.922
1690121973.155,-26.367,-48.340,-31.250,-137.695,-130.371
1690121973.159,-162.109,-50.781,-36.621,-3.418,114.258
1690121973.163,-92.773,-40.039,-41.992,48.340,173.340
1690121973.166,101.562,-21.484,-39.551,-64.453,28.809
1690121973.170,51.270,-25.391,-35.156,-165.527,-5.371
1690121973.174,-48.340,-26.367,-39.551,-127.441,-53.223
1690121973.178,-194.336,-32.715,-39.062,6.348,-152.344
1690121973.182,-146.973,-44.922,-38.086,85.938,88.379
1690121973.186,53.711,-37.598,-45.410,-20.996,67.871
1690121973.190,20.508,-28.809,-48.340,-161.621,-294.434
1690121973.194,-39.551,-36.621,-39.551,-147.461,-365.234
1690121973.198,-153.809,-40.527,-38.574,-14.648,-78.125
1690121973.202,-179.199,-41.016,-44.922,86.426,72.754
1690121973.206,29.785,-42.480,-48.828,-16.602,-6.348
1690121973.210,49.805,-40.527,-49.316,-160.645,-110.352
1690121973.213,-5.859,-45.410,-31.738,-136.230,-8.301
1690121973.217,-128.418,-53.711,-35.156,-16.113,205.078
1690121973.221,-192.383,-46.387,-50.781,80.566,84.961
1690121973.225,30.762,-34.668,-39.062,23.926,-17.578
1690121973.229,80.078,-28.320,-35.156,-128.906,-106.934
1690121973.230,1.465,-29.297,-32.227,-159.180,-230.957
1690121973.234,-102.539,-35.645,-26.855,-47.363,-157.227
1690121973.238,-184.570,-42.969,-36.621,93.262,127.930
1690121973.242,2.930,-42.480,-48.340,42.480,170.898
1690121973.246,74.707,-41.504,-45.898,-123.047,-70.312
1690121973.250,0.488,-46.387,-39.062,-157.715,-235.840
1690121973.254,-104.004,-52.734,-37.109,-66.406,-200.684
1690121973.257,-216.309,-65.430,-32.227,86.914,273.438
1690121973.261,-40.039,-55.664,-47.852,58.105,431.641
1690121973.265,82.031,-29.297,-55.176,-129.395,-102.539
1690121973.269,24.902,-31.250,-36.133,-163.086,-238.770
1690121973.273,-68.359,-44.434,-32.715,-64.941,-83.008
1690121973.274,-206.543,-45.410,-40.527,61.035,-76.660
1690121973.278,-46.387,-42.969,-34.668,67.383,-62.500
1690121973.282,119.141,-44.922,-28.320,-72.266,-133.301
1690121973.286,40.039,-47.363,-32.227,-146.484,-175.293
1690121973.290,-61.523,-39.551,-31.738,-88.867,-125.000
1690121973.294,-199.219,-38.574,-36.621,50.781,21.973
1690121973.298,-75.195,-40.527,-41.016,98.145,259.277
1690121973.301,103.516,-36.621,-35.156,-43.945,307.129
1690121973.305,27.832,-26.855,-42.480,-179.688,-110.352
1690121973.309,-45.410,-34.180,-42.480,-135.742,-333.008
1690121973.313,-182.617,-50.781,-40.527,23.926,-85.938
1690121973.317,-111.328,-54.688,-47.852,86.914,47.363
1690121973.319,89.355,-47.852,-46.387,-51.270,-106.445
1690121973.323,43.457,-43.457,-39.551,-162.598,-198.730
1690121973.327,-16.602,-41.504,-35.645,-113.281,-38.086
1690121973.331,-166.992,-37.598,-37.598,22.461,26.367
1690121973.335,-141.602,-41.504,-49.316,93.750,-5.371
1690121973.339,91.797,-49.316,-52.246,-13.672,-27.344
1690121973.343,61.523,-60.547,-47.363,-138.672,7.812
1690121973.346,-10.742,-63.965,-54.199,-131.836,2.441
1690121973.350,-149.902,-55.176,-49.805,-11.719,-68.359
1690121973.354,-172.852,-49.316,-32.715,85.449,98.633
1690121973.358,63.477,-41.992,-35.645,-10.254,76.172
1690121973.362,71.289,-35.156,-44.922,-168.945,-173.340
1690121973.365,5.371,-43.945,-43.457,-170.898,-284.668
1690121973.369,-126.465,-59.570,-31.250,-25.879,-74.707
1690121973.373,-198.730,-58.594,-35.156,100.586,307.129
1690121973.377,37.598,-34.668,-56.152,10.742,82.031
1690121973.381,100.586,-28.809,-53.223,-134.766,-294.434
1690121973.385,36.621,-43.945,-35.645,-128.906,-152.832
1690121973.389,-93.262,-44.922,-28.809,-14.160,173.340
1690121973.392,-221.680,-41.016,-47.363,86.914,101.074
1690121973.396,3.418,-46.875,-54.199,41.016,-21.973
1690121973.400,107.910,-58.594,-38.086,-80.566,53.223
1690121973.404,18.066,-49.805,-29.297,-127.930,24.902
1690121973.408,-109.375,-33.203,-35.645,-72.754,-178.223
1690121973.424,-244.629,-48.340,-33.691,55.176,-91.797
1690121973.428,-43.945,-54.688,-34.180,21.484,84.473
1690121973.432,81.055,-42.480,-33.691,-145.996,-45.898
1690121973.436,-16.602,-37.109,-10.742,-201.172,-270.020
1690121973.440,-116.699,-60.059,-15.625,-96.680,-183.594
1690121973.444,-263.672,-87.402,-29.297,59.082,291.992
1690121973.448,-108.887,-69.336,-37.109,38.086,392.090
1690121973.451,51.758,-46.387,-38.086,-127.930,-84.473
1690121973.455,-23.438,-58.594,-19.531,-189.941,-298.828
1690121973.459,-114.258,-68.359,-17.090,-101.562,-100.098
1690121973.463,-265.625,-62.500,-23.438,36.133,92.773
1690121973.467,-126.465,-52.734,-29.785,57.129,107.910
1690121973.469,74.707,-49.316,-24.414,-69.336,36.133
1690121973.473,0.977,-57.129,-16.602,-160.156,-84.961
1690121973.477,-86.914,-55.176,-21.973,-121.582,-230.469
1690121973.481,-226.074,-56.641,-20.996,20.996,-144.043
1690121973.485,-145.996,-64.453,-23.926,89.355,173.828
1690121973.489,63.477,-57.129,-30.762,-32.715,211.914
1690121973.493,21.484,-42.969,-35.156,-160.156,-123.047
1690121973.496,-41.504,-39.551,-35.645,-124.023,-253.906
1690121973.500,-171.875,-60.059,-28.320,44.922,40.039
1690121973.504,-146.973,-65.430,-38.086,115.723,312.012
1690121973.508,65.918,-38.574,-47.852,-37.109,-48.340
1690121973.512,59.570,-33.203,-37.598,-150.391,-329.102
1690121973.515,-2.930,-33.203,-41.992,-116.211,-268.066
1690121973.519,-151.367,-45.898,-46.387,13.672,-7.812
1690121973.523,-186.035,-59.082,-51.270,107.422,204.590
1690121973.527,44.434,-47.852,-57.617,-14.648,13.672
1690121973.531,79.590,-46.875,-44.434,-137.695,-16.113
1690121973.535,12.695,-44.922,-39.551,-125.977,40.527
1690121973.539,-130.371,-40.039,-47.852,-24.414,-134.277
1690121973.542,-196.289,-42.480,-48.828,94.238,-24.902
1690121973.546,39.551,-40.527,-41.504,27.832,238.770
1690121973.550,83.496,-34.180,-46.387,-145.996,-17.090
1690121973.554,10.742,-31.250,-47.852,-173.340,-372.559
1690121973.558,-97.656,-39.062,-33.203,-30.273,-156.738
1690121973.559,-203.613,-45.410,-45.410,102.051,73.242
1690121973.563,18.555,-43.457,-53.711,34.668,22.461
1690121973.567,115.723,-38.574,-41.504,-118.164,-222.168
1690121973.571,30.273,-48.340,-41.992,-139.160,-254.883
1690121973.575,-98.145,-50.781,-50.293,-39.062,-139.160
1690121973.579,-228.027,-43.945,-46.875,83.496,30.762
1690121973.583,-19.531,-37.598,-37.109,38.574,86.426
1690121973.586,123.047,-40.527,-30.273,-104.980,34.668
1690121973.590,46.875,-45.898,-30.762,-144.531,137.695
1690121973.594,-84.961,-39.551,-42.480,-77.148,-7.812
1690121973.598,-247.070,-50.781,-41.016,65.430,-57.129
1690121973.602,-67.383,-54.199,-38.574,55.176,71.289
1690121973.619,101.074,-48.340,-37.598,-101.562,-99.121
1690121973.623,19.043,-50.781,-39.062,-168.457,-233.887
1690121973.627,-74.219,-56.641,-45.898,-93.750,-187.988
1690121973.631,-230.957,-62.500,-48.340,67.383,122.070
1690121973.635,-97.656,-55.176,-53.711,74.219,239.258
1690121973.639,103.027,-49.316,-56.152,-86.426,14.160
1690121973.643,36.621,-59.082,-52.734,-172.852,-140.137
1690121973.646,-47.363,-68.848,-41.016,-95.215,174.805
1690121973.650,-224.121,-60.059,-45.410,36.621,368.652
1690121973.654,-141.113,-43.457,-58.594,56.152,17.090
1690121973.658,106.934,-32.715,-36.133,-56.152,-89.844
1690121973.662,52.734,-33.691,-23.926,-171.387,-251.465
1690121973.649,-39.551,-49.316,-31.250,-143.555,-336.426
1690121973.653,-174.805,-60.547,-37.109,12.695,-135.742
1690121973.657,-144.043,-57.617,-44.922,101.562,95.703
1690121973.661,77.148,-47.363,-43.945,-25.391,21.973
1690121973.665,67.383,-42.969,-42.969,-159.180,-233.398
1690121973.669,-2.930,-60.059,-45.898,-123.535,-204.102
1690121973.673,-159.180,-75.195,-42.969,12.695,138.672
1690121973.676,-183.105,-63.477,-40.527,86.914,203.613
1690121973.680,48.340,-49.805,-35.156,-27.344,-31.250
1690121973.684,62.500,-49.805,-33.691,-168.945,-188.965
1690121973.688,4.395,-57.617,-31.250,-136.230,-86.426
1690121973.692,-137.207,-58.105,-41.504,8.789,277.832
1690121973.694,-205.078,-42.969,-57.617,87.891,137.207
1690121973.698,36.133,-37.109,-39.062,-5.859,-88.379
1690121973.702,89.844,-45.410,-29.785,-145.508,5.371
1690121973.706,9.277,-59.082,-34.668,-160.645,-111.328
1690121973.710,-136.230,-62.500,-33.203,-48.828,-273.438
1690121973.714,-226.562,-56.641,-33.691,88.379,27.832
1690121973.718,5.371,-52.734,-36.133,34.180,413.086
1690121973.721,75.195,-46.875,-46.387,-146.973,82.031
1690121973.725,-8.789,-43.945,-47.363,-196.777,-406.738
1690121973.729,-120.605,-55.176,-37.598,-64.453,-208.984
1690121973.733,-233.398,-61.035,-39.551,87.402,76.172
1690121973.737,-17.090,-57.617,-45.410,44.434,46.387
1690121973.741,96.680,-53.223,-43.945,-130.371,-208.496
1690121973.745,20.996,-51.270,-29.785,-165.527,-226.074
1690121973.749,-80.566,-61.523,-37.598,-57.129,-34.180
1690121973.753,-227.051,-69.336,-59.082,72.754,14.648
1690121973.757,-44.922,-63.477,-54.199,53.711,8.301
1690121973.761,114.258,-69.336,-42.480,-96.191,91.797
1690121973.765,34.180,-72.754,-41.992,-165.039,96.680
1690121973.768,-84.473,-55.664,-58.594,-105.469,-150.391
1690121973.772,-228.516,-49.316,-56.152,52.246,-105.469
1690121973.776,-69.824,-48.340,-44.434,80.078,170.898
1690121973.780,109.863,-40.039,-44.922,-86.426,76.660
1690121973.784,46.387,-41.992,-43.457,-188.965,-286.133
1690121973.799,-57.617,-51.758,-36.621,-98.145,-223.633
1690121973.803,-199.219,-50.293,-32.715,66.406,95.215
1690121973.807,-82.520,-44.434,-38.574,80.566,180.664
1690121973.811,89.844,-37.109,-46.875,-71.289,-22.461
1690121973.815,46.387,-37.598,-44.434,-182.617,-300.293
1690121973.819,-4.395,-57.617,-32.715,-96.680,89.844
1690121973.823,-168.945,-69.824,-36.133,50.781,447.754
1690121973.826,-149.414,-59.570,-43.457,82.031,91.309
1690121973.830,75.195,-48.828,-36.621,-45.410,-93.750
1690121973.834,57.129,-41.504,-40.527,-163.574,-135.254
1690121973.838,-28.320,-41.992,-49.805,-137.695,-241.211
1690121973.842,-172.852,-48.828,-41.016,-1.465,-181.152
1690121973.844,-154.785,-42.969,-26.855,90.332,63.477
1690121973.848,69.336,-26.855,-26.855,-24.902,39.551
1690121973.852,48.340,-9.766,-32.227,-178.223,-240.723
1690121973.856,-17.578,1.465,-30.762,-156.738,-352.539
1690121973.860,-136.719,-3.906,-26.367,6.836,41.016
1690121973.864,-165.039,-0.977,-36.621,107.422,359.863
1690121973.868,54.688,22.461,-38.574,-1.953,139.648
1690121973.871,56.152,34.180,-34.180,-162.109,-171.875
1690121973.875,-4.395,17.090,-33.691,-152.832,-134.766
1690121973.879,-116.699,21.484,-33.203,-9.277,186.523
1690121973.883,-195.312,48.828,-42.480,96.680,111.816
1690121973.887,19.531,41.992,-51.270,17.578,-4.883
1690121973.889,64.941,36.133,-49.805,-151.855,-138.184
1690121973.893,-17.090,41.504,-36.621,-166.504,-195.312
1690121973.897,-131.348,32.715,-34.668,-47.363,-117.676
1690121973.901,-199.219,23.438,-38.574,100.098,21.973
1690121973.905,28.809,25.879,-39.062,60.547,192.383
1690121973.909,88.867,31.250,-47.363,-130.859,52.734
1690121973.913,3.906,40.527,-49.316,-184.570,-211.914
1690121973.916,-84.473,42.480,-50.293,-80.566,-205.078
1690121973.920,-190.918,32.715,-42.480,87.891,275.879
1690121973.924,-16.602,40.527,-58.105,49.805,352.539
1690121973.928,88.867,54.688,-71.289,-144.043,-179.199
1690121973.932,21.973,39.062,-58.594,-190.430,-275.879
1690121973.936,-63.965,21.484,-56.152,-101.074,-194.336
1690121973.940,-194.824,12.695,-61.523,41.992,-108.887
1690121973.944,-50.781,7.324,-68.359,48.340,-23.926
1690121973.948,105.957,9.277,-66.406,-94.238,-68.359
1690121973.952,34.180,14.160,-65.430,-196.289,-200.195
1690121973.956,-66.895,9.766,-65.430,-133.301,-185.059
1690121973.960,-215.332,-8.789,-62.012,32.227,83.496
1690121973.963,-100.586,-20.020,-60.059,75.195,371.582
1690121973.967,94.727,-19.531,-69.824,-78.613,293.945
1690121973.971,37.109,-20.020,-76.172,-211.914,-122.559
1690121973.975,-44.922,-35.645,-66.895,-157.227,-260.254
1690121973.979,-188.965,-43.457,-60.059,13.672,58.594
1690121973.979,-135.254,-35.645,-63.965,68.359,208.496
1690121973.983,74.707,-39.551,-63.477,-76.172,-6.348
1690121973.987,51.270,-55.664,-54.199,-193.848,-145.508
1690121973.991,-22.461,-60.059,-54.199,-162.109,-160.156
1690121973.995,-169.434,-62.500,-61.523,-11.230,-54.199
1690121973.999,-160.156,-69.824,-63.965,73.730,128.906
1690121974.003,49.805,-65.918,-57.129,-49.805,83.984
1690121974.006,43.945,-70.312,-39.062,-167.480,96.191
1690121974.010,-25.391,-73.730,-45.898,-166.504,107.910
1690121974.014,-159.180,-59.570,-59.082,-52.734,-125.977
1690121974.018,-166.016,-68.848,-47.852,77.637,-7.324
1690121974.022,53.711,-65.918,-44.434,-9.766,22.461
1690121974.039,56.641,-48.828,-46.387,-165.527,-209.473
1690121974.043,-17.090,-53.711,-43.945,-168.945,-397.949
1690121974.047,-110.352,-62.012,-33.691,-19.531,-198.242
1690121974.051,-157.227,-57.617,-33.203,105.957,188.965
1690121974.055,49.805,-53.711,-45.410,11.230,55.664
1690121974.059,91.309,-59.570,-41.992,-142.090,-193.359
1690121974.063,8.301,-66.895,-31.250,-156.250,-34.668
1690121974.066,-107.422,-65.430,-36.621,-42.969,177.246
1690121974.070,-199.707,-52.246,-51.758,65.918,49.316
1690121974.074,9.766,-48.828,-43.945,31.738,-43.457
1690121974.078,80.566,-51.758,-38.574,-127.930,-143.066
1690121974.082,-4.395,-54.199,-38.574,-184.570,-244.141
1690121974.070,-89.355,-61.035,-34.180,-69.824,-211.426
1690121974.074,-179.688,-62.988,-36.133,94.727,63.965
1690121974.078,-8.789,-60.547,-39.551,76.660,366.699
1690121974.082,80.566,-52.734,-50.781,-116.699,166.016
1690121974.086,-5.371,-47.852,-49.805,-183.594,-246.582
1690121974.090,-83.984,-76.172,-41.992,-77.148,-153.320
1690121974.094,-182.617,-86.914,-47.852,70.312,151.855
1690121974.097,-33.203,-56.152,-55.664,62.988,112.305
1690121974.101,96.191,-42.969,-48.828,-103.516,-121.094
1690121974.105,26.855,-53.711,-36.621,-176.758,-276.855
1690121974.109,-49.316,-74.219,-28.809,-70.312,75.195
1690121974.113,-181.152,-77.148,-45.410,69.336,228.516
1690121974.129,-57.129,-61.523,-55.664,72.754,-28.320
1690121974.133,105.469,-67.383,-40.527,-71.777,-106.445
1690121974.137,17.578,-67.871,-41.992,-181.152,-257.812
1690121974.141,-51.758,-56.152,-46.387,-128.906,-258.789
1690121974.145,-160.645,-62.988,-37.598,37.598,-111.328
1690121974.149,-72.754,-70.312,-29.297,107.422,234.863
1690121974.153,95.215,-75.684,-41.016,-36.621,357.422
1690121974.156,26.367,-53.711,-45.410,-180.176,-133.789
1690121974.160,-35.156,-47.363,-40.039,-135.742,-339.355
1690121974.164,-141.113,-83.984,-50.293,25.391,-12.207
1690121974.168,-110.352,-80.078,-63.477,90.820,249.023
1690121974.172,65.430,-58.105,-66.406,-60.547,-23.926
1690121974.174,33.691,-60.547,-52.734,-192.383,-284.668
1690121974.178,-20.996,-73.242,-48.828,-160.645,-178.711
1690121974.182,-124.023,-78.613,-49.316,-25.879,-46.875
1690121974.186,-127.441,-69.336,-44.434,75.195,-0.977
1690121974.190,77.148,-65.430,-43.457,-22.461,-10.254
1690121974.194,72.266,-70.801,-42.480,-165.039,-55.664
1690121974.198,-13.184,-72.266,-49.316,-157.227,-24.414
1690121974.201,-127.930,-69.824,-46.875,-18.066,29.785
1690121974.205,-173.340,-63.477,-42.480,99.609,73.730
1690121974.209,33.691,-68.359,-38.574,31.250,336.426
1690121974.213,58.105,-65.430,-46.387,-143.066,245.117
1690121974.217,-38.086,-48.340,-54.688,-185.547,-275.879
1690121974.219,-121.094,-69.336,-36.133,-46.875,-196.777
1690121974.223,-178.711,-83.496,-33.203,89.355,133.301
1690121974.227,2.930,-61.523,-49.805,17.578,46.875
1690121974.231,69.824,-51.758,-51.270,-139.160,-248.047
1690121974.235,-9.277,-61.523,-35.645,-165.039,-289.551
1690121974.239,-103.027,-69.336,-32.715,-64.941,-160.645
1690121974.243,-191.406,-64.941,-40.527,76.172,86.426
1690121974.246,-13.672,-55.664,-46.875,34.180,111.816
1690121974.250,86.426,-68.848,-41.016,-118.164,4.395
1690121974.254,-6.836,-73.242,-37.109,-162.109,110.840
1690121974.258,-110.840,-60.547,-45.898,-101.074,-47.363
1690121974.262,-197.266,-67.383,-42.480,53.711,-82.520
1690121974.264,-35.645,-73.730,-44.922,65.918,84.473
1690121974.268,82.031,-67.871,-46.875,-105.957,40.039
1690121974.272,-3.418,-52.246,-46.875,-187.988,-224.609
1690121974.276,-88.867,-53.711,-40.527,-102.539,-323.242
1690121974.280,-185.547,-69.824,-37.109,51.270,57.617
1690121974.284,-63.477,-68.359,-47.852,61.035,263.184
1690121974.288,80.078,-57.617,-43.945,-98.633,16.602
1690121974.291,16.113,-53.223,-32.715,-186.523,-208.984
1690121974.295,-54.688,-67.871,-33.203,-105.957,20.508
1690121974.299,-187.988,-66.895,-46.387,29.297,210.449
1690121974.303,-93.262,-47.852,-44.434,70.801,40.527
1690121974.307,100.586,-46.875,-33.691,-48.828,-24.902
1690121974.309,36.621,-53.223,-34.668,-165.527,-102.051
1690121974.313,-39.062,-54.199,-33.691,-117.676,-229.004
1690121974.317,-166.016,-57.617,-32.715,27.832,-168.945
1690121974.321,-124.512,-69.824,-41.504,98.145,192.383
1690121974.325,70.312,-69.336,-49.805,-35.156,214.355
1690121974.329,36.133,-62.012,-50.293,-182.617,-133.789
1690121974.333,-20.996,-63.477,-44.922,-150.391,-213.867
1690121974.336,-133.301,-80.078,-36.621,10.742,90.332
1690121974.340,-145.020,-87.402,-41.504,110.840,398.438
1690121974.344,46.875,-63.477,-56.641,-21.973,66.406
1690121974.348,54.199,-54.199,-50.781,-166.016,-304.688
1690121974.352,-15.625,-61.035,-44.434,-153.320,-320.312
1690121974.369,-143.066,-64.453,-44.434,-20.508,-171.875
1690121974.373,-175.293,-68.848,-42.969,103.516,35.645
1690121974.377,47.363,-68.359,-48.340,13.184,68.848
1690121974.381,84.961,-70.801,-38.574,-136.230,98.633
1690121974.385,-0.488,-74.707,-38.086,-151.855,13.184
1690121974.389,-123.047,-73.242,-47.363,-54.199,-145.020
1690121974.393,-196.289,-79.102,-48.828,70.312,52.734
1690121974.396,6.836,-84.961,-47.363,24.414,275.879
1690121974.400,66.895,-73.730,-55.664,-145.996,24.414
1690121974.404,-13.672,-69.824,-58.594,-199.707,-397.461
1690121974.408,-106.934,-92.773,-40.527,-80.078,-236.328
1690121974.412,-212.891,-104.492,-40.527,66.895,39.551
1690121974.399,-20.508,-93.750,-47.363,27.832,-13.672
1690121974.403,99.609,-81.543,-48.340,-131.836,-210.938
1690121974.407,10.742,-85.449,-44.922,-170.898,-262.207
1690121974.411,-96.191,-84.961,-37.598,-79.102,-165.039
1690121974.415,-209.473,-79.590,-36.133,59.570,23.926
1690121974.419,-25.391,-88.379,-44.434,59.570,151.367
1690121974.423,116.699,-90.820,-41.016,-92.285,115.234
1690121974.426,22.461,-82.031,-41.016,-166.504,-25.391
1690121974.430,-79.102,-75.195,-45.410,-97.656,-92.285
1690121974.434,-204.590,-77.148,-40.039,40.527,-13.184
1690121974.438,-49.316,-88.379,-37.598,85.938,227.539
1690121974.442,106.445,-88.867,-50.781,-62.500,363.770
1690121974.444,16.113,-63.477,-59.570,-192.383,-101.562
1690121974.448,-52.246,-68.359,-42.480,-116.211,-268.066
1690121974.452,-188.965,-92.285,-38.574,50.293,143.555
1690121974.456,-107.422,-80.566,-39.551,86.426,185.059
1690121974.460,85.449,-65.918,-40.039,-57.129,-139.160
1690121974.464,42.969,-68.359,-39.551,-166.504,-322.754
1690121974.468,-30.762,-80.566,-28.809,-109.863,-13.672
1690121974.471,-178.711,-81.055,-34.668,25.391,200.195
1690121974.475,-131.836,-56.152,-52.734,68.848,-20.020
1690121974.479,83.008,-46.875,-48.340,-44.434,-98.633
1690121974.483,40.039,-53.711,-42.969,-150.879,-134.766
1690121974.487,-32.715,-57.617,-46.875,-134.277,-271.973
1690121974.489,-150.879,-59.082,-41.992,-1.465,-217.773
1690121974.493,-147.949,-64.941,-45.410,88.867,35.156
1690121974.497,59.570,-71.777,-54.199,-25.879,15.137
1690121974.501,50.293,-63.965,-45.898,-163.574,-214.355
1690121974.505,-19.531,-63.477,-37.598,-160.156,-298.828
1690121974.509,-133.301,-80.078,-34.180,-16.602,87.891
1690121974.513,-163.574,-78.125,-41.504,100.586,482.422
1690121974.516,38.574,-67.383,-54.688,-8.301,209.961
1690121974.520,58.594,-78.613,-52.734,-155.762,-208.496
1690121974.524,-4.395,-100.586,-38.086,-143.555,-144.043
1690121974.528,-120.117,-100.098,-40.527,-31.738,124.512
1690121974.532,-186.523,-75.195,-49.316,77.148,95.703
1690121974.549,32.715,-63.965,-44.434,10.254,-96.191
1690121974.553,90.820,-72.754,-45.898,-129.395,35.645
1690121974.557,-8.301,-77.148,-56.641,-168.945,73.242
1690121974.561,-123.535,-70.312,-57.617,-83.984,-169.434
1690121974.565,-192.383,-75.684,-46.387,72.266,-11.719
1690121974.569,14.648,-86.914,-42.969,55.664,250.488
1690121974.573,86.426,-77.148,-45.898,-113.281,60.547
1690121974.576,-7.812,-57.617,-41.016,-172.852,-353.027
1690121974.580,-85.938,-64.941,-30.762,-70.312,-291.016
1690121974.584,-195.312,-79.102,-40.527,65.430,95.215
1690121974.588,-30.273,-67.871,-56.152,38.086,133.789
1690121974.592,93.262,-52.246,-49.805,-115.234,-197.266
1690121974.594,17.090,-48.340,-32.715,-162.109,-257.324
1690121974.598,-56.641,-45.410,-27.832,-66.895,-111.328
1690121974.602,-194.824,-47.363,-36.621,70.801,-23.438
1690121974.606,-56.152,-48.340,-32.715,77.148,17.090
1690121974.610,104.004,-46.875,-29.785,-76.660,-61.523
1690121974.614,17.090,-55.176,-41.504,-165.039,-121.582
1690121974.618,-62.500,-61.523,-44.434,-104.004,-114.258
1690121974.621,-196.777,-60.059,-41.016,34.180,-33.203
1690121974.625,-77.637,-65.430,-37.598,102.539,252.441
1690121974.629,95.215,-72.266,-38.086,-35.156,291.504
1690121974.633,4.883,-55.176,-44.922,-183.105,-130.371
1690121974.637,-46.387,-53.711,-30.762,-124.023,-248.535
1690121974.639,-177.246,-65.430,-28.809,30.273,-60.547
1690121974.643,-125.000,-63.477,-36.621,92.285,123.535
1690121974.647,71.777,-56.641,-28.320,-36.621,6.348
1690121974.651,8.789,-62.012,-30.273,-176.270,-253.906
1690121974.655,-42.969,-77.148,-32.715,-131.836,-17.578
1690121974.659,-150.879,-83.008,-38.086,13.672,296.387
1690121974.663,-145.996,-77.148,-48.828,83.984,217.773
1690121974.666,52.734,-71.289,-53.223,-21.484,-15.137
1690121974.670,28.320,-82.031,-49.316,-150.391,-34.668
1690121974.674,-33.691,-81.055,-48.340,-148.438,-86.426
1690121974.678,-139.648,-70.801,-49.316,-23.438,-236.816
1690121974.682,-146.484,-75.195,-32.715,102.539,11.719
1690121974.684,51.270,-70.312,-32.227,9.277,41.504
1690121974.688,32.715,-69.824,-47.852,-165.039,-229.492
1690121974.692,-22.949,-67.871,-41.016,-164.062,-322.754
1690121974.696,-112.793,-61.035,-33.203,-28.320,-117.676
1690121974.700,-173.340,-53.223,-38.086,91.797,86.914
1690121974.704,23.926,-49.805,-50.293,21.973,79.102
1690121974.708,55.176,-49.316,-49.316,-140.137,-145.996
1690121974.711,-6.836,-56.152,-34.180,-147.461,-61.035
1690121974.715,-103.027,-73.242,-32.715,-33.203,343.262
1690121974.719,-197.754,-60.547,-43.945,68.359,209.473
1690121974.723,3.906,-48.828,-46.387,27.832,-5.859
1690121974.727,61.523,-50.293,-45.898,-137.207,-126.953
1690121974.729,-23.926,-47.852,-38.086,-187.500,-315.918
1690121974.733,-91.309,-58.594,-40.527,-83.496,-214.355
1690121974.737,-186.523,-66.895,-49.805,64.453,34.180
1690121974.741,-2.930,-52.734,-47.852,55.664,199.707
1690121974.745,96.191,-36.621,-49.316,-114.746,42.480
1690121974.749,6.836,-44.434,-41.992,-171.387,-232.422
1690121974.753,-72.266,-55.176,-38.574,-79.102,-212.402
1690121974.756,-181.152,-79.102,-38.086,75.195,299.805
1690121974.760,-40.039,-67.871,-49.805,74.219,508.789
1690121974.764,74.707,-35.645,-64.453,-109.375,-95.703
1690121974.768,-9.277,-53.223,-46.875,-174.805,-286.133
1690121974.772,-65.918,-65.918,-32.715,-89.355,-146.484
