timestamps,TP9,AF7,AF8,TP10,Right AUX
1692132724.335,-24.902,-26.855,-25.879,-19.531,-126.465
1692132724.339,-25.879,-28.809,-27.832,-23.438,-73.730
1692132724.343,-28.320,-25.391,-25.391,-27.344,-70.312
1692132724.347,-28.809,-28.809,-24.414,-28.809,-149.414
1692132724.351,-28.809,-27.832,-23.438,-15.625,-140.137
1692132724.355,-23.438,-22.949,-21.973,-5.859,33.203
1692132724.359,-17.090,-16.602,-23.438,-17.090,145.996
1692132724.362,-22.949,-12.207,-25.879,-30.762,25.391
1692132724.366,-30.273,-17.090,-24.414,-28.809,-154.297
1692132724.370,-31.738,-24.902,-25.879,-21.484,183.105
1692132724.374,-26.855,-20.020,-26.855,-13.672,216.797
1692132724.378,-22.461,-14.648,-24.902,-14.648,-173.828
1692132724.393,-24.902,-23.926,-28.809,-27.344,-168.457
1692132724.397,-28.809,-27.832,-29.297,-41.504,-72.754
1692132724.401,-41.016,-28.809,-28.320,-45.410,-71.777
1692132724.405,-39.062,-29.297,-29.785,-36.621,-196.289
1692132724.409,-35.645,-29.785,-28.809,-41.016,-30.762
1692132724.413,-44.922,-31.250,-26.855,-49.805,233.887
1692132724.417,-49.805,-25.391,-24.414,-53.711,-20.996
1692132724.420,-47.852,-25.391,-26.367,-51.270,-196.289
1692132724.424,-45.898,-32.715,-27.832,-41.016,18.555
1692132724.428,-41.992,-27.344,-26.855,-35.645,210.938
1692132724.432,-36.133,-18.555,-25.879,-41.992,-55.664
1692132724.436,-34.668,-24.902,-24.902,-48.340,-243.652
1692132724.438,-35.645,-28.809,-24.414,-39.551,-165.527
1692132724.442,-23.926,-24.414,-21.484,-22.461,-70.801
1692132724.446,-17.090,-19.043,-22.949,-19.043,-50.781
1692132724.450,-22.461,-19.531,-24.902,-29.785,-87.402
1692132724.454,-31.738,-29.297,-22.461,-42.480,-128.906
1692132724.458,-29.297,-24.902,-20.996,-41.016,-34.180
1692132724.462,-22.949,-19.531,-23.438,-27.344,52.734
1692132724.465,-34.180,-19.531,-21.484,-20.020,8.789
1692132724.469,-36.621,-24.414,-17.578,-23.926,186.035
1692132724.473,-34.180,-23.926,-17.578,-35.645,104.980
1692132724.477,-36.621,-21.484,-17.090,-32.715,-167.969
1692132724.481,-29.297,-24.902,-19.531,-25.879,-96.191
1692132724.483,-23.926,-24.902,-22.949,-26.855,-28.320
1692132724.487,-24.902,-21.973,-18.066,-32.715,-118.652
1692132724.491,-36.133,-25.391,-17.090,-44.922,-172.363
1692132724.495,-38.574,-28.809,-22.949,-46.387,-59.082
1692132724.499,-35.156,-25.391,-23.926,-27.832,104.492
1692132724.503,-40.527,-22.461,-24.414,-28.320,4.883
1692132724.507,-34.668,-18.066,-25.391,-41.016,-62.012
1692132724.510,-37.598,-20.508,-26.855,-42.969,29.297
1692132724.514,-51.758,-22.949,-27.344,-44.922,66.895
1692132724.518,-41.992,-19.531,-23.926,-29.785,-125.977
1692132724.522,-25.391,-22.949,-21.973,-15.625,-185.547
1692132724.526,-22.461,-17.090,-22.949,-24.414,-68.848
1692132724.528,-25.391,-11.719,-20.020,-39.551,-65.430
1692132724.532,-30.762,-16.113,-21.973,-45.410,-165.527
1692132724.536,-31.250,-19.531,-26.855,-33.203,-147.949
1692132724.540,-23.926,-16.113,-23.926,-15.625,4.395
1692132724.544,-32.227,-18.066,-26.367,-20.996,2.441
1692132724.548,-47.852,-22.949,-27.344,-43.457,-70.801
1692132724.552,-43.945,-24.414,-21.484,-46.875,14.648
1692132724.555,-41.992,-28.809,-24.414,-34.668,269.043
1692132724.559,-40.039,-25.879,-29.297,-33.691,149.902
1692132724.563,-37.598,-27.344,-26.855,-36.621,-181.152
1692132724.567,-41.016,-28.809,-23.438,-37.109,-144.043
1692132724.571,-48.340,-23.926,-23.438,-44.434,-139.648
1692132724.573,-42.969,-20.996,-26.855,-37.109,-211.426
1692132724.577,-31.250,-17.578,-28.320,-19.043,-66.406
1692132724.581,-24.414,-19.531,-26.855,-19.531,119.629
1692132724.585,-26.367,-19.531,-28.809,-37.109,169.922
1692132724.589,-38.574,-11.719,-30.762,-48.828,-36.133
1692132724.593,-36.133,-11.719,-26.367,-39.551,-152.344
1692132724.597,-20.508,-23.926,-22.949,-19.043,99.609
1692132724.600,-17.578,-24.902,-22.461,-21.973,319.824
1692132724.604,-21.484,-12.207,-21.973,-39.551,-8.301
1692132724.608,-24.414,-13.184,-17.090,-47.852,-218.262
1692132724.612,-32.227,-18.066,-19.043,-47.852,-129.883
1692132724.616,-30.762,-16.113,-25.391,-29.297,-94.238
1692132724.618,-27.344,-15.137,-30.762,-24.902,-116.699
1692132724.622,-33.691,-20.996,-31.738,-38.574,-147.949
1692132724.626,-41.016,-24.902,-30.762,-45.410,-132.324
1692132724.630,-35.156,-20.508,-27.832,-40.527,-104.004
1692132724.634,-23.438,-22.461,-26.367,-28.809,-105.469
1692132724.638,-23.438,-26.367,-30.273,-29.297,-101.074
1692132724.642,-39.062,-28.809,-29.785,-40.527,255.859
1692132724.645,-46.387,-24.902,-24.902,-44.922,206.055
1692132724.649,-51.758,-22.461,-24.902,-41.992,-179.688
1692132724.653,-56.641,-27.832,-28.320,-32.715,-60.059
1692132724.657,-50.781,-20.996,-27.344,-20.020,62.988
1692132724.661,-47.363,-17.578,-26.855,-36.133,-74.707
1692132724.663,-50.781,-21.484,-23.438,-55.176,-242.188
1692132724.667,-54.199,-27.344,-23.438,-46.875,-115.723
1692132724.671,-49.316,-32.227,-26.855,-26.855,299.805
1692132724.675,-38.086,-25.391,-28.809,-23.926,146.484
1692132724.679,-39.062,-24.414,-31.738,-38.574,-187.012
1692132724.683,-42.969,-19.043,-31.738,-56.641,65.430
1692132724.687,-37.109,-13.184,-30.762,-64.453,189.941
1692132724.690,-34.668,-16.113,-36.133,-51.758,-95.703
1692132724.694,-31.738,-13.672,-38.574,-44.434,-143.066
1692132724.698,-25.879,-19.531,-36.133,-45.898,96.680
1692132724.702,-34.668,-18.066,-37.109,-48.340,168.457
1692132724.706,-41.016,-10.742,-37.109,-54.199,-147.461
1692132724.725,-31.738,-15.137,-32.715,-43.457,-212.402
1692132724.729,-31.738,-22.461,-28.320,-29.297,-125.488
1692132724.733,-32.227,-20.996,-26.855,-36.621,-127.441
1692132724.737,-38.086,-19.043,-27.832,-55.176,-223.633
1692132724.741,-41.992,-20.020,-26.855,-53.223,-175.781
1692132724.745,-33.691,-15.625,-25.391,-36.621,14.648
1692132724.749,-25.391,-18.066,-25.391,-33.203,39.062
1692132724.752,-15.625,-12.695,-22.949,-31.738,-97.168
1692132724.756,-16.113,-9.277,-17.090,-31.250,-129.883
1692132724.760,-22.949,-16.113,-17.578,-27.344,83.496
1692132724.764,-26.855,-16.113,-21.484,-19.531,68.359
1692132724.768,-30.762,-15.625,-17.090,-9.766,-101.562
1692132724.768,-32.715,-21.973,-17.090,-14.160,-35.645
1692132724.772,-35.645,-18.555,-20.020,-28.809,71.777
1692132724.776,-44.434,-10.254,-18.066,-38.086,-98.145
1692132724.780,-46.387,-15.625,-21.484,-34.180,-172.852
1692132724.784,-39.062,-20.996,-27.344,-28.320,37.598
1692132724.788,-28.320,-16.602,-31.250,-27.832,180.176
1692132724.792,-14.648,-10.254,-30.762,-20.508,55.664
1692132724.795,-23.926,-10.742,-27.832,-30.762,-183.594
1692132724.799,-46.387,-26.367,-25.879,-46.875,-81.543
1692132724.803,-44.922,-33.691,-19.531,-27.344,354.004
1692132724.807,-35.645,-23.438,-16.113,-20.020,144.531
1692132724.811,-35.156,-30.273,-21.484,-43.457,-178.223
1692132724.813,-31.250,-27.344,-21.973,-46.875,-139.648
1692132724.817,-30.762,-21.484,-24.414,-42.480,-86.426
1692132724.821,-24.414,-21.973,-26.367,-33.691,-152.344
1692132724.825,-21.484,-23.438,-20.996,-23.926,-147.949
1692132724.829,-28.320,-24.414,-23.926,-27.344,10.254
1692132724.833,-32.227,-21.484,-30.273,-40.527,-24.902
1692132724.837,-35.645,-20.020,-26.855,-39.551,-106.445
1692132724.840,-36.621,-27.832,-28.320,-26.855,-123.047
1692132724.844,-38.086,-28.320,-24.414,-15.625,104.980
1692132724.848,-37.109,-20.508,-19.531,-24.902,115.723
1692132724.852,-42.480,-25.391,-21.973,-43.457,-226.562
1692132724.856,-44.922,-30.273,-23.926,-46.387,-169.922
1692132724.873,-35.645,-26.855,-22.949,-34.668,-74.707
1692132724.877,-27.832,-23.926,-24.902,-16.602,-90.332
1692132724.881,-24.902,-26.855,-30.273,-19.043,-91.309
1692132724.885,-21.484,-23.926,-28.320,-30.762,11.230
1692132724.889,-24.414,-20.996,-26.855,-31.250,202.637
1692132724.893,-23.438,-18.066,-30.762,-24.902,42.480
1692132724.897,-19.043,-25.879,-31.250,-24.902,-118.652
1692132724.900,-20.508,-31.738,-28.320,-26.855,68.359
1692132724.904,-25.391,-21.973,-31.250,-37.598,159.180
1692132724.908,-30.273,-17.578,-29.297,-45.898,-104.492
1692132724.912,-26.367,-22.461,-24.902,-30.762,-153.809
1692132724.916,-19.043,-23.926,-32.715,-22.461,-78.125
1692132724.903,-19.531,-21.973,-36.621,-30.762,-92.773
1692132724.907,-23.926,-20.996,-32.715,-38.574,-150.391
1692132724.911,-20.508,-16.602,-23.926,-32.715,-170.898
1692132724.915,-18.066,-15.625,-19.531,-21.484,-144.043
1692132724.919,-19.043,-20.996,-23.438,-16.113,-90.820
1692132724.923,-25.879,-27.832,-27.344,-28.320,-11.719
1692132724.927,-31.250,-31.738,-32.715,-47.363,33.691
1692132724.930,-34.180,-34.180,-31.738,-53.223,73.242
1692132724.934,-33.691,-29.297,-29.297,-45.898,7.324
1692132724.938,-32.227,-23.926,-33.691,-36.621,-121.094
1692132724.942,-34.668,-29.785,-34.180,-32.227,-135.742
1692132724.946,-38.574,-35.645,-29.785,-30.762,233.887
1692132724.948,-47.363,-32.715,-25.879,-38.086,212.402
1692132724.952,-48.340,-31.738,-23.926,-36.621,-81.055
1692132724.956,-42.480,-32.227,-26.367,-25.391,67.383
1692132724.960,-34.668,-29.297,-25.391,-15.625,71.289
1692132724.964,-29.297,-23.926,-20.508,-20.508,-113.770
1692132724.968,-31.250,-22.461,-18.555,-28.320,-85.938
1692132724.972,-34.180,-30.273,-29.297,-31.738,204.102
1692132724.975,-37.598,-32.715,-33.203,-26.367,257.812
1692132724.979,-36.133,-22.461,-26.367,-17.090,-32.227
1692132724.983,-37.598,-20.508,-24.414,-24.902,-166.504
1692132724.987,-36.621,-20.508,-20.508,-30.273,-115.723
1692132724.991,-28.809,-15.625,-18.555,-25.391,-107.910
1692132724.993,-27.344,-19.531,-22.461,-14.160,-185.547
1692132724.997,-23.438,-28.320,-24.902,-6.836,-151.855
1692132725.001,-31.250,-33.203,-19.531,-18.555,-108.887
1692132725.005,-40.527,-29.785,-15.625,-25.879,-161.133
1692132725.009,-39.062,-23.438,-22.949,-21.484,-193.359
1692132725.013,-38.574,-24.414,-26.855,-19.043,-129.395
1692132725.017,-33.691,-24.414,-18.555,-11.719,228.516
1692132725.020,-33.203,-15.625,-20.508,-20.996,172.852
1692132725.024,-39.062,-17.090,-25.391,-46.387,-221.191
1692132725.028,-39.551,-26.855,-25.879,-50.293,-188.477
1692132725.032,-26.855,-18.066,-23.438,-29.785,-83.496
1692132725.036,-8.789,-10.254,-13.184,-13.184,-43.945
1692132725.039,-19.043,-23.438,-19.531,-29.785,-124.023
1692132725.043,-48.828,-32.715,-32.715,-63.477,-4.883
1692132725.047,-65.430,-31.738,-31.250,-70.801,303.223
1692132725.051,-64.453,-26.367,-31.250,-62.988,74.707
1692132725.055,-58.105,-32.715,-22.949,-54.199,-171.387
1692132725.059,-63.477,-43.457,-20.020,-61.523,118.652
1692132725.063,-72.266,-41.992,-27.832,-81.543,189.941
1692132725.066,-78.613,-32.715,-21.973,-83.496,-176.270
1692132725.070,-82.031,-33.691,-22.949,-76.660,-258.301
1692132725.074,-78.613,-43.945,-25.391,-76.172,-78.125
1692132725.078,-81.055,-41.992,-21.484,-88.867,-34.668
1692132725.082,-88.379,-32.227,-17.578,-104.004,-170.410
1692132725.086,-114.258,-36.621,-14.160,-125.488,-201.660
1692132725.090,-128.418,-48.340,-15.625,-125.488,-133.789
1692132725.094,-111.328,-53.711,-13.672,-103.027,-107.910
1692132725.098,-99.609,-51.270,-10.254,-97.168,-128.418
1692132725.102,-99.121,-39.551,-13.672,-115.234,-133.301
1692132725.106,-96.680,-33.203,-21.484,-124.023,123.047
1692132725.110,-85.938,-25.879,-27.832,-108.887,185.547
1692132725.113,-74.219,-20.996,-26.367,-82.520,-97.656
1692132725.117,-70.312,-31.738,-21.973,-68.359,-99.609
1692132725.121,-59.082,-29.297,-23.926,-77.148,55.664
1692132725.125,-53.711,-23.438,-29.297,-84.473,-65.918
1692132725.129,-53.223,-29.297,-36.133,-72.754,-187.012
1692132725.143,-43.945,-30.762,-35.645,-44.434,-107.422
1692132725.147,-31.250,-25.879,-30.762,-29.297,6.836
1692132725.151,-24.414,-18.555,-25.391,-40.039,-5.859
1692132725.155,-28.809,-23.438,-27.832,-45.410,-145.508
1692132725.159,-24.902,-34.180,-33.203,-28.809,7.812
1692132725.163,-14.648,-26.855,-33.691,-1.953,533.691
1692132725.167,-6.836,2.441,-26.855,5.371,382.812
1692132725.170,-8.301,0.977,-20.996,-4.883,-160.645
1692132725.174,-19.043,-26.367,-22.949,-12.207,-58.594
1692132725.178,-29.785,-33.691,-23.926,-23.926,-25.879
1692132725.182,-25.391,-20.996,-20.996,-23.926,-229.004
1692132725.186,-27.344,-29.785,-34.180,-32.715,-152.832
1692132725.188,-50.781,-40.039,-50.781,-60.059,-91.309
1692132725.192,-60.547,-35.645,-46.875,-76.172,-117.188
1692132725.196,-65.430,-58.105,-42.480,-80.566,-170.898
1692132725.200,-77.637,-64.941,-46.387,-83.984,-170.410
1692132725.204,-78.125,-49.316,-44.434,-83.008,-41.992
1692132725.208,-76.172,-47.852,-38.086,-81.055,7.324
1692132725.212,-79.102,-38.086,-39.551,-91.797,-20.020
1692132725.215,-82.520,-27.832,-39.062,-92.285,-5.371
1692132725.219,-80.566,-34.668,-33.203,-69.336,246.094
1692132725.223,-62.988,-37.598,-31.738,-49.316,272.461
1692132725.227,-49.316,-25.391,-33.203,-50.293,-135.254
1692132725.231,-51.270,-23.438,-35.645,-57.129,-143.555
1692132725.233,-51.758,-33.203,-40.527,-59.082,-91.797
1692132725.237,-31.250,-40.527,-43.945,-36.621,-129.883
1692132725.241,-9.277,-36.133,-42.969,-13.672,-132.324
1692132725.245,4.395,-33.203,-42.480,-5.859,-37.109
1692132725.249,7.812,-31.250,-43.945,0.000,50.293
1692132725.253,13.672,-27.832,-37.598,2.441,-60.547
1692132725.257,28.809,-36.621,-35.645,14.160,-78.125
1692132725.260,30.762,-40.039,-43.945,28.809,57.617
1692132725.264,24.902,-23.438,-43.945,29.785,258.789
1692132725.268,21.973,-17.090,-36.133,27.344,31.738
1692132725.272,23.926,-35.156,-42.969,23.926,-191.406
1692132725.276,27.344,-51.270,-48.828,28.320,-50.293
1692132725.278,25.391,-59.570,-46.387,35.156,-4.883
1692132725.282,22.461,-59.082,-56.641,28.809,-156.250
1692132725.286,29.297,-51.270,-59.570,20.508,-95.215
1692132725.290,29.785,-62.500,-50.781,6.836,-73.242
1692132725.294,20.020,-81.055,-46.875,2.441,-132.324
1692132725.298,20.508,-77.637,-50.293,15.625,-93.750
1692132725.302,22.461,-77.637,-51.270,20.508,-34.180
1692132725.305,17.578,-94.238,-60.059,6.348,247.070
1692132725.309,6.348,-91.797,-62.988,-13.672,145.996
1692132725.313,4.395,-85.938,-55.176,-15.137,-219.238
1692132725.317,18.555,-78.613,-46.387,11.230,-83.496
1692132725.321,28.809,-74.219,-44.922,25.879,61.523
1692132725.323,29.297,-79.102,-43.457,21.973,-47.363
1692132725.327,16.602,-82.031,-44.922,12.207,-116.699
1692132725.331,1.953,-87.891,-52.246,3.418,-22.949
1692132725.335,1.953,-100.098,-57.129,19.531,154.297
1692132725.339,13.672,-98.633,-60.059,25.879,-16.602
1692132725.343,12.695,-89.355,-53.223,11.230,-132.324
1692132725.347,-0.488,-93.262,-45.410,5.371,70.801
1692132725.350,-0.488,-91.309,-58.594,10.742,146.973
1692132725.354,-3.906,-88.867,-71.289,12.695,-123.047
1692132725.358,-2.441,-89.355,-67.871,20.020,-229.004
1692132725.362,9.277,-79.590,-64.453,13.672,-177.734
1692132725.366,-1.465,-81.055,-64.453,-7.812,-165.527
1692132725.370,-12.207,-85.938,-69.824,-10.254,-183.594
1692132725.374,-11.719,-98.145,-67.383,4.395,-124.023
1692132725.378,-9.277,-104.492,-60.547,10.742,25.391
1692132725.382,-13.184,-101.074,-74.707,1.953,-39.551
1692132725.386,-19.531,-113.281,-80.078,-11.230,-167.969
1692132725.390,-32.715,-139.160,-74.219,-21.973,-196.289
1692132725.394,-34.180,-130.371,-70.312,-7.324,224.121
1692132725.397,-29.785,-107.422,-73.242,-1.465,300.781
1692132725.401,-38.086,-122.559,-95.215,-19.043,-162.598
1692132725.405,-45.410,-144.531,-121.094,-40.527,-174.805
1692132725.409,-45.898,-144.043,-128.418,-52.246,-124.023
1692132725.413,-42.969,-135.742,-121.582,-38.574,-171.875
1692132725.413,-43.945,-137.695,-121.094,-34.180,-195.312
1692132725.417,-37.109,-143.066,-124.023,-40.039,17.578
1692132725.421,-36.133,-140.625,-119.629,-47.363,140.625
1692132725.425,-46.875,-137.695,-117.676,-51.270,-59.570
1692132725.429,-42.969,-152.344,-113.281,-39.062,-96.680
1692132725.433,-33.203,-168.457,-100.098,-22.461,160.156
1692132725.437,-28.320,-160.645,-87.891,-11.719,471.191
1692132725.440,-24.414,-139.648,-67.383,-18.555,131.348
1692132725.444,-29.785,-145.508,-42.969,-22.949,-225.586
1692132725.448,-34.668,-171.875,-38.086,-20.020,-133.301
1692132725.452,-29.297,-245.117,-1.465,-15.137,-82.520
1692132725.456,-27.344,-319.824,90.332,-8.789,-129.395
1692132725.460,-29.297,-332.520,136.719,-17.578,-109.375
1692132725.464,-27.344,-328.125,156.250,-29.297,-102.539
1692132725.468,-26.367,-333.496,181.641,-24.414,-160.645
1692132725.472,-26.367,-346.680,195.312,-13.672,-170.898
1692132725.476,-24.902,-341.797,200.195,-9.277,-88.867
1692132725.480,-25.391,-331.055,210.449,-21.973,-6.348
1692132725.484,-34.180,-319.824,223.145,-41.992,4.395
1692132725.487,-44.434,-300.293,232.910,-38.574,-55.176
1692132725.491,-38.574,-276.855,236.328,-22.949,-95.703
1692132725.495,-27.832,-239.258,242.676,-12.207,220.215
1692132725.499,-25.879,-273.926,248.535,-28.809,191.895
1692132725.503,-30.762,-333.984,242.676,-49.805,-207.031
1692132725.518,-32.715,-330.566,232.422,-41.504,-200.684
1692132725.522,-34.668,-321.289,240.723,-31.738,-78.125
1692132725.526,-28.320,-328.125,250.977,-21.484,-80.566
1692132725.530,-18.066,-339.844,229.492,-17.090,-222.168
1692132725.534,-29.785,-344.238,190.430,-33.203,-104.492
1692132725.538,-45.410,-342.285,157.227,-39.062,239.746
1692132725.542,-39.551,-324.707,170.410,-21.484,111.816
1692132725.545,-34.180,-337.402,190.918,-19.531,-128.418
1692132725.549,-27.344,-362.793,191.406,-23.438,56.152
1692132725.553,-34.180,-352.539,189.941,-31.738,217.773
1692132725.557,-40.527,-320.801,195.312,-39.062,-65.918
1692132725.561,-30.762,-282.227,201.172,-23.438,-172.852
1692132725.563,-32.715,-248.047,190.430,-23.438,-41.992
1692132725.567,-34.180,-222.168,187.012,-32.715,-24.414
1692132725.571,-22.461,-197.266,190.430,-26.367,-167.480
1692132725.575,-11.719,-186.035,175.781,-12.695,-171.875
1692132725.579,-14.648,-166.504,145.508,-16.602,-30.762
1692132725.583,-26.855,-116.699,133.789,-36.133,27.344
1692132725.587,-35.156,-85.449,120.117,-51.270,10.254
1692132725.590,-21.484,-89.844,65.918,-44.922,-83.984
1692132725.594,-17.578,-103.027,46.875,-29.785,107.422
1692132725.598,-22.461,-105.469,49.316,-24.414,135.254
1692132725.602,-22.949,-134.277,6.348,-20.996,-209.961
1692132725.606,-37.109,-180.664,-33.691,-32.715,-60.059
1692132725.608,-38.574,-254.883,-133.301,-41.016,74.707
1692132725.612,-33.203,-391.602,-208.984,-34.180,-57.617
1692132725.616,-43.457,-463.379,-192.383,-37.109,-99.121
1692132725.620,-38.574,-607.422,-266.602,-23.926,-40.527
1692132725.624,-37.109,-808.594,-364.746,-28.809,183.105
1692132725.628,-52.246,-858.398,-364.258,-62.500,53.223
1692132725.632,-56.152,-925.293,-362.793,-65.430,-182.129
1692132725.635,-59.082,-998.535,-305.176,-46.875,-39.062
1692132725.639,-58.594,-1000.000,-250.488,-34.180,156.250
1692132725.643,-63.477,-999.023,-187.988,-55.664,-111.816
1692132725.647,-57.617,-1000.000,-73.242,-62.988,-254.883
1692132725.651,-75.684,-1000.000,-53.223,-77.148,-170.410
1692132725.669,-116.699,-1000.000,-73.242,-109.375,-171.387
1692132725.673,-97.168,-1000.000,-88.379,-90.332,-186.523
1692132725.677,-69.824,-1000.000,-261.719,-76.172,-81.055
1692132725.681,-78.125,-1000.000,-424.805,-90.820,32.227
1692132725.685,-94.238,-1000.000,-436.035,-112.305,-56.152
1692132725.689,-107.422,-1000.000,-492.676,-125.488,-103.027
1692132725.693,-98.633,-1000.000,-756.348,-113.281,-16.113
1692132725.696,-81.055,-1000.000,-984.863,-93.750,210.938
1692132725.700,-85.938,-1000.000,-999.512,-98.633,135.254
1692132725.704,-108.398,-1000.000,-995.117,-125.000,-255.859
1692132725.708,-106.445,-1000.000,-1000.000,-112.305,-240.723
1692132725.712,-102.539,-1000.000,-1000.000,-99.121,-119.141
1692132725.698,-93.750,-1000.000,-1000.000,-96.680,-157.227
1692132725.702,-74.707,-1000.000,-1000.000,-93.262,-151.367
1692132725.706,-78.125,-1000.000,-1000.000,-104.004,65.918
1692132725.710,-87.402,-1000.000,-1000.000,-106.934,138.184
1692132725.714,-78.125,-1000.000,-1000.000,-88.379,-80.078
1692132725.718,-65.918,-1000.000,-1000.000,-79.590,-46.387
1692132725.722,-70.312,-1000.000,-1000.000,-85.449,117.676
1692132725.725,-67.871,-1000.000,-1000.000,-91.797,38.574
1692132725.729,-69.824,-1000.000,-1000.000,-94.727,-149.902
1692132725.733,-62.988,-1000.000,-997.559,-74.219,-187.500
1692132725.737,-50.293,-990.723,-1000.000,-54.688,43.945
1692132725.741,-50.781,-1000.000,-952.148,-58.105,356.445
1692132725.743,-59.570,-907.227,-873.047,-76.660,63.477
1692132725.747,-60.547,-566.406,-838.379,-84.473,-225.586
1692132725.751,-41.504,-229.492,-781.250,-61.523,-137.207
1692132725.755,-43.457,65.918,-765.137,-53.223,-89.844
1692132725.759,-55.176,354.980,-818.359,-63.965,-106.445
1692132725.763,-40.039,574.219,-862.305,-60.547,-79.102
1692132725.767,-44.434,699.707,-878.418,-62.012,205.566
1692132725.770,-58.594,812.012,-824.219,-67.383,299.805
1692132725.774,-55.176,927.734,-747.070,-60.547,-73.730
1692132725.778,-28.809,970.703,-743.164,-41.992,-104.004
1692132725.782,-11.719,964.844,-720.215,-34.668,21.973
1692132725.786,-43.457,967.773,-649.414,-60.059,-93.262
1692132725.788,-56.641,967.773,-602.539,-67.383,-177.246
1692132725.792,-39.551,967.773,-595.215,-41.016,14.648
1692132725.796,-39.062,967.773,-589.844,-42.480,186.523
1692132725.800,-46.387,968.750,-602.539,-62.012,-52.246
1692132725.804,-49.805,958.984,-630.371,-60.059,-199.707
1692132725.808,-42.480,978.027,-664.551,-42.480,75.684
1692132725.812,-38.086,908.691,-696.289,-36.133,286.133
1692132725.815,-29.297,639.648,-728.516,-28.809,0.488
1692132725.819,-27.832,526.367,-769.043,-32.715,-254.883
1692132725.823,-41.504,535.645,-787.598,-42.480,-6.348
1692132725.827,-44.922,495.117,-804.688,-37.598,130.859
1692132725.831,-25.391,588.379,-815.430,-18.555,-148.438
1692132725.848,-20.020,773.926,-830.078,-13.184,-132.324
1692132725.852,-22.461,864.746,-820.801,-19.043,-66.895
1692132725.856,-22.461,897.949,-799.316,-29.297,-129.395
1692132725.860,-22.949,952.148,-770.020,-31.738,-200.684
1692132725.864,-12.695,969.727,-712.891,-14.160,-146.973
1692132725.868,-20.508,966.309,-652.344,-14.648,8.789
1692132725.872,-24.414,967.285,-584.961,-25.879,51.270
1692132725.875,-5.371,965.820,-536.621,-18.066,-111.328
1692132725.879,0.488,970.703,-530.273,-12.695,-147.949
1692132725.883,10.254,930.664,-497.070,4.883,111.328
1692132725.887,1.953,867.676,-429.199,-1.953,130.859
1692132725.891,-3.418,838.867,-354.004,-22.949,-114.746
1692132725.893,7.324,801.758,-280.762,-19.531,-22.949
1692132725.897,13.672,769.043,-234.375,-11.719,115.723
1692132725.901,17.578,760.254,-195.312,0.977,-52.734
1692132725.905,23.926,774.414,-140.625,16.113,-185.547
1692132725.909,18.066,714.844,-109.375,10.254,-2.930
1692132725.913,6.836,629.395,-79.102,3.418,246.582
1692132725.917,9.766,614.258,-54.199,4.883,40.527
1692132725.920,10.742,591.797,-46.387,8.789,-194.336
1692132725.924,-1.953,565.918,-42.969,10.742,21.973
1692132725.928,-9.766,535.645,-46.387,6.836,243.652
1692132725.932,-2.441,514.648,-41.016,-0.977,-83.984
1692132725.936,-8.789,501.465,-27.832,-6.836,-229.980
1692132725.938,-8.789,459.473,-19.531,4.883,-177.246
1692132725.942,1.465,406.250,-43.457,22.949,-114.746
1692132725.946,4.395,358.887,-74.219,20.508,-8.301
1692132725.950,8.789,309.570,-89.844,16.113,-18.555
1692132725.954,6.836,252.441,-80.078,19.043,-16.602
1692132725.958,11.230,213.867,-72.754,28.809,9.277
1692132725.962,27.832,189.453,-82.031,48.828,-8.301
1692132725.965,32.715,154.785,-88.867,48.828,-96.191
1692132725.969,22.461,110.352,-110.840,34.180,90.820
1692132725.973,18.066,125.977,-132.812,21.973,95.215
1692132725.977,20.996,121.582,-184.570,23.926,-230.469
1692132725.981,16.113,67.383,-222.656,34.180,-182.129
1692132725.983,7.812,46.875,-238.770,25.879,-100.586
1692132725.987,0.488,-3.418,-255.859,13.672,-88.379
1692132725.991,1.953,14.160,-235.352,10.254,-192.383
1692132725.995,2.441,25.879,-229.492,14.648,-103.027
1692132725.999,-4.395,-27.344,-242.676,18.555,105.469
1692132726.003,-2.930,-10.742,-235.840,10.742,-20.996
1692132726.007,-21.484,12.695,-250.977,-23.926,-95.215
1692132726.010,-25.391,39.551,-270.020,-30.762,79.590
1692132726.014,-21.484,47.852,-230.957,-6.348,335.449
1692132726.018,-31.250,48.828,-222.168,-5.859,43.457
1692132726.022,-11.719,60.547,-242.676,-3.418,-258.789
1692132726.026,7.812,81.055,-185.547,-1.465,-156.250
1692132726.028,-1.953,106.445,-143.066,-15.625,-126.465
1692132726.032,-6.836,10.742,-174.316,-15.137,-182.129
1692132726.036,4.883,-94.238,-173.828,10.742,-122.559
1692132726.040,15.625,-100.098,-153.809,22.949,-12.695
1692132726.044,18.555,-60.547,-139.160,14.648,-37.109
1692132726.048,13.672,5.859,-120.117,12.207,-75.684
1692132726.052,8.301,28.809,-77.148,21.484,-129.883
1692132726.055,0.000,-0.488,-68.359,24.414,207.520
1692132726.059,3.418,4.883,-103.516,30.762,293.457
1692132726.063,5.371,16.602,-115.723,26.855,-127.441
1692132726.067,-6.836,19.043,-129.883,9.766,-136.230
1692132726.071,-3.906,51.758,-116.211,7.812,-58.594
1692132726.073,-0.488,70.801,-90.820,11.719,-124.023
1692132726.077,1.465,77.637,-63.477,14.648,-106.934
1692132726.081,5.859,104.980,-54.199,19.043,2.930
1692132726.085,-3.906,107.422,-53.711,8.789,62.500
1692132726.089,-8.301,104.492,-30.762,-4.883,-85.938
1692132726.093,9.277,95.703,2.441,10.254,-164.551
1692132726.097,19.531,93.262,-26.855,13.672,101.074
1692132726.100,7.812,132.812,-54.688,8.301,320.801
1692132726.104,-5.859,145.508,-32.715,3.906,-4.395
1692132726.108,-15.137,104.492,-31.250,-4.395,-201.660
1692132726.112,-19.043,93.750,-33.203,0.488,-89.355
1692132726.116,-12.207,120.117,-31.738,13.672,-42.969
1692132726.133,-4.883,166.016,-24.902,6.348,-119.141
1692132726.137,3.418,184.570,-4.395,0.977,-140.625
1692132726.141,-2.441,152.832,-27.344,-4.395,-75.195
1692132726.145,-13.672,135.742,-51.758,-11.719,-119.141
1692132726.149,-3.906,162.598,-33.203,5.859,-160.156
1692132726.153,14.648,172.363,1.465,32.715,-31.738
1692132726.157,18.066,192.871,-81.543,32.715,273.438
1692132726.160,17.090,247.559,-276.367,7.812,182.129
1692132726.164,6.836,250.000,-374.023,-6.348,-155.273
1692132726.168,1.465,240.234,-408.691,4.883,-133.789
1692132726.172,24.902,236.816,-424.805,25.391,-84.473
1692132726.176,27.832,264.160,-405.273,20.996,-126.465
1692132726.164,13.672,283.203,-374.023,4.395,-159.668
1692132726.168,23.438,272.461,-330.566,19.043,52.246
1692132726.172,24.902,267.090,-290.039,28.809,332.520
1692132726.176,23.926,273.438,-270.996,26.367,61.523
1692132726.180,30.762,288.574,-249.512,20.020,-201.172
1692132726.184,30.762,277.344,-209.473,12.695,-3.906
1692132726.188,25.391,248.047,-182.129,12.695,145.020
1692132726.191,19.043,232.422,-189.941,21.484,-31.250
1692132726.195,21.973,221.191,-190.918,26.855,-200.684
1692132726.199,23.926,197.754,-169.922,26.855,27.832
1692132726.203,15.625,182.129,-156.738,17.578,203.125
1692132726.207,13.184,181.641,-150.879,14.160,-119.141
1692132726.210,14.160,162.109,-147.949,28.809,-206.543
1692132726.214,23.926,132.324,-136.719,32.227,-96.191
1692132726.218,30.273,106.934,-126.953,28.320,-87.891
1692132726.222,27.344,93.262,-128.906,19.531,-104.004
1692132726.226,40.039,65.918,-103.516,23.438,-177.246
1692132726.230,29.785,10.742,-105.957,32.227,184.570
1692132726.234,24.902,-22.461,-131.348,41.016,283.203
1692132726.237,35.156,-40.039,-129.395,49.316,-130.371
1692132726.241,33.691,-72.754,-133.789,37.109,-209.961
1692132726.245,40.527,-100.098,-144.043,29.297,-40.039
1692132726.249,70.801,-120.117,-141.113,60.547,-109.863
1692132726.253,84.961,-181.641,-143.555,79.102,-225.098
1692132726.268,58.105,-271.484,-186.035,54.688,-105.469
1692132726.272,62.988,-328.613,-179.688,47.363,-62.500
1692132726.276,181.641,-314.453,-75.684,160.156,-107.910
1692132726.280,255.371,-339.844,-36.621,259.277,-198.730
1692132726.284,147.949,-451.172,-109.375,171.387,-9.766
1692132726.288,96.191,-539.551,-181.152,107.422,224.609
1692132726.292,395.508,-433.105,12.207,408.691,75.195
1692132726.295,422.363,-414.551,77.637,451.660,-66.406
1692132726.299,36.621,-606.445,-100.098,70.312,49.316
1692132726.303,-146.484,-744.141,-126.465,-115.234,327.637
1692132726.307,-162.109,-775.879,-88.379,-149.902,45.898
1692132726.311,-66.895,-758.301,20.508,-61.523,-208.984
1692132726.313,-17.090,-859.863,149.902,-5.371,-121.094
1692132726.317,-25.879,-938.965,292.969,-13.184,-146.484
1692132726.321,-3.418,-869.629,552.246,17.578,-163.086
1692132726.325,60.059,-677.734,874.512,91.309,-96.680
1692132726.329,359.863,-278.320,975.098,401.855,-83.008
1692132726.333,553.711,181.152,958.984,598.633,-49.805
1692132726.337,608.887,487.305,968.262,646.973,34.180
1692132726.340,656.738,386.719,967.773,695.312,-39.551
1692132726.344,225.098,-23.926,967.773,282.227,333.496
1692132726.348,-335.449,355.469,967.773,-278.320,387.207
1692132726.352,-463.867,974.121,967.773,-442.383,-195.312
1692132726.356,-229.492,966.797,967.773,-205.078,-238.770
1692132726.358,-1.953,951.660,967.773,22.461,-126.953
1692132726.362,166.016,972.168,968.750,179.199,-86.426
1692132726.366,20.996,967.773,966.309,23.438,-111.816
1692132726.370,16.113,967.773,962.402,2.441,-23.438
1692132726.374,287.598,967.773,947.754,281.250,104.004
1692132726.378,224.609,967.773,802.246,225.586,-12.207
1692132726.382,-17.090,967.773,253.418,-12.695,-54.199
1692132726.385,-110.352,967.773,-493.652,-131.836,72.266
1692132726.389,-60.059,967.773,-903.320,-104.492,131.836
1692132726.393,6.836,967.773,-986.816,-39.062,-138.672
1692132726.397,70.312,967.773,-994.629,27.344,-189.941
1692132726.401,120.117,967.773,-1000.000,74.219,5.859
1692132726.403,155.762,967.773,-1000.000,100.098,-17.578
1692132726.407,183.594,967.773,-1000.000,120.605,-215.332
1692132726.411,188.477,967.773,-996.094,128.418,-182.129
1692132726.415,194.336,967.773,-1000.000,135.742,-78.125
1692132726.419,198.730,967.773,-966.797,141.113,-85.938
1692132726.423,187.012,967.773,-816.406,139.648,-31.250
1692132726.427,186.523,967.773,-729.492,141.113,-35.645
1692132726.430,190.430,967.773,-817.871,147.949,26.855
1692132726.434,204.102,967.773,-833.496,176.270,8.301
1692132726.438,214.844,967.773,-747.070,193.848,-141.602
1692132726.442,212.891,967.773,-658.203,183.105,-64.453
1692132726.446,216.309,967.773,-518.066,184.082,19.043
1692132726.449,225.098,967.773,-378.906,194.824,-114.258
1692132726.453,220.703,967.773,-294.434,201.172,-96.680
1692132726.457,220.703,967.773,-213.867,221.191,141.602
1692132726.461,237.305,967.773,-125.000,239.746,302.246
1692132726.465,244.141,967.773,-64.453,248.047,29.785
1692132726.469,277.832,967.773,3.906,294.922,-159.180
1692132726.473,328.613,967.773,57.129,358.887,140.625
1692132726.476,227.051,967.773,0.000,262.695,278.809
1692132726.480,148.438,967.773,-11.719,185.059,-121.094
1692132726.484,170.410,967.773,40.039,197.266,-282.715
1692132726.488,150.879,968.262,59.082,162.598,-184.570
1692132726.492,150.391,966.797,79.102,162.598,-177.246
1692132726.495,176.270,966.309,90.820,188.477,-206.543
1692132726.499,179.688,968.262,89.355,192.871,-160.156
1692132726.503,173.340,907.227,89.844,181.641,-87.402
1692132726.507,177.734,824.219,103.027,184.082,-113.281
1692132726.511,167.480,772.461,109.375,186.523,-118.164
1692132726.515,280.273,813.477,145.996,309.570,-66.406
1692132726.519,308.594,766.602,152.344,344.238,319.336
1692132726.522,136.230,562.012,114.258,166.016,444.824
1692132726.526,75.684,459.961,129.883,89.844,-46.387
1692132726.530,77.637,421.387,145.020,98.633,-140.625
1692132726.534,101.074,408.691,156.250,132.324,-76.660
1692132726.538,125.977,384.277,159.668,157.715,-137.207
1692132726.538,112.793,340.820,182.129,144.531,-219.727
1692132726.542,199.707,392.090,277.344,222.168,-85.938
1692132726.546,215.820,375.488,297.852,244.629,42.969
1692132726.550,43.457,217.773,151.367,86.426,-116.699
1692132726.554,7.324,185.547,82.031,44.434,-173.340
1692132726.558,72.754,209.473,141.113,91.309,20.020
1692132726.562,75.684,182.617,191.406,79.102,423.340
1692132726.565,29.297,127.930,181.152,24.414,221.680
1692132726.569,34.180,107.422,180.176,29.785,-241.699
1692132726.573,51.270,104.980,191.895,67.871,-19.531
1692132726.577,127.930,125.488,236.816,156.250,81.543
1692132726.581,299.316,170.410,278.320,326.660,-201.660
1692132726.598,179.688,103.516,166.504,219.727,-199.707
1692132726.602,-38.574,69.824,59.570,5.371,-134.766
1692132726.606,-41.504,99.609,59.082,-6.836,-124.512
1692132726.610,-4.395,136.719,88.867,12.695,-128.906
1692132726.614,-1.953,166.992,94.238,0.977,-119.629
1692132726.618,30.273,181.641,114.746,35.156,14.648
1692132726.622,151.367,270.508,192.871,162.598,69.824
1692132726.625,145.996,240.723,158.203,161.621,-55.664
1692132726.629,11.719,107.910,40.039,17.090,-43.945
1692132726.633,-22.461,91.797,39.551,-16.113,300.781
1692132726.637,-1.465,112.793,86.914,8.301,207.520
1692132726.641,8.789,109.375,95.215,17.090,-179.688
1692132726.643,9.277,108.887,88.867,29.297,-106.934
1692132726.647,19.531,110.352,85.449,34.668,47.363
1692132726.651,24.414,113.770,83.984,26.855,-37.598
1692132726.655,15.625,111.816,83.496,16.602,-213.379
1692132726.659,16.602,102.539,88.379,37.109,-76.660
1692132726.663,40.527,114.258,96.191,66.406,186.035
1692132726.667,37.109,113.281,78.613,43.457,27.832
1692132726.670,1.953,95.215,56.641,3.418,-183.105
1692132726.674,-6.348,91.797,59.082,-5.859,-15.625
1692132726.678,-6.348,85.938,53.711,2.441,193.848
1692132726.682,-4.883,76.172,25.879,4.883,-46.387
1692132726.686,1.465,67.871,4.395,7.812,-122.559
1692132726.688,23.438,70.801,7.324,21.973,0.488
1692132726.692,43.457,120.605,17.578,35.156,-42.969
1692132726.696,98.145,196.777,87.402,105.957,-193.848
1692132726.700,71.289,154.785,51.758,91.309,-158.203
1692132726.704,-60.547,69.336,-69.336,-52.246,-64.941
1692132726.708,-93.262,72.266,-71.777,-106.934,43.457
1692132726.712,-76.172,87.891,-66.895,-99.121,87.891
1692132726.715,-62.500,86.914,-61.035,-70.312,-127.441
1692132726.719,-56.152,71.777,-50.781,-45.898,71.289
1692132726.723,-47.852,45.410,-59.570,-43.945,195.312
1692132726.727,0.488,73.730,-25.391,-4.395,-133.301
1692132726.731,7.812,93.262,-13.672,11.719,-174.805
1692132726.734,-51.270,44.922,-65.430,-48.340,-133.301
1692132726.738,-51.270,26.855,-64.453,-54.199,-114.746
1692132726.742,-45.898,-20.996,-47.363,-43.945,-141.113
1692132726.746,-47.852,-61.035,-44.922,-46.387,-35.156
1692132726.750,-39.551,-34.668,-43.945,-41.992,171.387
1692132726.754,-41.504,-12.207,-39.062,-42.480,11.230
1692132726.758,-42.480,-8.301,-38.574,-23.926,-141.113
1692132726.761,-20.020,10.254,-41.016,0.488,25.391
1692132726.765,-4.395,11.719,-26.855,0.488,217.773
1692132726.769,-12.207,-31.738,-25.879,-23.926,-37.598
1692132726.773,-18.066,-33.691,-31.738,-28.809,-243.164
1692132726.777,-27.832,-26.855,-42.480,-17.578,-170.898
1692132726.778,-24.414,-40.527,-51.758,-18.555,-109.375
1692132726.782,-20.508,-6.836,-35.156,-16.602,-129.883
1692132726.786,-26.855,36.133,-26.855,-14.648,-150.879
1692132726.790,-30.273,56.152,-26.367,-12.695,-73.242
1692132726.794,-25.879,65.918,-16.113,-0.488,-32.715
1692132726.798,-20.996,62.012,-17.578,-1.953,59.082
1692132726.802,-13.672,58.105,-13.672,-12.695,129.883
1692132726.805,-26.367,60.547,-3.906,-17.578,277.832
1692132726.809,-40.039,57.617,-0.488,-25.879,254.883
1692132726.813,-39.062,49.316,5.371,-19.531,-117.676
1692132726.817,-23.926,40.039,15.625,-1.465,-98.145
1692132726.821,-9.277,34.180,24.902,10.254,24.902
1692132726.823,-5.371,34.668,25.879,-7.324,-108.398
1692132726.827,-1.465,46.387,25.391,-18.555,-192.383
1692132726.831,8.789,62.012,34.180,8.789,-8.789
1692132726.835,25.879,66.895,58.105,39.062,96.191
1692132726.839,38.086,71.777,66.895,59.570,-27.344
1692132726.843,25.879,44.922,63.477,45.410,-48.828
1692132726.847,3.906,11.230,61.035,18.555,82.031
1692132726.850,-35.156,-12.695,2.930,-11.719,289.551
1692132726.854,-55.176,2.441,-12.207,-31.738,28.320
1692132726.858,-42.969,34.180,26.855,-26.367,-204.590
1692132726.862,-47.363,31.250,38.574,-38.086,-102.051
1692132726.866,-43.457,27.344,34.668,-44.922,-158.691
1692132726.868,-36.133,24.414,35.645,-36.133,-291.016
1692132726.872,-23.926,21.973,46.875,-13.184,-231.934
1692132726.876,-12.207,26.367,52.734,22.461,-114.746
1692132726.880,-18.555,29.785,48.828,12.695,-79.102
1692132726.884,-18.555,33.203,57.617,-13.672,-166.016
1692132726.888,-21.484,36.621,62.012,-15.137,-169.922
1692132726.892,-24.414,40.039,65.918,-2.441,250.977
1692132726.895,-9.277,48.828,72.754,9.277,256.348
1692132726.899,2.441,53.223,75.195,7.324,-138.672
1692132726.903,-7.812,48.828,69.336,-13.184,-96.191
1692132726.907,-20.508,49.805,68.359,-23.926,-10.254
1692132726.911,-0.977,61.035,87.891,9.277,-117.676
1692132726.913,40.527,67.383,95.215,58.105,-214.355
1692132726.917,7.812,49.805,57.617,22.949,-20.508
1692132726.921,-50.293,48.828,33.203,-45.898,132.324
1692132726.925,-51.270,53.711,48.340,-48.340,-133.789
1692132726.929,-40.527,52.246,55.176,-21.484,-221.680
1692132726.933,-35.645,55.176,43.457,-15.625,61.523
1692132726.937,-27.832,50.781,36.133,-20.020,340.332
1692132726.940,-19.531,52.246,35.645,-21.973,2.930
1692132726.944,-19.531,41.016,31.738,-24.902,-291.504
1692132726.948,-18.555,23.438,29.785,-4.395,-154.785
1692132726.952,10.254,34.180,45.410,35.645,-108.398
1692132726.956,14.160,29.785,45.898,29.297,-97.168
1692132726.961,0.977,28.809,36.621,14.648,-88.867
1692132726.965,-16.602,23.438,9.766,7.812,-63.965
1692132726.969,-43.457,-1.953,-14.160,-13.672,-58.594
1692132726.973,-50.293,-10.742,-19.531,-24.414,-121.582
1692132726.977,-53.223,-21.973,-23.926,-33.203,-102.539
1692132726.981,-48.340,-22.461,-12.207,-32.227,11.230
1692132726.985,-48.828,-8.301,-8.789,-30.762,74.219
1692132726.988,-43.945,-15.625,-12.207,-22.949,-122.559
1692132726.992,-20.996,32.227,-3.418,7.812,-174.805
1692132726.996,-12.695,126.465,-0.977,10.742,100.586
1692132727.000,-21.484,147.461,-19.531,-17.090,58.594
1692132727.004,-30.762,141.602,-34.180,-25.879,-188.477
1692132727.018,-27.344,126.465,-46.875,-27.344,-161.621
1692132727.022,-23.438,113.281,-56.152,-11.230,-37.109
1692132727.026,-23.926,103.027,-62.012,-7.324,19.043
1692132727.030,-27.344,89.844,-70.801,-21.973,-44.922
1692132727.034,-28.809,76.660,-72.754,-0.977,-60.547
1692132727.038,-20.508,62.988,-66.895,35.156,406.250
1692132727.042,-21.484,44.434,-62.988,13.672,375.000
1692132727.045,-34.180,29.297,-62.500,-20.508,-127.441
1692132727.049,-35.645,20.020,-59.570,-28.809,-49.316
1692132727.053,-31.738,13.672,-48.828,-41.016,-24.414
1692132727.057,-35.156,8.789,-30.762,-37.109,-219.727
1692132727.061,-30.273,0.977,-26.855,-16.113,-235.840
1692132727.064,-27.344,-0.488,-28.320,-18.066,-103.516
1692132727.068,-28.320,-1.953,-18.555,-26.855,-74.219
1692132727.072,-29.297,0.977,-14.648,-26.367,-219.238
1692132727.076,-33.691,3.906,-19.531,-25.879,-216.797
1692132727.080,-27.344,1.953,-1.953,-11.719,-48.340
1692132727.084,-17.090,8.301,20.996,-4.883,57.617
1692132727.088,-14.160,18.555,26.855,-13.184,19.531
1692132727.091,-9.766,19.531,22.461,-24.902,-91.309
1692132727.095,-12.207,14.160,11.230,-17.578,165.039
1692132727.099,-10.254,25.879,4.883,0.000,241.211
1692132727.103,0.000,32.227,2.930,11.719,-95.215
1692132727.107,0.977,25.391,4.883,14.160,-74.707
1692132727.108,1.465,31.250,-32.715,6.348,-1.953
1692132727.112,-4.883,36.133,-99.121,-3.418,17.578
1692132727.116,1.465,39.551,-124.023,2.441,-42.969
1692132727.120,23.438,43.945,-122.070,32.715,-1.953
1692132727.124,28.320,38.574,-100.098,53.223,75.684
1692132727.128,1.465,20.020,-82.031,20.020,-36.621
1692132727.132,-39.062,-2.441,-77.148,-13.184,-97.656
1692132727.135,-38.086,-6.836,-77.637,1.953,74.219
1692132727.139,-18.555,-7.812,-83.496,21.973,453.125
1692132727.143,-25.391,-15.625,-81.055,1.953,299.805
1692132727.147,-36.621,-29.785,-72.266,-28.320,-146.484
1692132727.151,-45.410,-41.992,-69.824,-37.598,-55.176
1692132727.153,-51.758,-46.387,-64.453,-33.203,-28.809
1692132727.157,-50.293,-56.641,-56.152,-10.742,-208.496
1692132727.161,-45.410,-62.988,-55.664,-5.859,-180.176
1692132727.165,-46.387,-61.035,-52.734,-24.902,-106.934
1692132727.169,-53.223,-66.895,-57.617,-39.551,-119.629
1692132727.173,-53.711,-86.914,-62.012,-33.691,-64.941
1692132727.177,-59.082,-121.094,-53.223,-25.879,-13.184
1692132727.180,-55.176,-148.926,-45.898,-19.043,230.957
1692132727.184,-58.105,-159.180,-49.805,-20.996,184.082
1692132727.188,-68.359,-173.828,-59.570,-32.715,-191.406
1692132727.192,-55.664,-177.734,-57.617,-14.648,-131.836
1692132727.196,-35.645,-168.945,-58.594,10.742,-23.438
1692132727.198,-17.578,-163.086,-59.570,24.414,-137.695
1692132727.202,-31.250,-181.152,-46.875,-3.906,-134.766
1692132727.206,-46.387,-189.453,-50.781,-22.461,11.719
1692132727.210,-1.953,-166.504,-18.066,32.715,38.086
1692132727.214,-13.672,-198.242,-17.578,16.602,-151.855
1692132727.218,-72.754,-241.699,-65.430,-48.828,-160.645
1692132727.222,-76.172,-232.910,-70.312,-52.246,91.309
1692132727.225,-66.406,-219.727,-60.059,-55.176,184.570
1692132727.229,-59.570,-218.750,-52.246,-57.129,-92.285
1692132727.233,-59.082,-236.816,-50.781,-42.969,-208.008
1692132727.237,-50.781,-241.699,-47.852,-33.203,-118.164
1692132727.241,-49.805,-239.258,-43.945,-34.668,-80.078
1692132727.245,-45.410,-237.305,-40.527,-41.016,-103.027
1692132727.249,-40.527,-234.375,-28.320,-35.156,-173.828
1692132727.253,-45.898,-239.746,-34.668,-20.508,-70.801
1692132727.257,-33.203,-242.188,-42.480,-10.742,-31.738
1692132727.261,-25.391,-243.164,-26.367,-16.113,-118.652
1692132727.265,-41.992,-245.605,-25.879,-36.133,-117.188
1692132727.269,-49.316,-247.070,-41.504,-38.086,134.766
1692132727.272,-49.805,-230.469,-46.875,-23.926,163.574
1692132727.276,-39.551,-258.301,-31.738,-14.648,-184.570
1692132727.280,-35.156,-311.523,-27.832,-22.949,-142.578
1692132727.284,-35.645,-308.105,-33.691,-34.668,-91.309
1692132727.288,-38.086,-299.316,-37.109,-39.551,-123.047
1692132727.303,-42.969,-305.176,-42.969,-32.227,-142.090
1692132727.307,-31.738,-299.316,-37.598,-13.184,3.906
1692132727.311,-20.508,-286.621,-30.273,-12.695,226.074
1692132727.315,-28.320,-285.645,-42.969,-35.645,55.664
1692132727.319,-39.062,-278.320,-53.711,-37.109,-167.480
1692132727.323,-40.039,-263.672,-56.641,-20.020,-14.648
1692132727.327,-34.180,-252.441,-47.852,-1.953,455.078
1692132727.330,-29.785,-238.770,-41.016,-2.441,262.695
1692132727.334,-25.391,-228.027,-44.434,-15.137,-253.906
1692132727.338,-26.855,-217.285,-51.270,-23.438,-200.195
1692132727.342,-30.762,-216.797,-50.293,-24.902,-132.324
1692132727.346,-28.320,-210.449,-44.434,-16.602,-161.621
1692132727.348,-17.578,-198.730,-43.945,-0.488,-125.000
1692132727.352,-10.742,-195.312,-34.668,-6.836,-89.355
1692132727.356,-36.621,-199.707,-33.691,-36.133,-132.812
1692132727.360,-42.969,-194.824,-38.574,-35.156,-219.727
1692132727.364,-24.414,-176.758,-35.645,-20.020,-146.484
1692132727.368,-16.113,-166.504,-34.668,-10.742,41.504
1692132727.372,-20.020,-167.969,-37.598,-20.020,54.688
1692132727.375,-22.949,-160.645,-31.250,-27.832,10.742
1692132727.379,-21.973,-153.809,-23.926,-22.461,-36.621
1692132727.383,-22.949,-168.457,-30.762,-19.531,54.199
1692132727.387,-20.020,-171.387,-35.645,-14.648,11.719
1692132727.391,-25.879,-167.480,-36.621,-20.996,-122.559
1692132727.393,-33.691,-172.852,-36.133,-33.203,-107.910
1692132727.397,-33.691,-181.152,-30.273,-24.414,96.680
1692132727.401,-28.809,-187.500,-26.855,-9.766,84.473
1692132727.405,-20.996,-186.523,1.953,-6.348,-146.484
1692132727.409,-15.625,-185.059,34.180,-7.324,-78.613
1692132727.413,-21.484,-189.941,36.133,-22.461,104.004
1692132727.417,-27.344,-189.453,30.273,-30.762,-10.742
1692132727.420,-25.879,-187.988,23.438,-21.484,-126.953
1692132727.424,-28.809,-197.754,16.602,-10.254,26.367
1692132727.428,-33.203,-209.473,10.742,-17.090,297.852
1692132727.432,-34.668,-202.637,7.324,-41.016,22.461
1692132727.436,-37.109,-207.520,5.371,-42.480,-293.945
1692132727.440,-35.645,-209.473,4.395,-33.691,-192.383
1692132727.444,-29.297,-192.871,-1.465,-26.855,-121.094
1692132727.448,-25.879,-198.730,-10.742,-20.996,-128.418
1692132727.452,-26.367,-217.285,-15.625,-26.855,-155.273
1692132727.456,-26.855,-232.910,-26.855,-29.297,-106.934
1692132727.460,-22.949,-246.582,-33.691,-14.160,-4.395
1692132727.464,-15.137,-252.930,-28.809,-1.465,-3.906
1692132727.467,-12.207,-269.531,-29.785,0.488,-114.258
1692132727.471,-23.926,-299.316,-35.645,-6.836,73.730
1692132727.475,-29.297,-295.898,-36.133,-15.625,186.035
1692132727.479,-26.855,-284.668,-40.527,-28.320,-117.676
1692132727.483,-31.250,-267.578,-42.480,-32.227,-138.184
1692132727.484,-39.062,-237.793,-42.969,-26.367,-1.953
1692132727.488,-43.457,-214.844,-45.410,-37.109,-65.918
1692132727.492,-43.945,-200.684,-44.434,-43.457,-145.020
1692132727.496,-47.363,-195.312,-38.574,-40.039,-31.250
1692132727.500,-43.457,-182.129,-37.598,-35.645,63.965
1692132727.504,-28.809,-175.781,-39.551,-28.809,-9.766
1692132727.508,-28.320,-170.410,-41.992,-36.621,-32.715
1692132727.511,-33.203,-156.250,-40.039,-38.086,47.852
1692132727.515,-33.691,-146.484,-39.551,-25.391,325.195
1692132727.519,-25.879,-143.555,-42.969,-5.371,155.762
1692132727.523,-16.113,-147.949,-45.898,1.465,-152.832
1692132727.527,-18.555,-152.344,-42.480,-19.043,-127.930
1692132727.528,-25.879,-154.785,-36.133,-30.762,-144.531
1692132727.532,-36.133,-172.363,-32.227,-31.738,-226.562
1692132727.536,-35.156,-196.289,-37.109,-22.949,-230.469
1692132727.540,-28.809,-203.125,-36.133,-16.113,-93.750
1692132727.544,-22.461,-195.801,-34.180,-19.531,-92.285
1692132727.548,-26.367,-198.730,-39.062,-27.832,-57.617
1692132727.552,-34.180,-213.379,-31.738,-33.203,-64.941
1692132727.555,-27.832,-229.004,-26.367,-17.578,139.648
1692132727.559,-10.254,-262.695,-29.297,2.930,319.336
1692132727.563,-10.254,-285.156,-30.273,-6.836,-75.684
1692132727.567,-24.414,-281.250,-27.832,-41.504,-177.246
1692132727.571,-31.250,-265.625,-21.973,-45.410,-84.961
1692132727.588,-31.250,-256.836,-24.902,-27.344,-121.094
1692132727.592,-30.762,-267.090,-32.227,-21.973,-99.121
1692132727.596,-36.621,-265.625,-36.621,-24.902,101.562
1692132727.600,-46.387,-261.719,-35.156,-30.762,288.574
1692132727.604,-54.688,-258.789,-30.273,-32.715,48.340
1692132727.608,-47.852,-258.789,-30.273,-29.297,-110.840
1692132727.612,-37.109,-272.461,-26.855,-16.113,76.172
1692132727.615,-38.574,-334.961,-29.785,-15.625,206.055
1692132727.619,-43.457,-426.270,-38.086,-35.645,-30.762
1692132727.623,-37.598,-471.191,-40.039,-40.039,-231.934
1692132727.627,-28.809,-492.188,-40.527,-25.391,-109.863
1692132727.631,-30.273,-502.930,-37.109,-11.230,-47.363
1692132727.618,-26.855,-485.352,-33.691,-20.020,-156.250
1692132727.622,-31.738,-463.379,-29.785,-40.039,-209.961
1692132727.626,-45.410,-437.988,-19.043,-39.062,-181.641
1692132727.630,-44.922,-415.039,-2.441,-33.691,-161.621
1692132727.634,-35.156,-404.297,12.695,-22.949,-163.086
1692132727.638,-25.879,-395.508,23.926,-20.020,-91.797
1692132727.642,-25.391,-391.602,32.715,-26.367,33.691
1692132727.645,-21.484,-381.836,37.598,-26.855,41.992
1692132727.649,-18.066,-349.121,33.203,-21.973,-139.648
1692132727.653,-16.113,-324.707,25.391,-20.996,-222.656
1692132727.657,-17.090,-306.641,21.973,-12.695,208.984
1692132727.661,-22.949,-283.691,20.020,-22.949,320.801
1692132727.663,-27.344,-268.555,18.555,-45.898,-183.594
1692132727.667,-29.785,-256.836,11.719,-42.480,-110.352
1692132727.671,-22.461,-245.117,9.766,-31.738,108.887
1692132727.675,-19.531,-231.445,6.836,-27.832,-77.148
1692132727.679,-25.879,-218.262,-5.859,-34.668,-181.641
1692132727.683,-30.762,-212.891,-9.277,-40.039,91.797
1692132727.687,-34.180,-200.195,1.465,-37.598,251.953
1692132727.690,-30.762,-177.246,11.230,-22.461,11.719
1692132727.694,-25.391,-175.781,2.930,-14.648,-122.070
1692132727.698,-23.926,-177.246,-3.418,-17.090,4.395
1692132727.702,-35.156,-161.621,0.000,-17.578,117.188
1692132727.706,-42.969,-143.555,-1.953,-21.973,-126.953
1692132727.723,-42.969,-140.137,-10.742,-23.438,-184.570
1692132727.727,-40.039,-135.742,-13.672,-19.531,-123.535
1692132727.731,-37.109,-127.930,-18.066,-26.367,-156.738
1692132727.735,-41.504,-124.023,-20.996,-36.133,-217.285
1692132727.739,-42.480,-123.047,-18.555,-29.297,-166.016
1692132727.743,-37.598,-119.629,-20.508,-16.113,-80.078
1692132727.747,-28.320,-118.652,-20.996,-7.324,-76.172
1692132727.750,-23.438,-122.070,-24.414,-8.789,-147.461
1692132727.754,-32.227,-118.652,-20.996,-9.766,-245.605
1692132727.758,-40.527,-118.652,-5.859,-18.555,1.465
1692132727.762,-27.832,-124.023,-4.883,-15.625,77.148
1692132727.766,-17.578,-131.348,-10.254,-5.859,-168.457
1692132727.768,-13.672,-140.137,-14.648,-18.555,-125.000
1692132727.772,-14.160,-141.113,-13.184,-32.715,145.996
1692132727.776,-24.414,-131.348,-15.625,-40.527,-12.207
1692132727.780,-26.367,-139.648,-23.926,-28.809,-304.199
1692132727.784,-24.414,-156.250,-24.902,-18.555,-144.043
1692132727.788,-30.273,-159.668,-23.438,-24.414,27.344
1692132727.792,-36.133,-160.645,-22.461,-37.598,26.367
1692132727.795,-34.180,-170.410,-30.762,-45.898,-131.348
1692132727.799,-31.250,-179.688,-38.574,-30.273,-80.078
1692132727.803,-29.297,-176.270,-37.109,-16.113,155.762
1692132727.807,-23.438,-166.504,-32.715,-16.113,-82.031
1692132727.811,-26.367,-164.551,-37.109,-22.949,-216.309
1692132727.813,-29.785,-161.133,-37.598,-25.391,-69.824
1692132727.817,-32.227,-149.902,-38.574,-23.438,-35.156
1692132727.821,-27.832,-141.602,-36.621,-12.207,-84.961
1692132727.825,-19.043,-136.719,-31.250,-6.836,-97.656
1692132727.829,-27.344,-140.137,-34.180,-22.949,-9.766
1692132727.833,-40.039,-143.066,-38.574,-35.645,-4.883
1692132727.837,-41.504,-141.113,-41.992,-41.016,-82.031
1692132727.840,-33.203,-137.695,-46.387,-32.227,-75.195
1692132727.844,-26.855,-130.859,-53.223,-20.508,152.832
1692132727.848,-29.297,-120.117,-55.664,-28.320,175.293
1692132727.852,-40.527,-108.887,-57.129,-48.828,-157.227
1692132727.856,-41.504,-107.422,-60.059,-43.945,-111.816
1692132727.858,-32.227,-105.469,-62.500,-29.785,-66.406
1692132727.862,-31.738,-99.121,-62.012,-24.902,-34.668
1692132727.866,-27.832,-93.262,-58.105,-27.344,-60.059
1692132727.870,-30.273,-94.727,-65.918,-36.133,-27.832
1692132727.874,-32.715,-97.168,-73.730,-26.855,202.637
1692132727.878,-24.902,-101.074,-71.289,-12.695,137.695
1692132727.882,-19.531,-106.445,-67.871,-8.301,-3.906
1692132727.885,-15.137,-116.211,-64.453,-12.695,95.215
1692132727.889,-19.043,-120.117,-63.477,-20.020,160.156
1692132727.893,-25.391,-113.281,-63.477,-29.297,-122.070
1692132727.897,-20.508,-119.141,-64.453,-21.973,-214.355
1692132727.901,-17.578,-138.672,-64.453,-11.719,-116.699
1692132727.903,-29.297,-153.809,-59.570,-20.020,-158.203
1692132727.907,-35.645,-148.438,-62.012,-30.762,-253.906
1692132727.911,-41.504,-143.555,-70.801,-41.016,-254.883
1692132727.915,-38.574,-142.090,-70.801,-43.945,-114.258
1692132727.919,-34.668,-144.043,-67.383,-33.203,-38.574
1692132727.923,-37.109,-139.648,-65.430,-29.297,-93.262
1692132727.927,-33.691,-134.277,-67.871,-34.180,-120.605
1692132727.930,-31.738,-133.301,-66.406,-30.762,177.246
1692132727.934,-25.391,-122.559,-64.941,-18.555,311.035
1692132727.938,-17.578,-119.629,-66.895,-6.348,-72.754
1692132727.942,-10.742,-121.582,-64.941,-5.859,-147.949
1692132727.946,-20.508,-120.605,-61.523,-20.996,-136.719
1692132727.948,-31.738,-125.977,-65.430,-25.391,-179.199
1692132727.952,-19.531,-128.418,-67.871,-12.207,-97.168
1692132727.956,-9.277,-129.395,-59.570,0.977,64.453
1692132727.960,-9.766,-133.301,-54.688,0.977,151.855
1692132727.964,-8.789,-132.324,-56.152,-10.254,-68.848
1692132727.968,-15.625,-135.254,-56.152,-16.602,-189.941
1692132727.972,-18.555,-139.648,-57.617,-12.207,24.902
1692132727.975,-9.766,-138.672,-60.059,-8.301,246.094
1692132727.979,-8.789,-131.348,-56.641,-13.184,59.570
1692132727.983,-18.555,-137.695,-51.758,-35.645,-148.438
1692132727.987,-24.902,-143.066,-51.270,-53.223,-53.223
1692132727.991,-29.785,-134.766,-57.129,-45.898,-64.941
1692132728.008,-30.273,-135.254,-36.133,-39.551,-186.523
1692132728.012,-25.879,-140.137,12.695,-31.738,-126.465
1692132728.016,-27.832,-134.766,29.297,-40.039,-71.777
1692132728.020,-30.762,-121.094,27.344,-56.152,-67.871
1692132728.024,-32.715,-113.281,28.809,-41.504,-144.043
1692132728.028,-32.227,-114.258,25.879,-20.508,-78.613
1692132728.032,-27.832,-108.398,18.555,-5.371,320.312
1692132728.035,-25.879,-98.145,9.766,-2.441,243.652
1692132728.039,-20.020,-87.402,0.000,-16.602,-125.000
1692132728.043,-20.996,-86.914,-6.348,-17.578,-101.562
1692132728.047,-25.391,-90.820,-13.184,-8.301,6.348
1692132728.051,-20.996,-77.637,-14.648,-3.906,6.836
1692132728.038,-17.090,-64.453,-14.160,-11.719,-115.234
1692132728.042,-30.273,-70.312,-18.555,-31.738,-24.414
1692132728.046,-38.574,-75.195,-24.902,-28.320,248.047
1692132728.050,-22.461,-64.941,-23.926,-15.137,110.840
1692132728.054,-20.020,-57.129,-24.414,-17.578,-155.273
1692132728.058,-31.250,-59.570,-23.438,-24.902,24.902
1692132728.062,-32.715,-56.152,-24.902,-38.086,155.273
1692132728.065,-36.133,-51.758,-27.832,-36.133,-86.914
1692132728.069,-33.691,-53.711,-26.855,-20.020,-207.031
1692132728.073,-25.879,-60.547,-24.414,-10.742,24.902
1692132728.077,-31.738,-56.641,-22.949,-15.137,195.801
1692132728.081,-35.156,-45.898,-21.973,-29.297,-112.305
1692132728.086,-36.621,-41.992,-22.949,-32.715,-221.680
1692132728.090,-39.551,-34.668,-25.391,-27.344,-31.250
1692132728.094,-27.832,-18.066,-22.461,-22.461,-8.789
1692132728.098,-22.461,-11.230,-21.973,-29.297,-171.875
1692132728.102,-32.715,-15.625,-25.879,-46.387,-201.660
1692132728.106,-43.945,-12.695,-27.344,-51.758,0.000
1692132728.110,-45.898,-10.742,-30.762,-42.969,39.062
1692132728.113,-29.785,-4.883,-25.391,-23.438,-92.285
1692132728.117,-27.344,-9.766,-24.902,-24.902,-144.043
1692132728.121,-34.180,-11.719,-31.738,-40.039,79.102
1692132728.125,-24.414,1.465,-30.273,-41.504,62.988
1692132728.129,-14.648,5.371,-28.809,-32.227,-208.984
1692132728.143,-5.859,6.348,-30.273,-7.812,-138.184
1692132728.147,-1.953,2.930,-32.715,0.977,10.254
1692132728.151,-10.254,0.488,-33.203,-13.672,-64.941
1692132728.155,-19.531,1.465,-34.180,-26.367,-89.844
1692132728.159,-17.578,1.953,-32.227,-21.973,34.668
1692132728.163,-13.184,12.695,-30.273,-5.859,397.461
1692132728.167,-15.137,21.484,-34.668,4.395,422.363
1692132728.170,-21.484,18.555,-37.598,-13.672,-78.125
1692132728.174,-22.949,14.648,-34.668,-22.949,-87.402
1692132728.178,-19.531,17.578,-38.574,-8.301,-41.992
1692132728.182,-14.648,17.578,-46.387,-9.766,-196.289
1692132728.186,-12.695,-1.465,-48.340,-16.602,-174.316
1692132728.188,-20.020,-24.414,-46.387,-29.785,-97.656
1692132728.192,-31.738,-39.062,-43.945,-42.969,-134.277
1692132728.196,-36.621,-45.410,-43.945,-36.621,-194.336
1692132728.200,-28.320,-48.340,-43.457,-27.344,-147.461
1692132728.204,-20.508,-48.340,-43.457,-21.973,-66.406
1692132728.208,-29.785,-45.898,-42.969,-20.508,-1.953
1692132728.212,-34.180,-42.969,-42.480,-29.785,63.965
1692132728.215,-39.551,-44.434,-39.062,-31.738,-24.414
1692132728.219,-37.598,-50.781,-43.457,-11.230,190.918
1692132728.223,-30.273,-51.270,-49.805,-5.371,359.863
1692132728.227,-27.832,-43.457,-50.781,-13.672,-50.293
1692132728.231,-26.855,-42.480,-49.316,-23.926,-187.012
1692132728.233,-30.762,-43.945,-43.945,-29.297,-160.156
1692132728.237,-21.484,-44.922,-41.016,-16.113,-131.348
1692132728.241,-11.719,-50.293,-45.410,-2.930,-43.457
1692132728.245,-12.207,-51.270,-45.410,-1.953,43.457
1692132728.249,-14.160,-50.293,-41.504,-12.695,95.703
1692132728.253,-20.508,-50.781,-48.828,-21.973,57.617
1692132728.257,-30.273,-51.758,-56.152,-21.484,-17.578
1692132728.260,-28.320,-48.340,-46.387,-3.418,18.066
1692132728.264,-16.602,-42.969,-38.086,-5.371,257.324
1692132728.268,-19.043,-36.621,-47.363,-33.691,34.180
1692132728.272,-34.668,-44.434,-53.711,-45.898,-296.875
1692132728.276,-37.109,-59.082,-50.293,-33.203,-82.031
1692132728.278,-25.879,-58.594,-47.852,-18.555,65.430
1692132728.282,-23.438,-50.293,-51.270,-27.832,-135.254
1692132728.286,-24.414,-45.410,-48.828,-40.039,-183.594
1692132728.290,-18.066,-46.875,-41.992,-34.180,-147.949
1692132728.294,-17.578,-49.316,-44.922,-26.367,-131.836
1692132728.298,-14.648,-44.922,-43.457,-9.766,-93.750
1692132728.302,-7.812,-43.457,-41.504,-7.324,-63.477
1692132728.305,-14.648,-47.363,-47.363,-24.902,167.969
1692132728.309,-34.668,-52.246,-47.852,-26.367,129.395
1692132728.313,-40.527,-48.828,-44.434,-19.043,-234.375
1692132728.317,-38.574,-45.898,-43.457,-11.719,-104.980
1692132728.321,-30.273,-46.875,-42.480,-16.602,85.449
1692132728.323,-23.926,-49.805,-39.551,-25.879,-87.402
1692132728.327,-18.066,-49.316,-35.156,-18.555,-224.121
1692132728.331,-25.391,-44.434,-33.691,-20.020,-80.078
1692132728.335,-31.738,-34.180,-43.945,-19.043,148.926
1692132728.339,-29.785,-28.320,-50.293,-21.973,-0.488
1692132728.343,-39.551,-29.297,-41.504,-43.945,-196.289
1692132728.347,-47.363,-39.062,-37.109,-55.664,39.062
1692132728.350,-51.270,-46.387,-39.062,-46.875,229.004
1692132728.354,-35.156,-38.574,-34.668,-25.391,-80.078
1692132728.358,-19.531,-36.621,-30.762,-11.230,-217.285
1692132728.362,-30.273,-37.109,-36.133,-22.461,-152.344
1692132728.366,-34.668,-36.621,-39.551,-35.645,-146.484
1692132728.384,-32.715,-37.109,-37.109,-32.715,-169.434
1692132728.388,-35.156,-37.109,-40.527,-30.762,-149.902
1692132728.392,-29.785,-41.504,-43.945,-26.367,24.902
1692132728.396,-22.461,-36.621,-42.969,-29.785,28.320
1692132728.400,-24.902,-33.203,-44.434,-34.668,-127.930
1692132728.404,-36.621,-40.039,-47.852,-42.480,-38.574
1692132728.408,-36.133,-44.922,-55.176,-29.297,300.781
1692132728.411,-24.902,-38.574,-49.316,-9.277,264.648
1692132728.415,-21.973,-36.621,-41.016,-21.484,-113.770
1692132728.419,-21.973,-38.086,-41.504,-35.645,-176.758
1692132728.423,-31.738,-40.527,-47.852,-36.133,-126.465
1692132728.427,-34.180,-41.016,-53.711,-34.180,-86.426
1692132728.428,-16.602,-36.133,-58.105,-28.809,-126.953
1692132728.432,-11.230,-40.527,-55.664,-28.320,-20.020
1692132728.436,-17.090,-39.551,-48.828,-29.785,149.414
1692132728.440,-25.391,-40.527,-55.176,-35.156,-6.348
1692132728.444,-27.832,-45.410,-56.152,-34.180,-114.746
1692132728.448,-22.949,-51.758,-52.734,-26.855,36.621
1692132728.452,-22.949,-60.547,-55.176,-32.715,136.719
1692132728.455,-25.879,-56.641,-54.688,-37.109,-103.516
1692132728.459,-29.297,-60.059,-48.340,-41.016,-254.883
1692132728.463,-30.273,-70.312,-52.246,-37.598,-24.414
1692132728.467,-18.066,-67.871,-60.059,-22.949,316.895
1692132728.471,-11.230,-62.500,-54.688,-25.879,66.895
1692132728.460,-23.438,-61.035,-43.945,-41.016,-220.703
1692132728.464,-26.367,-62.988,-36.621,-50.781,-177.246
1692132728.468,-27.832,-66.895,-40.039,-42.480,-153.320
1692132728.472,-26.367,-61.523,-44.434,-29.297,-150.391
1692132728.476,-25.879,-62.988,-44.922,-30.762,-111.816
1692132728.480,-32.715,-68.359,-47.363,-38.086,-11.230
1692132728.484,-38.086,-66.406,-42.969,-44.922,-85.938
1692132728.487,-43.945,-66.406,-41.016,-42.969,-167.969
1692132728.491,-35.156,-59.570,-43.457,-26.855,-186.523
1692132728.495,-25.391,-57.129,-40.039,-16.113,123.535
1692132728.499,-31.250,-57.617,-44.434,-28.320,245.117
1692132728.503,-38.086,-52.734,-48.828,-48.340,-191.895
1692132728.518,-44.922,-54.688,-46.875,-39.062,-230.469
1692132728.522,-41.992,-53.223,-49.316,-21.484,-44.434
1692132728.526,-27.832,-45.898,-41.992,-24.414,-73.730
1692132728.530,-18.066,-41.992,-41.504,-29.297,-238.281
1692132728.534,-22.949,-51.270,-47.363,-34.180,-88.379
1692132728.538,-29.785,-62.012,-43.945,-31.738,186.035
1692132728.542,-28.809,-59.570,-45.410,-28.809,23.438
1692132728.545,-28.809,-55.176,-48.828,-28.320,-164.062
1692132728.549,-26.855,-56.152,-40.527,-32.227,50.293
1692132728.553,-27.344,-57.617,-39.551,-38.574,308.105
1692132728.557,-32.715,-47.852,-44.434,-40.527,-28.809
1692132728.561,-27.344,-46.387,-48.828,-30.762,-235.840
1692132728.563,-28.320,-50.781,-48.340,-25.391,-141.602
1692132728.567,-30.762,-47.852,-42.969,-21.484,-137.695
1692132728.571,-27.832,-51.270,-43.945,-21.484,-186.035
1692132728.575,-33.691,-62.012,-42.969,-31.250,-209.961
1692132728.579,-33.691,-59.570,-41.016,-25.391,-127.441
1692132728.583,-23.926,-54.199,-41.016,-10.254,-39.062
1692132728.587,-20.020,-49.805,-36.133,-14.648,0.977
1692132728.590,-23.438,-43.457,-37.109,-31.250,-75.684
1692132728.594,-29.785,-49.805,-39.062,-33.691,66.895
1692132728.598,-30.273,-49.805,-33.203,-13.672,124.023
1692132728.602,-20.996,-43.945,-34.180,-0.488,-174.805
1692132728.606,-19.043,-56.152,-47.363,-10.742,-119.141
1692132728.623,-28.809,-68.359,-51.270,-30.762,24.902
1692132728.627,-34.180,-75.195,-50.781,-35.156,-88.867
1692132728.631,-34.180,-71.777,-55.176,-28.320,-180.176
1692132728.635,-35.156,-68.359,-55.176,-24.414,-69.824
1692132728.639,-34.668,-68.848,-48.828,-33.691,86.914
1692132728.643,-38.574,-70.801,-48.828,-43.457,28.809
1692132728.647,-35.156,-73.730,-47.852,-38.574,-93.750
1692132728.650,-27.344,-72.266,-45.410,-22.461,-36.133
1692132728.654,-23.438,-68.359,-46.875,-14.648,188.965
1692132728.658,-20.996,-60.059,-39.551,-17.090,4.883
1692132728.662,-22.949,-64.453,-36.133,-27.832,-184.570
1692132728.666,-28.320,-67.383,-35.156,-35.645,-154.785
1692132728.654,-31.250,-61.523,-38.574,-36.133,-173.340
1692132728.658,-25.391,-63.965,-38.574,-24.414,-204.102
1692132728.662,-18.555,-59.082,-35.645,-24.414,-86.914
1692132728.666,-23.926,-53.223,-36.133,-30.762,52.734
1692132728.670,-30.273,-57.129,-33.203,-32.715,-8.301
1692132728.674,-27.344,-54.688,-29.785,-27.832,-81.543
1692132728.678,-29.297,-52.246,-29.297,-23.438,-0.977
1692132728.681,-28.809,-52.734,-30.762,-26.855,89.355
1692132728.685,-23.438,-58.594,-35.156,-33.203,-47.852
1692132728.689,-21.484,-58.105,-37.598,-38.574,-158.203
1692132728.693,-23.926,-55.176,-35.645,-33.203,-93.262
1692132728.697,-28.320,-58.594,-37.598,-16.113,236.328
1692132728.698,-26.855,-58.105,-42.969,-14.160,226.074
1692132728.702,-30.762,-58.594,-41.992,-22.949,-45.410
1692132728.706,-45.898,-65.430,-37.109,-27.344,49.805
1692132728.710,-46.875,-66.895,-35.645,-20.996,84.473
1692132728.714,-38.086,-65.430,-38.574,-17.578,-44.922
1692132728.718,-35.156,-65.430,-37.109,-12.207,-15.625
1692132728.722,-31.250,-62.988,-25.391,-10.742,93.750
1692132728.725,-30.762,-62.988,-16.602,-25.391,294.434
1692132728.729,-34.668,-60.059,-13.184,-29.297,90.820
1692132728.733,-33.203,-59.570,-12.695,-15.625,-217.773
1692132728.737,-32.715,-66.895,-16.113,-15.137,-133.301
1692132728.741,-28.809,-65.918,-15.625,-15.625,-145.996
1692132728.743,-24.902,-63.965,-20.508,-15.625,-225.586
1692132728.747,-28.809,-69.824,-25.879,-25.391,-177.734
1692132728.751,-24.414,-71.289,-27.832,-14.160,-118.652
1692132728.755,-20.020,-66.406,-32.227,-2.930,-109.375
1692132728.759,-18.066,-62.988,-38.086,-13.672,-124.512
1692132728.763,-17.090,-62.500,-36.133,-22.949,-119.629
1692132728.767,-22.461,-58.594,-29.785,-19.043,214.355
1692132728.770,-23.438,-56.641,-28.320,-14.160,276.855
1692132728.774,-13.672,-58.105,-27.344,-8.789,-69.824
1692132728.778,-12.207,-62.012,-32.715,-11.719,-132.812
1692132728.782,-24.414,-66.895,-35.645,-31.250,-38.574
1692132728.786,-30.273,-63.477,-38.574,-36.133,-148.438
1692132728.788,-24.414,-59.082,-40.039,-23.926,-308.105
1692132728.792,-26.855,-64.941,-34.668,-13.184,-128.906
1692132728.796,-38.086,-69.824,-36.621,-20.020,63.477
1692132728.800,-36.133,-70.801,-40.039,-40.527,-170.898
1692132728.804,-37.598,-72.266,-40.527,-50.293,-329.590
1692132728.808,-41.016,-69.824,-44.922,-41.992,-34.668
1692132728.812,-31.250,-67.383,-46.875,-20.020,275.879
1692132728.815,-26.855,-62.500,-46.387,-20.996,33.691
1692132728.819,-28.320,-63.965,-45.898,-35.645,-263.672
1692132728.823,-30.273,-74.219,-47.852,-37.598,-30.273
1692132728.827,-30.762,-71.289,-53.711,-27.344,94.727
1692132728.831,-22.461,-62.988,-49.316,-18.555,-170.898
1692132728.848,-19.043,-71.289,-42.480,-21.973,-154.785
1692132728.852,-19.043,-78.125,-40.039,-26.855,-104.004
1692132728.856,-22.949,-75.195,-40.039,-29.785,-144.043
1692132728.860,-24.902,-71.777,-41.992,-30.273,-217.773
1692132728.864,-18.066,-67.383,-41.016,-17.090,-163.086
1692132728.868,-14.160,-67.871,-41.016,-8.301,2.441
1692132728.872,-9.277,-73.730,-46.875,-16.113,2.930
1692132728.875,-14.648,-83.496,-53.711,-33.691,-170.898
1692132728.879,-22.461,-85.938,-55.664,-34.668,-162.109
1692132728.883,-18.066,-85.938,-56.152,-15.137,137.695
1692132728.887,-13.184,-89.355,-53.711,-7.812,85.938
1692132728.891,-13.184,-87.891,-49.805,-17.090,-166.504
1692132728.893,-18.555,-88.867,-47.852,-28.809,-63.965
1692132728.897,-24.414,-91.797,-48.828,-26.855,167.969
1692132728.901,-20.508,-88.867,-50.781,-11.230,66.895
1692132728.905,-14.160,-82.520,-46.875,-4.883,-167.969
1692132728.909,-20.508,-83.984,-41.504,-10.254,8.789
1692132728.913,-26.855,-87.891,-48.828,-27.832,193.359
1692132728.917,-26.855,-91.797,-56.641,-40.039,24.414
1692132728.920,-24.902,-92.285,-48.828,-28.809,-151.367
1692132728.924,-26.367,-99.121,-44.922,-23.438,75.684
1692132728.928,-23.438,-108.398,-46.875,-22.461,319.824
1692132728.932,-19.531,-105.469,-46.387,-33.691,37.109
1692132728.936,-27.344,-103.516,-43.457,-34.668,-108.887
1692132728.939,-30.762,-109.375,-45.410,-19.531,-40.039
1692132728.943,-22.461,-110.352,-47.363,-12.207,21.973
1692132728.947,-16.602,-115.234,-41.992,-14.160,30.762
1692132728.951,-21.484,-124.512,-39.551,-27.832,-60.547
1692132728.955,-27.344,-116.699,-37.109,-28.320,-10.254
1692132728.959,-21.973,-114.746,-42.969,-18.066,83.496
1692132728.963,-13.672,-119.629,-44.922,-10.742,6.348
1692132728.966,-22.949,-120.117,-38.574,-21.973,-86.914
1692132728.970,-28.320,-125.488,-38.086,-21.484,156.738
1692132728.974,-17.090,-131.348,-37.598,-12.695,180.176
1692132728.978,-14.648,-136.230,-37.598,-22.461,-182.617
1692132728.982,-17.578,-127.930,-40.527,-24.414,-107.910
1692132728.983,-17.578,-118.652,-43.945,-21.484,19.043
1692132728.987,-30.273,-125.488,-43.457,-38.086,-38.574
1692132728.991,-46.387,-133.789,-46.387,-58.594,-203.613
1692132728.995,-46.387,-133.789,-42.480,-47.852,-145.508
1692132728.999,-41.504,-131.836,-40.527,-18.555,136.719
1692132729.003,-46.875,-138.672,-49.316,-20.508,45.898
1692132729.007,-43.945,-147.949,-50.781,-38.574,-83.984
1692132729.010,-33.691,-150.879,-47.852,-34.668,24.902
1692132729.014,-31.738,-151.367,-42.969,-20.020,322.266
1692132729.018,-31.738,-147.461,-42.480,-11.719,154.785
1692132729.022,-24.414,-143.555,-40.527,-5.371,-170.410
1692132729.026,-18.066,-145.996,-41.016,-11.230,-137.207
1692132729.028,-21.484,-143.555,-40.039,-20.020,-158.203
1692132729.032,-22.461,-138.184,-35.156,-20.020,-166.504
1692132729.036,-15.625,-143.066,-46.387,-14.160,-130.371
1692132729.040,-19.531,-150.879,-54.688,-21.484,-97.656
1692132729.044,-17.578,-148.438,-46.387,-21.973,-78.613
1692132729.048,-18.066,-146.973,-40.039,-14.160,-52.246
1692132729.052,-29.297,-148.926,-42.969,-18.066,-27.832
1692132729.055,-25.391,-146.484,-41.992,-3.906,248.535
1692132729.059,-22.461,-136.719,-33.691,1.465,326.660
1692132729.063,-24.902,-126.953,-39.062,-18.066,-107.422
1692132729.067,-25.879,-124.512,-44.434,-29.297,-187.988
1692132729.071,-31.250,-120.605,-43.945,-31.738,-149.414
1692132729.073,-23.438,-119.141,-42.969,-21.484,-186.035
1692132729.077,-7.812,-123.047,-41.992,-8.301,-82.520
1692132729.081,-10.254,-126.953,-41.992,-13.184,62.012
1692132729.085,-22.949,-125.000,-37.598,-20.996,40.527
1692132729.089,-28.809,-125.977,-39.551,-32.227,-147.949
1692132729.093,-26.855,-132.812,-46.387,-29.785,-150.879
1692132729.097,-21.973,-128.906,-48.340,-18.066,44.922
1692132729.100,-24.902,-123.047,-48.828,-25.879,283.203
1692132729.104,-26.855,-119.629,-45.898,-37.598,42.969
1692132729.108,-20.996,-112.793,-41.992,-38.086,-213.379
1692132729.112,-20.508,-113.770,-44.922,-24.414,22.461
1692132729.116,-20.996,-119.629,-45.410,-12.207,5.859
1692132729.118,-17.578,-115.723,-42.480,-13.672,-231.934
1692132729.122,-24.902,-113.770,-46.875,-28.809,-190.430
1692132729.126,-32.227,-117.676,-46.875,-39.062,-165.527
1692132729.130,-25.879,-116.699,-42.480,-27.344,-126.953
1692132729.134,-19.531,-114.746,-43.945,-14.160,-85.938
1692132729.138,-19.043,-112.793,-43.945,-16.113,16.602
1692132729.142,-20.020,-113.281,-40.527,-23.438,287.598
1692132729.145,-27.344,-112.793,-41.504,-29.785,187.500
1692132729.149,-29.297,-106.934,-42.969,-25.391,-178.223
1692132729.153,-26.855,-107.910,-49.805,-13.672,-166.016
1692132729.157,-23.926,-106.934,-50.781,-15.137,-81.543
1692132729.161,-24.902,-98.145,-45.898,-26.855,-122.559
1692132729.164,-26.367,-95.215,-49.316,-34.668,-130.859
1692132729.168,-30.273,-96.191,-51.270,-34.668,24.902
1692132729.172,-26.855,-94.727,-43.945,-14.160,272.461
1692132729.176,-11.719,-88.379,-37.109,1.465,67.383
1692132729.180,-9.766,-92.285,-40.527,-15.625,-263.672
1692132729.184,-17.578,-97.168,-47.363,-37.598,-43.457
1692132729.188,-16.113,-94.727,-52.734,-28.320,205.566
1692132729.191,-11.719,-90.332,-51.270,-4.395,-25.879
1692132729.195,-4.883,-87.891,-47.852,-3.906,-169.922
1692132729.199,-3.906,-87.891,-47.363,-10.742,-21.973
1692132729.203,-12.207,-92.285,-50.781,-15.625,5.859
1692132729.207,-22.949,-95.703,-54.688,-24.414,-168.945
1692132729.210,-22.949,-93.750,-54.688,-16.602,-120.117
1692132729.214,-14.160,-89.844,-53.223,-7.324,-6.836
1692132729.218,-15.137,-89.355,-52.734,-22.949,-2.441
1692132729.222,-20.508,-92.285,-46.875,-35.645,-42.969
1692132729.226,-23.438,-91.797,-49.805,-33.203,-193.848
1692132729.230,-19.043,-90.820,-55.176,-18.066,125.977
1692132729.234,-18.066,-92.285,-51.270,-6.836,319.824
1692132729.237,-21.973,-94.727,-45.898,-21.484,-109.863
1692132729.241,-22.461,-103.516,-52.734,-42.969,-206.543
1692132729.245,-23.926,-104.004,-51.758,-41.016,-88.867
1692132729.249,-20.508,-99.121,-41.016,-23.926,-84.473
1692132729.253,-20.996,-109.375,-42.480,-13.672,-130.859
1692132729.268,-25.879,-109.863,-42.969,-18.555,-83.984
1692132729.272,-31.738,-101.562,-41.992,-43.457,13.184
1692132729.276,-36.621,-99.609,-43.945,-54.688,-34.668
1692132729.280,-31.250,-98.145,-45.410,-41.016,-147.461
1692132729.284,-31.250,-97.168,-45.410,-23.438,-49.805
1692132729.288,-33.691,-95.215,-47.363,-20.996,238.770
1692132729.292,-30.273,-87.402,-47.852,-24.902,92.773
1692132729.295,-34.668,-83.496,-47.852,-26.367,-181.152
1692132729.299,-33.691,-88.867,-43.945,-20.020,15.625
1692132729.303,-26.367,-83.984,-38.086,-2.930,275.391
1692132729.307,-24.414,-75.684,-40.039,-6.348,-8.301
1692132729.311,-24.902,-81.543,-41.992,-23.438,-241.699
1692132729.343,-21.484,-80.566,-43.945,-24.902,-179.688
1692132729.347,-21.973,-82.031,-53.711,-22.949,-181.152
1692132729.351,-20.508,-87.402,-62.988,-19.043,-158.203
1692132729.355,-15.625,-81.543,-57.129,-10.254,-86.914
1692132729.359,-16.602,-74.707,-44.922,-9.766,-1.465
1692132729.363,-20.996,-71.777,-40.527,-9.766,-48.340
1692132729.367,-20.020,-68.848,-43.457,-5.371,0.488
1692132729.370,-14.648,-68.359,-48.340,-5.859,-17.090
1692132729.374,-10.742,-72.266,-46.387,-9.766,153.809
1692132729.378,-15.137,-70.312,-41.504,-14.160,270.996
1692132729.382,-24.414,-66.895,-41.992,-25.879,-177.246
1692132729.386,-24.902,-67.383,-42.969,-22.461,-208.984
1692132729.389,-35.156,-62.988,-37.598,-31.738,42.969
1692132729.393,-34.668,-64.453,-33.203,-27.344,-102.051
1692132729.397,-34.180,-59.082,-35.645,-12.207,-47.363
1692132729.401,-20.508,-56.641,-41.992,-8.301,66.406
1692132729.403,-12.695,-59.082,-41.992,-14.648,-39.062
1692132729.407,-21.973,-62.012,-38.574,-35.645,-172.852
1692132729.411,-32.227,-63.477,-40.039,-42.480,-240.723
1692132729.415,-24.414,-63.477,-39.062,-18.555,-8.789
1692132729.419,-17.090,-58.594,-33.691,-8.789,311.035
1692132729.423,-19.043,-53.223,-32.715,-20.508,91.797
1692132729.427,-23.926,-57.617,-30.762,-34.180,-165.527
1692132729.430,-28.320,-58.105,-26.367,-36.133,20.020
1692132729.434,-23.438,-52.734,-28.320,-24.902,67.871
1692132729.438,-19.531,-49.805,-25.879,-20.996,-213.379
1692132729.442,-21.484,-50.781,-26.367,-23.926,-151.367
1692132729.446,-23.438,-55.176,-30.762,-34.668,-30.273
1692132729.449,-25.391,-53.223,-32.227,-42.969,-79.102
1692132729.453,-23.438,-51.270,-32.227,-28.320,-111.328
1692132729.457,-20.508,-54.688,-33.691,-11.230,-17.578
1692132729.461,-25.879,-56.641,-36.133,-20.020,207.031
1692132729.465,-28.320,-57.617,-33.691,-36.621,20.996
1692132729.469,-27.832,-59.570,-29.297,-35.156,-192.383
1692132729.473,-27.344,-62.500,-30.273,-21.973,4.883
1692132729.476,-28.320,-68.359,-32.227,-14.648,188.965
1692132729.480,-27.832,-70.312,-28.320,-16.602,-13.184
1692132729.484,-20.996,-70.312,-30.273,-25.391,-192.383
1692132729.488,-21.484,-70.801,-30.762,-28.809,-140.137
1692132729.492,-25.879,-70.312,-29.785,-20.020,-114.746
1692132729.493,-26.367,-66.406,-37.598,-5.859,-164.551
1692132729.497,-20.020,-62.988,-38.086,-3.418,-173.340
1692132729.501,-18.066,-67.383,-34.668,-15.625,-62.988
1692132729.505,-25.391,-67.383,-36.133,-24.902,-26.367
1692132729.509,-29.297,-62.500,-34.668,-26.367,-79.102
1692132729.513,-20.996,-62.012,-36.133,-13.184,1.953
1692132729.517,-12.207,-65.430,-34.668,3.906,321.289
1692132729.520,-20.508,-63.477,-37.598,-6.836,365.234
1692132729.524,-24.902,-53.223,-35.645,-19.531,-92.773
1692132729.528,-25.391,-49.805,-30.762,-17.090,-188.965
1692132729.532,-31.738,-54.199,-34.180,-20.508,-15.137
1692132729.536,-26.855,-60.059,-33.203,-21.484,-61.523
1692132729.538,-23.926,-59.082,-32.227,-28.809,-182.129
1692132729.542,-22.461,-51.758,-33.203,-38.574,-20.020
1692132729.546,-25.879,-45.898,-32.715,-35.645,148.438
1692132729.550,-19.531,-43.457,-31.250,-20.996,-6.836
1692132729.554,-12.207,-46.387,-31.738,-9.766,-178.223
1692132729.558,-14.160,-45.898,-34.668,-12.207,-46.875
1692132729.562,-12.207,-39.551,-33.203,-19.043,136.719
1692132729.565,-21.484,-46.387,-34.180,-20.508,-61.523
1692132729.569,-25.391,-55.176,-38.574,-14.160,-220.215
1692132729.573,-18.555,-51.758,-33.691,-0.488,-20.996
1692132729.577,-17.578,-51.270,-32.715,-5.859,191.895
1692132729.581,-20.508,-46.387,-37.598,-28.809,-76.172
1692132729.598,-22.949,-45.898,-36.133,-31.738,-230.469
1692132729.602,-22.461,-55.664,-38.086,-20.020,-113.281
1692132729.606,-18.066,-58.594,-41.016,-13.184,-33.203
1692132729.610,-15.137,-49.316,-41.992,-15.137,-96.191
1692132729.614,-33.203,-52.246,-33.691,-28.320,-175.781
1692132729.618,-35.645,-70.312,-26.367,-12.695,-43.457
1692132729.622,-11.230,-73.730,-28.809,21.484,56.152
1692132729.625,-4.395,-55.664,-41.016,17.090,-89.355
1692132729.629,-22.949,-47.852,-51.758,-13.672,-47.852
1692132729.633,-38.086,-53.711,-47.363,-46.875,1.465
1692132729.637,-38.574,-54.199,-47.363,-60.059,-155.762
1692132729.641,-24.902,-53.711,-47.363,-51.270,-198.242
1692132729.643,-19.531,-53.223,-47.852,-37.109,-154.297
1692132729.647,-26.367,-52.246,-46.387,-32.227,315.430
1692132729.651,-36.621,-46.875,-48.340,-44.922,480.469
1692132729.655,-31.738,-41.504,-48.340,-50.781,-138.672
1692132729.659,-24.414,-44.922,-45.898,-37.598,-181.152
1692132729.663,-20.508,-47.852,-50.781,-27.832,49.316
1692132729.667,-15.137,-51.758,-49.316,-20.020,-29.785
1692132729.670,-17.090,-57.129,-46.387,-26.855,-182.617
1692132729.674,-16.602,-63.477,-46.875,-38.086,-60.059
1692132729.678,-19.043,-64.453,-46.875,-33.691,145.996
1692132729.682,-12.207,-61.523,-42.480,-23.438,-41.016
1692132729.686,2.441,-62.500,-35.645,-11.719,-148.926
1692132729.688,-0.977,-57.617,-34.668,-22.461,-44.434
1692132729.692,-8.789,-52.246,-36.133,-39.062,-34.180
1692132729.696,-4.883,-48.828,-32.715,-25.391,-201.172
1692132729.700,-7.812,-53.223,-34.668,-16.602,-176.758
1692132729.704,-17.090,-54.688,-36.621,-10.254,-82.520
1692132729.708,-14.648,-54.688,-35.645,-11.719,-49.316
1692132729.712,-11.719,-53.223,-35.156,-26.855,-25.879
1692132729.715,-20.508,-53.223,-34.668,-30.762,-123.535
1692132729.719,-12.207,-54.688,-31.738,-11.230,109.863
1692132729.723,-0.488,-46.875,-31.250,3.418,231.445
1692132729.727,-4.395,-41.992,-37.109,-8.789,-120.605
1692132729.731,-15.137,-43.457,-40.527,-20.020,-134.277
1692132729.734,-27.344,-49.805,-36.621,-20.508,-60.059
1692132729.738,-23.926,-54.199,-30.762,-10.254,-65.918
1692132729.742,-11.719,-50.293,-30.273,0.000,-66.895
1692132729.746,-14.160,-45.410,-25.879,-0.977,9.766
1692132729.750,-23.438,-48.828,-27.832,-13.184,201.660
1692132729.754,-19.043,-47.852,-33.691,-19.043,118.652
1692132729.758,-13.672,-41.504,-34.668,-14.160,-51.270
1692132729.761,-14.160,-42.480,-33.691,0.977,50.293
1692132729.765,-16.113,-42.969,-34.180,-0.977,194.824
1692132729.769,-21.484,-39.551,-34.180,-20.020,-116.211
1692132729.773,-24.902,-35.156,-25.879,-18.555,-288.086
1692132729.777,-20.996,-36.133,-27.832,-9.766,-111.816
1692132729.778,-12.207,-43.457,-29.297,0.000,-25.391
1692132729.782,-10.254,-45.898,-35.156,-4.883,-81.055
1692132729.786,-1.953,-44.922,-43.457,-14.160,-151.367
1692132729.790,6.348,-48.340,-35.645,-3.418,-124.512
1692132729.794,0.488,-50.293,-26.855,-1.465,-121.094
1692132729.798,-18.555,-58.105,-29.297,-16.602,-39.062
1692132729.802,-25.879,-69.824,-31.738,-27.344,39.062
1692132729.805,-27.832,-77.148,-27.344,-38.086,237.793
1692132729.809,-31.250,-76.172,-23.926,-33.203,294.922
1692132729.813,-22.949,-71.777,-20.020,-21.484,-88.867
1692132729.817,-20.508,-73.730,-13.672,-9.277,-151.367
1692132729.821,-22.949,-77.637,-18.066,-12.207,-102.539
1692132729.823,-31.250,-77.148,-23.926,-30.273,-178.711
1692132729.827,-39.062,-72.754,-21.484,-43.945,-183.594
1692132729.831,-42.969,-75.684,-22.461,-45.410,-82.031
1692132729.835,-39.062,-80.078,-28.809,-27.832,68.359
1692132729.839,-22.949,-73.730,-26.367,-12.695,-21.484
1692132729.843,-10.742,-72.266,-19.531,-10.254,-74.219
1692132729.847,-22.949,-70.312,-22.949,-27.344,51.758
1692132729.850,-36.621,-74.707,-27.832,-27.344,325.684
1692132729.854,-37.598,-72.266,-24.414,-17.090,147.461
1692132729.858,-37.598,-65.430,-29.297,-19.043,-189.941
1692132729.862,-32.227,-66.406,-33.691,-19.531,-151.855
1692132729.866,-30.762,-62.500,-31.250,-22.461,-201.172
1692132729.883,-35.156,-61.035,-30.273,-19.531,-269.531
1692132729.887,-24.902,-55.176,-24.902,-4.395,-203.613
1692132729.891,-13.672,-53.223,-21.484,9.766,-79.590
1692132729.895,-15.137,-55.664,-27.832,-2.441,-88.867
1692132729.899,-14.160,-49.805,-28.809,-21.973,-151.367
1692132729.903,-15.625,-42.480,-20.996,-22.461,-141.113
1692132729.907,-11.719,-42.969,-16.602,-5.859,218.262
1692132729.910,-10.742,-39.062,-21.973,2.930,253.418
1692132729.914,-17.090,-42.969,-31.250,-12.207,-61.523
1692132729.918,-27.344,-58.594,-33.691,-29.785,-83.984
1692132729.922,-31.250,-56.152,-36.133,-35.645,-98.633
1692132729.926,-22.949,-48.828,-27.344,-18.555,-155.762
1692132729.913,-18.555,-49.805,-21.484,0.000,-247.070
1692132729.917,-16.113,-53.711,-27.344,-11.230,-98.145
1692132729.921,-18.555,-54.199,-29.297,-22.949,97.656
1692132729.925,-20.996,-50.293,-29.297,-24.902,-80.078
1692132729.929,-14.648,-47.852,-26.855,-7.324,-246.582
1692132729.933,-7.324,-54.199,-27.344,9.766,0.977
1692132729.937,-11.230,-54.199,-34.668,-8.789,147.461
1692132729.940,-16.113,-50.293,-37.109,-17.090,-41.992
1692132729.944,-17.578,-49.316,-36.133,-20.508,-202.148
1692132729.948,-21.973,-49.316,-34.668,-14.648,-46.875
1692132729.952,-18.555,-50.293,-33.203,2.930,209.961
1692132729.956,-12.207,-43.457,-31.250,-3.418,41.992
1692132729.961,-12.207,-39.062,-32.227,-20.020,-169.922
1692132729.965,-14.648,-40.527,-37.109,-15.625,38.574
1692132729.969,-15.625,-42.480,-34.668,-8.301,117.676
1692132729.973,-7.812,-38.574,-29.785,-6.348,-141.602
1692132729.977,-4.395,-41.992,-28.320,-1.953,-139.160
1692132729.981,-19.531,-47.852,-29.785,-9.277,10.742
1692132729.985,-27.344,-43.945,-33.691,-20.996,0.488
1692132729.988,-33.691,-46.387,-38.574,-20.996,-152.344
1692132729.992,-38.574,-48.828,-38.574,-11.719,-180.176
1692132729.996,-27.344,-48.340,-37.109,-1.953,74.707
1692132730.000,-21.484,-41.504,-40.527,-11.719,80.078
1692132730.004,-20.996,-37.109,-38.574,-21.973,-187.012
1692132730.018,-28.320,-44.922,-37.598,-16.602,-125.000
1692132730.022,-24.414,-49.316,-37.598,-8.789,-24.414
1692132730.026,-13.184,-47.363,-39.551,-4.395,-2.930
1692132730.030,-21.973,-55.664,-40.039,-15.137,-11.230
1692132730.034,-17.090,-69.824,-31.250,-11.230,-32.227
1692132730.038,9.766,-70.312,-26.855,22.949,411.621
1692132730.042,20.996,-40.039,-34.668,39.062,427.246
1692132730.045,-0.977,-26.367,-45.410,4.883,-127.441
1692132730.049,-19.531,-39.062,-45.410,-26.367,-152.344
1692132730.053,-27.344,-43.457,-45.898,-42.480,-144.531
1692132730.057,-32.227,-43.457,-48.828,-49.316,-274.902
1692132730.061,-24.414,-45.898,-45.898,-33.691,-254.883
1692132730.063,-15.625,-49.316,-44.922,-21.484,-30.273
1692132730.067,-12.695,-41.504,-50.293,-32.715,30.762
1692132730.071,-17.578,-38.086,-53.223,-45.898,-140.137
1692132730.075,-21.484,-40.527,-54.199,-41.504,-145.996
1692132730.079,-20.020,-41.992,-58.105,-34.180,23.926
1692132730.083,-14.160,-37.598,-58.105,-22.949,89.844
1692132730.087,-9.766,-34.668,-47.852,-10.742,-40.039
1692132730.090,-15.625,-36.621,-46.387,-24.414,-179.688
1692132730.094,-25.391,-43.457,-51.270,-38.574,87.891
1692132730.098,-23.926,-44.434,-54.199,-31.250,222.656
1692132730.102,-14.160,-41.016,-55.664,-23.926,-111.328
1692132730.106,-7.324,-48.828,-55.664,-20.020,-119.629
1692132730.108,-12.207,-50.781,-58.594,-26.367,-25.391
1692132730.112,-20.996,-44.434,-54.199,-28.320,-10.742
1692132730.116,-14.648,-42.480,-52.246,-12.695,-99.609
1692132730.120,-2.930,-43.945,-52.734,6.836,-27.344
1692132730.124,4.883,-42.480,-44.434,9.277,156.738
1692132730.128,5.859,-37.109,-43.945,-8.789,16.602
1692132730.132,0.000,-36.621,-50.781,-11.719,-144.043
1692132730.135,3.418,-44.922,-46.387,-6.836,-6.836
1692132730.139,6.836,-48.340,-48.340,1.953,313.965
1692132730.143,1.953,-39.551,-52.246,-3.906,54.199
1692132730.147,-7.812,-40.527,-47.363,-22.949,-306.152
1692132730.151,-8.301,-43.945,-45.898,-22.461,-228.516
1692132730.153,-6.836,-39.551,-47.363,-17.578,-224.121
1692132730.157,-8.301,-41.992,-45.410,-5.371,-249.023
1692132730.161,-1.465,-50.781,-43.457,-3.418,-205.078
1692132730.165,-11.719,-56.152,-47.363,-18.555,-196.777
1692132730.169,-16.602,-55.176,-48.340,-23.926,-188.477
1692132730.173,-14.160,-53.711,-46.387,-12.695,-150.879
1692132730.177,-11.230,-59.570,-44.434,2.930,-122.559
1692132730.180,-5.371,-65.430,-46.387,10.254,92.285
1692132730.184,-9.277,-64.453,-47.852,-2.930,186.523
1692132730.188,-12.695,-65.918,-40.527,-16.113,-107.910
1692132730.192,-9.277,-66.895,-38.086,-4.395,-179.688
1692132730.196,-3.418,-62.500,-40.527,10.254,-24.414
1692132730.198,-3.906,-61.035,-41.504,11.719,-76.660
1692132730.202,-9.766,-66.895,-46.875,-0.977,-148.926
1692132730.206,-13.672,-66.895,-49.316,-6.348,-50.293
1692132730.210,-13.672,-62.012,-47.852,-2.930,36.133
1692132730.214,-14.648,-62.988,-49.316,-0.977,-75.684
1692132730.218,-14.648,-66.406,-49.805,4.395,-15.137
1692132730.222,-15.137,-65.430,-49.805,0.977,181.641
1692132730.225,-22.949,-64.453,-48.340,-14.160,214.844
1692132730.229,-28.320,-65.430,-48.340,-23.926,-67.383
1692132730.233,-17.578,-58.594,-43.945,-2.441,-253.906
1692132730.237,-2.441,-56.152,-37.598,14.648,-111.816
1692132730.241,0.488,-60.059,-37.109,10.742,0.000
1692132730.244,-5.859,-58.105,-37.109,-1.953,-89.844
1692132730.248,-14.160,-65.430,-40.039,-11.719,-216.797
1692132730.252,-10.742,-73.242,-43.945,0.000,-7.324
1692132730.256,-4.883,-71.289,-45.898,0.000,67.871
1692132730.260,-7.324,-72.754,-54.199,-9.277,-114.258
1692132730.264,-7.812,-74.707,-57.617,-22.461,-114.258
1692132730.268,-10.254,-77.637,-54.688,-11.719,180.664
1692132730.271,7.812,-89.355,-49.316,26.855,199.219
1692132730.275,29.297,-74.707,-52.734,39.062,-143.066
1692132730.279,-5.859,-57.129,-64.941,-14.648,-148.926
1692132730.283,-44.434,-64.453,-65.430,-68.848,-128.418
1692132730.287,-45.898,-71.289,-58.594,-64.453,-150.391
1692132730.289,-41.992,-77.637,-57.617,-49.316,-141.602
1692132730.293,-44.434,-74.219,-56.152,-45.410,8.789
1692132730.297,-59.082,-61.523,-56.641,-59.570,165.039
1692132730.301,-68.359,-57.129,-61.035,-75.684,-16.602
1692132730.305,-59.570,-60.547,-62.500,-75.195,-160.645
1692132730.309,-55.176,-59.570,-60.059,-66.895,-23.926
1692132730.313,-60.059,-52.246,-59.570,-67.383,393.555
1692132730.316,-49.805,-44.922,-60.547,-56.641,281.250
1692132730.320,-33.203,-45.410,-62.500,-61.035,-194.824
1692132730.324,-43.945,-50.781,-63.477,-76.172,-100.586
1692132730.328,-47.852,-45.898,-64.453,-68.359,-58.105
1692132730.332,-29.297,-45.410,-59.082,-51.270,-176.758
1692132730.335,-23.438,-53.711,-57.129,-48.828,-161.621
1692132730.339,-26.367,-53.223,-63.477,-60.059,-101.562
1692132730.343,-24.902,-56.152,-65.918,-62.012,-132.324
1692132730.347,-20.020,-66.406,-60.547,-44.922,-172.852
1692132730.351,-10.742,-68.848,-58.105,-22.461,-125.000
1692132730.355,-8.301,-66.895,-59.570,-17.090,230.469
1692132730.359,-13.184,-69.336,-52.734,-28.809,282.227
1692132730.362,-15.625,-71.289,-52.246,-44.434,-118.164
1692132730.366,-20.996,-79.102,-57.617,-44.434,-177.246
1692132730.370,-18.066,-81.543,-56.152,-25.391,33.691
1692132730.374,-15.625,-71.289,-50.781,-19.531,17.578
1692132730.378,-19.531,-65.918,-51.758,-27.832,-192.871
1692132730.393,-24.902,-68.359,-52.734,-37.598,-200.684
1692132730.397,-31.738,-74.219,-51.270,-51.270,-155.762
1692132730.401,-24.902,-75.684,-53.223,-40.527,-92.773
1692132730.405,-14.160,-70.312,-56.641,-25.879,-111.328
1692132730.409,-7.812,-70.312,-55.176,-21.484,-42.480
1692132730.413,-5.859,-71.777,-50.781,-13.184,229.492
1692132730.417,-3.906,-65.430,-46.387,-9.766,109.863
1692132730.420,0.977,-70.801,-49.316,-0.977,-73.730
1692132730.424,2.930,-79.102,-48.340,17.578,64.453
1692132730.428,0.488,-78.125,-42.480,20.996,209.961
1692132730.432,0.000,-70.801,-45.410,1.465,-53.223
1692132730.436,5.371,-71.777,-51.758,0.000,-203.613
1692132730.438,0.488,-78.125,-53.223,16.113,-114.258
1692132730.442,-0.488,-80.078,-45.898,21.484,-69.336
1692132730.446,6.836,-79.102,-44.922,15.137,-102.539
1692132730.450,2.441,-80.566,-46.875,1.465,-170.410
1692132730.454,-12.695,-85.938,-50.781,-11.719,-94.238
1692132730.458,-13.672,-85.938,-53.223,-7.324,-72.266
1692132730.462,0.977,-80.566,-48.828,12.695,0.488
1692132730.465,10.742,-77.148,-47.852,13.184,-46.875
1692132730.469,-1.953,-80.078,-48.828,2.930,98.145
1692132730.473,-13.184,-81.055,-50.293,3.906,181.641
1692132730.477,-7.812,-80.078,-50.781,5.859,-182.617
1692132730.481,-2.930,-83.008,-51.270,9.766,-192.871
1692132730.482,3.906,-76.172,-49.316,2.930,7.812
1692132730.486,1.465,-75.195,-47.852,-12.207,23.438
1692132730.490,-5.859,-81.543,-47.852,-9.277,-138.184
1692132730.494,-7.324,-80.566,-42.969,-2.930,-135.742
1692132730.498,-6.836,-79.590,-45.410,7.812,53.711
1692132730.502,2.930,-75.195,-48.828,18.555,48.828
1692132730.506,-1.465,-72.754,-46.387,-1.953,-58.105
1692132730.509,-12.695,-71.289,-48.340,-20.996,-11.719
1692132730.513,-10.742,-73.730,-49.316,-8.301,149.902
1692132730.517,1.465,-74.707,-48.828,12.207,-16.113
1692132730.521,8.301,-69.824,-51.270,11.230,-101.074
1692132730.525,-5.371,-66.406,-57.617,-8.301,-14.648
1692132730.528,-9.277,-68.848,-61.035,-14.648,-27.832
1692132730.532,-6.836,-67.871,-62.500,-6.348,-66.406
1692132730.536,-1.953,-64.453,-55.664,10.254,-51.270
1692132730.540,3.418,-68.848,-56.152,18.066,81.055
1692132730.544,-3.418,-71.289,-63.477,2.930,64.453
1692132730.548,-8.789,-71.289,-56.641,-11.719,-7.812
1692132730.552,-10.254,-70.801,-51.270,-13.672,-7.324
1692132730.555,-8.301,-72.266,-51.758,1.953,201.172
1692132730.559,0.000,-69.336,-47.363,20.508,309.082
1692132730.563,7.324,-61.523,-43.457,14.648,-44.922
1692132730.567,1.465,-62.012,-50.781,2.441,-187.012
1692132730.571,-10.742,-65.918,-56.641,-6.348,-152.344
1692132730.574,-11.230,-69.336,-57.129,-5.859,-86.426
1692132730.578,-1.953,-69.824,-52.246,7.812,-66.406
1692132730.582,-2.441,-73.730,-49.316,1.953,46.387
1692132730.586,-13.184,-76.172,-46.875,-13.184,291.016
1692132730.590,-11.230,-73.242,-44.922,-15.625,58.105
1692132730.594,-3.906,-61.523,-50.781,-3.418,-177.246
1692132730.598,4.395,-49.805,-45.410,17.090,71.777
1692132730.601,10.254,-49.805,-41.504,14.160,286.133
1692132730.605,2.441,-49.805,-39.062,0.488,-31.738
1692132730.609,-4.883,-51.270,-38.086,-2.441,-282.227
1692132730.613,-6.348,-53.223,-44.434,5.859,-159.180
1692132730.617,4.883,-55.176,-41.504,20.020,-128.418
1692132730.635,15.137,-60.059,-41.016,12.695,-167.480
1692132730.639,4.395,-66.406,-48.340,-10.742,-139.648
1692132730.643,-11.719,-64.453,-49.805,-22.461,-100.098
1692132730.647,-12.695,-60.547,-47.363,-10.254,-122.559
1692132730.651,-0.977,-59.082,-46.387,9.766,-80.078
1692132730.655,0.000,-58.594,-48.340,12.695,-13.184
1692132730.659,-6.836,-59.082,-48.828,-1.953,269.043
1692132730.662,-20.508,-57.129,-46.875,-13.672,342.285
1692132730.666,-24.902,-58.594,-46.387,-7.812,-124.023
1692132730.670,-11.230,-60.547,-47.852,10.742,-194.824
1692132730.674,-3.906,-62.012,-46.875,14.160,-90.820
1692132730.678,-7.324,-70.312,-48.340,-4.395,-128.906
1692132730.663,-13.184,-69.824,-51.270,-10.254,-208.984
1692132730.667,-13.672,-69.824,-50.781,1.953,-37.598
1692132730.671,-6.836,-72.754,-49.805,9.766,125.000
1692132730.675,-2.441,-70.801,-49.805,7.812,-63.477
1692132730.679,-5.859,-66.895,-45.898,-1.465,-191.406
1692132730.683,-15.625,-67.383,-44.922,-7.812,-5.859
1692132730.687,-15.137,-66.406,-50.781,-5.859,144.531
1692132730.690,-6.348,-57.129,-50.781,2.441,-14.648
1692132730.694,-4.395,-54.688,-47.852,14.160,-91.309
1692132730.698,-3.906,-67.871,-53.711,7.324,0.977
1692132730.702,-9.277,-76.172,-52.734,-9.277,367.188
1692132730.706,-11.719,-68.848,-45.898,-8.301,270.020
1692132730.710,-7.812,-68.848,-45.410,6.348,-112.793
1692132730.714,-2.930,-71.777,-41.992,9.766,-118.164
1692132730.718,-2.930,-63.965,-39.062,-2.930,-116.699
1692132730.722,-15.137,-61.035,-34.668,-12.695,-241.699
1692132730.726,-24.414,-67.871,-36.133,-19.531,-237.793
1692132730.730,-19.043,-71.289,-42.480,-13.184,-7.812
1692132730.734,-9.277,-71.777,-43.457,7.812,84.961
1692132730.737,-13.672,-71.289,-45.898,5.371,-44.922
1692132730.741,-20.020,-72.266,-50.781,-19.043,-228.516
1692132730.745,-31.738,-73.730,-53.711,-19.531,121.094
1692132730.749,-34.180,-67.383,-51.758,-3.418,252.441
1692132730.753,-12.207,-63.477,-50.781,8.301,-160.645
1692132730.768,-9.766,-63.477,-49.805,-1.953,-168.945
1692132730.772,-19.531,-65.430,-47.852,-16.602,-94.238
1692132730.776,-23.438,-62.988,-46.875,-14.160,-99.609
1692132730.780,-21.484,-60.059,-44.434,-2.441,-209.961
1692132730.784,-11.230,-60.059,-40.039,7.812,-103.516
1692132730.788,-10.254,-57.617,-40.039,6.348,259.766
1692132730.792,-21.484,-56.152,-41.016,-8.301,183.594
1692132730.795,-29.785,-61.523,-44.434,-18.555,-154.785
1692132730.799,-30.273,-68.359,-49.805,-16.602,-92.285
1692132730.803,-21.973,-68.359,-47.852,-7.324,157.715
1692132730.807,-20.508,-67.383,-50.293,-15.137,8.789
1692132730.811,-17.090,-65.430,-49.805,-21.973,-142.578
1692132730.816,-18.555,-60.059,-43.945,-23.926,-67.383
1692132730.820,-20.508,-56.152,-39.551,-24.414,-84.961
1692132730.824,-10.742,-60.059,-38.574,-8.301,-164.062
1692132730.828,-6.836,-65.430,-41.504,3.906,-130.859
1692132730.832,-8.789,-70.312,-42.969,-9.277,-62.500
1692132730.836,-20.508,-78.125,-46.875,-22.949,3.418
1692132730.840,-14.648,-82.520,-46.387,-20.996,-41.992
1692132730.843,-2.441,-83.984,-44.434,-9.766,-178.223
1692132730.847,-3.418,-88.867,-46.387,-0.977,78.125
1692132730.851,-11.719,-90.332,-47.852,-15.137,134.766
1692132730.855,-22.949,-90.820,-45.898,-29.297,-200.195
1692132730.859,-20.020,-93.262,-45.898,-23.926,-160.156
1692132730.858,-9.277,-96.191,-44.922,-9.277,-103.516
1692132730.862,-5.371,-95.703,-41.016,7.324,-78.125
1692132730.866,-12.695,-98.145,-42.969,-4.395,-51.758
1692132730.870,-22.949,-96.680,-38.574,-17.090,-26.367
1692132730.874,-17.578,-92.285,-33.691,-11.719,8.789
1692132730.878,-14.160,-94.727,-33.691,0.977,37.598
1692132730.882,-19.043,-98.633,-33.203,6.836,61.035
1692132730.885,-25.391,-103.516,-36.133,-11.230,17.578
1692132730.889,-29.785,-104.980,-35.156,-18.555,302.246
1692132730.893,-28.320,-98.633,-35.156,-18.066,321.777
1692132730.897,-13.184,-99.121,-37.598,-4.395,-80.078
1692132730.901,2.930,-105.957,-38.574,12.207,-135.254
1692132730.918,13.184,-103.027,-37.109,3.418,-102.539
1692132730.922,11.230,-99.121,-39.062,-14.160,-185.547
1692132730.926,-3.906,-99.609,-41.992,-16.602,-223.145
1692132730.930,-7.324,-101.562,-43.945,2.930,-162.109
1692132730.934,-4.883,-104.492,-46.875,8.789,-78.125
1692132730.938,-10.254,-103.027,-45.410,-9.277,3.418
1692132730.942,-21.484,-94.727,-40.527,-24.902,-27.832
1692132730.945,-33.691,-94.727,-39.062,-27.832,219.238
1692132730.949,-26.367,-94.238,-34.180,-10.742,310.059
1692132730.953,-11.719,-86.914,-27.832,-3.418,-108.887
1692132730.957,-11.230,-90.820,-30.762,-7.324,-169.434
1692132730.961,-20.020,-95.215,-33.203,-17.578,-131.836
1692132730.948,-22.461,-92.285,-34.180,-25.391,-230.957
1692132730.952,-15.625,-86.914,-35.645,-10.742,-183.594
1692132730.956,-13.184,-82.520,-34.180,5.371,-64.453
1692132730.960,-17.578,-81.543,-35.156,-0.977,66.895
1692132730.964,-21.484,-84.473,-39.551,-23.438,-39.062
1692132730.968,-24.414,-88.867,-41.504,-41.504,-161.133
1692132730.972,-25.391,-91.797,-42.969,-37.598,29.297
1692132730.975,-21.484,-87.402,-38.574,-21.484,60.547
1692132730.979,-19.043,-79.102,-35.645,-18.555,-2.930
1692132730.983,-26.367,-83.496,-37.598,-30.762,-130.371
1692132730.987,-36.133,-90.332,-36.133,-31.250,-103.027
1692132730.991,-35.156,-87.402,-35.156,-22.461,266.602
1692132730.992,-21.973,-79.590,-34.668,-4.395,82.031
1692132730.996,-10.742,-80.078,-35.645,6.348,-176.758
1692132731.000,-16.113,-82.520,-41.016,-15.625,-113.770
1692132731.004,-18.555,-79.102,-39.551,-33.203,-160.645
1692132731.008,-20.996,-79.102,-41.504,-22.949,-220.703
1692132731.012,-14.160,-77.637,-39.551,-1.953,-206.055
1692132731.016,-3.906,-74.219,-40.039,5.859,161.133
1692132731.019,-14.160,-71.289,-43.945,1.953,252.441
1692132731.023,-24.902,-70.312,-42.969,-10.254,-190.918
1692132731.027,-20.020,-70.312,-41.504,-5.859,-207.031
1692132731.031,1.465,-55.176,-37.598,23.438,-24.414
1692132731.035,0.000,-53.711,-31.738,23.438,-19.531
1692132731.038,-13.184,-64.453,-27.344,-13.184,-135.742
1692132731.042,-12.695,-71.777,-29.785,-25.879,-105.469
1692132731.046,-22.461,-76.660,-34.180,-24.902,148.926
1692132731.050,-24.902,-68.848,-39.551,-17.578,37.109
1692132731.054,-16.113,-61.523,-38.574,0.488,-171.875
1692132731.058,-15.625,-59.082,-41.504,-6.348,-6.836
1692132731.062,-23.438,-63.965,-43.457,-15.625,122.559
1692132731.065,-25.391,-61.523,-39.551,-16.602,-123.047
1692132731.069,-17.090,-55.664,-38.574,-7.324,-241.699
1692132731.073,-6.836,-61.523,-34.668,6.348,-28.320
1692132731.077,-11.230,-65.430,-32.715,-2.441,27.344
1692132731.081,-23.926,-61.523,-37.598,-25.391,-225.098
1692132731.099,-33.691,-63.965,-42.480,-32.227,-188.965
1692132731.103,-40.527,-56.152,-44.434,-16.602,63.965
1692132731.107,-30.273,-50.293,-46.875,-6.348,64.453
1692132731.111,-23.438,-54.688,-49.316,-15.137,-110.840
1692132731.115,-25.391,-50.781,-46.875,-22.461,-182.129
1692132731.119,-23.438,-53.223,-42.480,-29.785,-66.406
1692132731.123,-12.207,-53.223,-46.875,-25.391,93.262
1692132731.126,10.254,-51.758,-45.410,-7.324,23.438
1692132731.130,19.531,-50.293,-41.504,-5.371,-94.238
1692132731.134,10.742,-46.387,-46.387,-16.113,113.281
1692132731.138,-8.301,-44.922,-47.363,-19.531,55.176
1692132731.142,-13.672,-45.410,-45.410,-11.719,-203.613
1692132731.143,-6.836,-45.410,-46.875,2.930,-113.281
1692132731.147,-2.441,-47.363,-44.922,-1.465,7.812
1692132731.151,-12.207,-49.316,-46.387,-23.926,-7.812
1692132731.155,-29.785,-50.293,-50.293,-35.156,-51.270
1692132731.159,-32.715,-52.734,-49.316,-25.391,-3.418
1692132731.163,-22.461,-52.734,-47.852,-8.789,189.941
1692132731.167,-16.113,-50.781,-41.504,-11.230,163.086
1692132731.170,-25.879,-55.176,-39.062,-24.902,-100.586
1692132731.174,-37.598,-58.594,-43.457,-38.086,-118.164
1692132731.178,-39.062,-60.547,-40.039,-29.785,233.398
1692132731.182,-33.203,-57.617,-39.551,-12.207,122.559
1692132731.186,-22.949,-50.293,-40.039,-8.789,-156.250
1692132731.188,-22.461,-45.410,-35.645,-22.461,-88.379
1692132731.192,-28.809,-51.758,-35.156,-35.645,-164.062
1692132731.196,-31.250,-56.152,-31.738,-31.250,-184.082
1692132731.200,-29.297,-56.641,-37.109,-14.160,-84.473
1692132731.204,-23.926,-55.176,-43.945,-6.348,-25.879
1692132731.208,-25.879,-56.152,-41.016,-18.066,-1.953
1692132731.212,-31.250,-55.664,-41.016,-35.156,-11.230
1692132731.215,-26.855,-53.223,-46.875,-38.574,-103.516
1692132731.219,-20.508,-53.711,-46.875,-18.066,94.238
1692132731.223,-23.438,-49.805,-44.434,-3.906,261.719
1692132731.227,-27.832,-46.875,-47.852,-20.020,-104.492
1692132731.231,-35.645,-47.852,-45.898,-40.527,-229.980
1692132731.233,-36.133,-45.410,-49.805,-42.480,-169.434
1692132731.237,-21.484,-41.016,-52.734,-25.391,-67.871
1692132731.241,-10.742,-38.574,-47.363,-17.090,-86.914
1692132731.245,-16.113,-41.016,-46.875,-20.020,-92.285
1692132731.249,-24.902,-43.457,-43.945,-29.785,45.410
1692132731.253,-31.738,-47.363,-38.086,-34.180,-12.695
1692132731.257,-40.527,-50.293,-43.457,-27.344,-43.457
1692132731.260,-34.180,-46.875,-45.410,-18.555,48.828
1692132731.264,-30.762,-50.781,-41.504,-25.879,332.520
1692132731.268,-36.621,-46.875,-36.133,-47.363,128.418
1692132731.272,-37.109,-43.945,-31.738,-56.152,-256.348
1692132731.276,-40.039,-52.734,-37.598,-41.992,-94.727
1692132731.277,-43.945,-57.129,-41.504,-35.645,-9.766
1692132731.281,-41.504,-53.223,-40.527,-43.457,-101.562
1692132731.285,-40.039,-52.246,-38.086,-45.410,-121.582
1692132731.289,-27.832,-53.711,-36.133,-33.203,-138.184
1692132731.293,-26.367,-46.875,-40.527,-25.391,-162.598
1692132731.297,-43.945,-39.551,-50.293,-40.527,-81.543
1692132731.301,-39.062,-39.551,-48.340,-43.945,-40.527
1692132731.304,-31.738,-53.711,-41.504,-41.992,132.324
1692132731.308,-48.340,-66.406,-38.574,-54.688,175.293
1692132731.312,-53.711,-67.383,-35.156,-61.035,-170.898
1692132731.316,-38.574,-68.848,-37.109,-47.363,-104.492
1692132731.320,-36.621,-69.336,-40.527,-39.551,102.539
1692132731.338,-36.133,-64.453,-36.621,-39.062,-38.086
1692132731.342,-33.691,-63.477,-35.156,-50.781,-160.645
1692132731.346,-35.156,-65.918,-37.109,-51.758,-97.168
1692132731.350,-28.320,-71.289,-35.645,-30.273,7.812
1692132731.354,-15.137,-68.359,-35.645,-22.949,-26.855
1692132731.358,-21.973,-63.477,-39.062,-31.250,-5.859
1692132731.362,-33.691,-63.477,-41.504,-35.645,90.332
1692132731.365,-34.668,-62.012,-45.410,-38.574,186.523
1692132731.369,-26.855,-51.758,-41.016,-29.297,-13.672
1692132731.373,-23.926,-48.828,-37.109,-22.461,-186.035
1692132731.377,-33.203,-49.805,-35.156,-26.855,-115.234
1692132731.381,-41.016,-47.363,-33.203,-33.203,-115.234
1692132731.369,-38.086,-49.316,-37.109,-31.738,-134.766
1692132731.373,-26.367,-52.734,-41.992,-21.484,-92.773
1692132731.377,-15.137,-57.129,-44.434,-11.719,97.656
1692132731.381,-10.742,-51.270,-44.922,-13.672,36.621
1692132731.385,-19.043,-47.852,-43.945,-26.367,-212.402
1692132731.389,-26.855,-56.152,-42.969,-26.367,-209.473
1692132731.393,-18.066,-54.199,-38.086,-9.766,-21.484
1692132731.396,-11.719,-55.176,-34.668,-5.371,58.594
1692132731.400,-20.508,-56.641,-41.504,-20.020,-34.180
1692132731.404,-32.715,-52.734,-42.480,-33.203,-140.625
1692132731.408,-41.504,-54.199,-39.062,-38.574,131.836
1692132731.412,-36.621,-50.781,-41.992,-20.996,250.488
1692132731.413,-26.367,-44.922,-41.504,-2.930,-83.496
1692132731.417,-23.438,-41.016,-34.180,-1.953,-20.996
1692132731.421,-26.367,-43.457,-34.180,-15.137,72.754
1692132731.425,-26.367,-44.434,-34.668,-23.926,-67.871
1692132731.429,-26.855,-50.781,-35.645,-16.113,-157.227
1692132731.433,-26.855,-57.617,-41.992,-18.066,-54.199
1692132731.437,-35.156,-55.664,-43.457,-28.320,375.977
1692132731.440,-39.551,-50.781,-37.109,-38.086,218.750
1692132731.444,-37.598,-49.316,-34.668,-40.527,-271.484
1692132731.448,-40.527,-57.617,-38.086,-38.574,-205.566
1692132731.452,-37.598,-55.664,-33.203,-29.297,-142.090
1692132731.456,-35.645,-49.805,-29.297,-30.273,-182.617
1692132731.459,-39.551,-54.688,-31.250,-50.781,-202.637
1692132731.463,-45.898,-55.176,-28.320,-65.430,-150.391
1692132731.467,-43.457,-51.758,-28.809,-59.570,-115.234
1692132731.471,-37.109,-54.688,-32.227,-46.387,-142.578
1692132731.475,-27.344,-53.223,-30.273,-41.016,-120.605
1692132731.479,-24.414,-48.828,-28.320,-43.945,-43.945
1692132731.483,-38.086,-50.293,-27.832,-55.176,-21.484
1692132731.486,-34.668,-50.781,-24.902,-37.109,-52.734
1692132731.490,-19.043,-48.340,-23.438,-9.766,-102.051
1692132731.494,-21.973,-53.223,-25.391,-10.254,207.520
1692132731.498,-28.809,-55.664,-25.391,-20.020,278.320
1692132731.502,-32.227,-47.852,-23.926,-27.832,-172.363
1692132731.518,-26.367,-45.410,-26.855,-23.438,-193.848
1692132731.522,-13.672,-47.852,-27.832,-4.395,-26.855
1692132731.526,-15.137,-51.758,-33.203,1.465,-35.156
1692132731.530,-17.090,-53.223,-38.086,-11.719,-188.965
1692132731.534,-14.648,-48.828,-33.691,-18.555,-118.164
1692132731.538,-19.531,-51.758,-32.715,-15.625,270.020
1692132731.542,-15.137,-53.711,-35.645,-5.371,200.195
1692132731.545,-7.812,-54.199,-37.109,-0.977,-156.250
1692132731.549,-16.113,-58.105,-35.156,-10.254,-24.414
1692132731.553,-24.414,-49.805,-31.250,-18.555,201.660
1692132731.557,-26.367,-40.527,-29.785,-19.043,-102.539
1692132731.561,-23.926,-51.270,-33.691,-5.859,-228.516
1692132731.563,-29.297,-59.570,-35.645,-2.441,-63.965
1692132731.567,-36.621,-58.594,-32.227,-27.344,-90.332
1692132731.571,-38.086,-56.152,-31.250,-48.340,-214.355
1692132731.575,-34.180,-51.758,-32.715,-41.992,-204.590
1692132731.579,-25.879,-51.758,-33.691,-22.461,-129.883
1692132731.583,-21.973,-51.270,-34.180,-10.742,21.484
1692132731.587,-32.227,-51.758,-37.109,-18.555,119.141
1692132731.590,-43.457,-50.781,-36.621,-39.062,-13.184
1692132731.594,-48.828,-52.734,-38.574,-43.945,137.695
1692132731.598,-48.340,-55.664,-41.504,-34.180,195.801
1692132731.602,-47.363,-55.664,-41.992,-35.645,-89.844
1692132731.606,-52.246,-54.199,-41.016,-47.363,-65.430
1692132731.607,-53.711,-52.734,-38.574,-56.152,-33.203
1692132731.611,-56.152,-59.082,-41.504,-64.453,-75.684
1692132731.615,-53.223,-63.477,-42.480,-53.223,-75.195
1692132731.619,-39.062,-56.641,-41.016,-30.762,-20.020
1692132731.623,-31.738,-45.410,-37.109,-33.203,119.629
1692132731.627,-31.250,-44.434,-35.156,-47.363,121.582
1692132731.631,-35.156,-50.781,-37.109,-49.316,-63.477
1692132731.634,-32.715,-59.082,-34.180,-40.039,-78.125
1692132731.638,-22.949,-58.105,-32.227,-21.973,149.902
1692132731.642,-24.414,-51.270,-32.715,-17.578,-28.809
1692132731.646,-30.273,-46.875,-32.715,-26.367,-253.906
1692132731.650,-30.762,-42.480,-31.250,-28.809,-244.629
1692132731.656,-28.320,-40.527,-29.297,-17.578,-182.129
1692132731.660,-22.949,-45.410,-28.320,-4.883,-148.438
1692132731.664,-22.461,-50.781,-35.156,-8.301,-124.512
1692132731.668,-23.926,-48.340,-39.551,-24.414,16.602
1692132731.672,-27.832,-41.504,-38.574,-40.039,-34.180
1692132731.676,-32.715,-44.922,-42.969,-40.039,-144.531
1692132731.680,-26.855,-51.758,-41.016,-25.879,-91.309
1692132731.683,-15.137,-52.734,-32.715,-14.160,107.910
1692132731.687,-12.207,-45.898,-34.180,-23.438,98.633
1692132731.691,-29.785,-46.387,-36.621,-42.480,-239.258
1692132731.695,-34.668,-53.711,-35.156,-43.457,-237.793
1692132731.699,-27.344,-52.246,-36.621,-31.250,-159.668
1692132731.698,-25.391,-49.316,-38.086,-22.461,-199.219
1692132731.702,-27.344,-48.340,-40.527,-37.598,-158.203
1692132731.706,-35.645,-47.852,-38.574,-49.316,-47.363
1692132731.710,-46.875,-51.270,-38.574,-51.758,-68.848
1692132731.714,-47.852,-55.176,-38.086,-38.086,-93.262
1692132731.718,-46.875,-55.664,-41.504,-28.809,-15.625
1692132731.722,-50.781,-59.570,-43.945,-40.039,96.191
1692132731.725,-59.082,-65.430,-38.086,-47.363,367.676
1692132731.729,-60.547,-56.152,-36.621,-52.246,313.477
1692132731.733,-51.758,-48.828,-34.180,-46.875,-134.766
1692132731.737,-41.992,-53.223,-39.062,-30.762,-132.812
1692132731.741,-39.062,-54.688,-46.387,-29.297,-88.379
1692132731.758,-37.598,-51.758,-44.434,-44.922,-215.820
1692132731.762,-37.598,-49.316,-47.363,-50.293,-201.172
1692132731.766,-30.762,-52.246,-51.758,-33.691,-100.586
1692132731.770,-17.090,-54.688,-50.781,-14.648,-62.500
1692132731.774,-15.625,-51.270,-42.969,-20.020,-107.910
1692132731.778,-16.602,-45.410,-36.133,-33.203,-120.605
1692132731.782,-20.996,-55.176,-34.668,-30.762,224.609
1692132731.785,-13.672,-53.711,-33.203,-15.625,352.051
1692132731.789,-0.977,-45.410,-30.762,-5.371,-68.359
1692132731.793,-5.859,-53.711,-32.715,-14.160,-146.973
1692132731.797,-26.367,-52.734,-38.574,-30.273,-9.277
1692132731.801,-41.016,-49.316,-41.992,-36.621,-62.988
1692132731.788,-30.762,-43.457,-44.922,-32.227,-242.188
1692132731.792,-16.113,-42.480,-46.875,-27.344,-68.848
1692132731.796,-12.695,-41.992,-42.969,-24.902,125.977
1692132731.800,-13.184,-34.180,-36.133,-33.203,-66.406
1692132731.804,-21.973,-35.645,-37.109,-40.527,-227.051
1692132731.808,-23.926,-39.062,-36.133,-20.996,-52.734
1692132731.812,-18.066,-34.180,-29.297,-2.441,126.953
1692132731.815,-16.602,-33.691,-25.879,-11.230,-10.742
1692132731.819,-17.578,-33.203,-25.391,-26.367,-135.742
1692132731.823,-28.320,-29.785,-27.344,-36.133,-41.992
1692132731.827,-38.086,-32.715,-31.250,-23.926,247.559
1692132731.831,-33.203,-30.273,-34.668,-12.207,50.781
1692132731.848,-25.391,-27.832,-30.762,-19.531,-245.117
1692132731.852,-26.855,-28.320,-26.367,-28.320,-149.414
1692132731.856,-41.504,-37.109,-31.738,-41.016,-186.035
1692132731.860,-41.992,-39.062,-33.203,-43.945,-261.230
1692132731.864,-27.344,-36.621,-33.203,-25.879,-170.410
1692132731.868,-25.879,-44.434,-34.668,-13.672,57.617
1692132731.872,-33.691,-47.852,-33.691,-26.855,22.461
1692132731.875,-33.691,-40.039,-34.180,-44.922,-161.133
1692132731.879,-28.320,-39.062,-35.156,-38.574,-185.059
1692132731.883,-19.531,-40.039,-41.016,-8.789,105.469
1692132731.887,2.441,-31.250,-42.480,12.207,166.504
1692132731.891,-7.812,-41.016,-36.133,-3.906,-95.703
1692132731.892,-32.715,-57.617,-37.598,-28.320,-116.211
1692132731.896,-32.715,-58.105,-60.059,-37.109,17.578
1692132731.900,-32.715,-53.223,-76.660,-31.738,39.062
1692132731.904,-28.320,-55.176,-71.289,-20.996,-106.934
1692132731.908,-31.738,-57.617,-66.895,-33.203,-45.410
1692132731.912,-41.016,-55.664,-66.406,-48.340,28.809
1692132731.916,-31.738,-49.316,-59.570,-40.527,-70.312
1692132731.919,-19.531,-45.410,-52.734,-19.531,-151.367
1692132731.923,-22.461,-53.711,-52.734,-3.906,4.883
1692132731.927,-26.367,-54.199,-54.199,-19.043,230.469
1692132731.931,-28.320,-53.223,-59.082,-41.504,-17.090
1692132731.935,-31.250,-56.641,-54.688,-38.086,-219.238
1692132731.938,-26.367,-51.758,-44.922,-27.832,-153.809
1692132731.942,-20.020,-52.734,-45.410,-23.438,-41.504
1692132731.946,-18.555,-51.270,-43.945,-24.414,-54.199
1692132731.950,-25.391,-51.758,-35.156,-42.480,-182.129
1692132731.954,-33.691,-57.617,-32.227,-50.781,-69.824
1692132731.958,-38.574,-58.105,-40.039,-39.551,23.438
1692132731.962,-25.879,-62.012,-44.434,-28.320,-26.855
1692132731.965,-12.695,-67.871,-38.086,-20.508,-101.562
1692132731.969,-20.508,-73.730,-32.227,-24.902,105.469
1692132731.973,-29.297,-75.195,-34.180,-33.691,155.762
1692132731.977,-25.879,-78.613,-40.527,-37.109,-168.457
1692132731.981,-18.066,-82.520,-37.109,-26.367,-108.887
1692132731.982,-20.020,-78.613,-31.250,-17.578,-54.688
1692132731.986,-27.344,-74.707,-33.691,-34.668,-16.113
1692132731.990,-36.621,-79.590,-39.062,-46.387,-88.379
1692132731.994,-37.598,-88.867,-40.527,-37.598,-125.977
1692132731.998,-29.785,-87.402,-38.086,-16.113,145.996
1692132732.002,-25.879,-79.590,-32.715,-13.672,141.113
1692132732.006,-27.344,-75.684,-25.879,-31.250,-22.949
1692132732.009,-29.297,-78.613,-22.949,-35.645,-34.180
1692132732.013,-32.715,-81.055,-23.926,-26.855,176.270
1692132732.017,-29.297,-74.707,-30.273,-21.484,58.594
1692132732.021,-22.949,-80.078,-36.621,-17.578,-167.480
1692132732.025,-27.832,-76.172,-35.156,-29.297,-103.027
1692132732.027,-32.715,-69.824,-39.062,-46.875,-144.043
1692132732.031,-34.180,-75.684,-40.039,-39.062,-217.773
1692132732.035,-22.461,-67.383,-31.738,-18.066,-125.000
1692132732.039,-13.672,-62.500,-32.227,-18.555,11.719
1692132732.043,-25.391,-59.082,-35.645,-41.016,-12.695
1692132732.047,-41.992,-56.641,-33.203,-55.664,-98.633
1692132732.051,-42.969,-52.734,-30.273,-52.734,-87.402
1692132732.054,-34.180,-43.457,-27.832,-39.062,262.695
1692132732.058,-37.109,-39.551,-32.715,-23.926,426.270
1692132732.062,-41.992,-47.852,-35.156,-36.621,-26.367
1692132732.066,-43.457,-57.617,-33.203,-52.734,-180.664
1692132732.070,-45.410,-50.781,-29.785,-37.109,-152.832
1692132732.073,-35.645,-51.758,-27.832,-18.066,-130.859
1692132732.077,-36.133,-62.500,-30.762,-17.090,-48.828
1692132732.081,-45.898,-57.617,-35.156,-28.809,-47.852
1692132732.085,-53.223,-53.711,-34.180,-41.504,4.883
1692132732.089,-52.734,-60.547,-34.180,-47.852,-76.172
1692132732.093,-42.480,-57.129,-35.645,-46.387,-105.469
1692132732.097,-32.715,-47.363,-33.691,-32.227,145.996
1692132732.100,-30.762,-44.922,-31.738,-32.715,166.504
1692132732.104,-33.691,-38.574,-28.809,-49.316,-109.863
1692132732.108,-32.227,-30.273,-30.762,-52.734,-211.914
1692132732.112,-26.367,-36.621,-32.227,-38.086,-36.133
1692132732.116,-20.020,-40.039,-24.414,-19.531,134.766
1692132732.118,-24.902,-30.273,-22.949,-14.160,-94.238
1692132732.122,-30.762,-30.762,-26.367,-33.691,-253.906
1692132732.126,-35.156,-35.156,-29.297,-45.898,-201.660
1692132732.130,-34.668,-35.156,-29.297,-30.762,-136.230
1692132732.134,-26.855,-31.738,-25.391,-13.672,-137.695
1692132732.138,-20.996,-25.391,-24.414,-13.672,-89.355
1692132732.142,-33.203,-33.203,-29.297,-29.297,223.145
1692132732.145,-53.223,-34.180,-31.250,-47.852,253.906
1692132732.149,-49.316,-26.855,-27.832,-38.574,-147.461
1692132732.153,-36.621,-17.578,-29.297,-10.742,-121.582
1692132732.157,-35.645,-24.414,-33.203,-15.137,-62.500
1692132732.161,-46.387,-34.668,-34.180,-40.039,-101.562
1692132732.164,-50.781,-30.762,-32.227,-44.434,-86.914
1692132732.168,-52.246,-36.621,-35.156,-37.109,-74.707
1692132732.172,-42.969,-37.598,-41.504,-36.133,201.660
1692132732.176,-35.156,-33.691,-38.574,-40.527,139.160
1692132732.180,-43.457,-28.809,-33.203,-52.734,-211.426
1692132732.184,-43.945,-32.227,-35.645,-61.523,-97.168
1692132732.188,-33.691,-35.156,-33.691,-50.293,185.547
1692132732.191,-23.438,-32.715,-28.320,-26.855,6.836
1692132732.195,-19.043,-35.156,-24.902,-17.578,-159.180
1692132732.199,-17.578,-34.668,-20.020,-23.926,-56.641
1692132732.203,-33.203,-33.691,-21.973,-37.598,-89.355
1692132732.207,-45.898,-36.621,-31.250,-43.457,-191.895
1692132732.211,-37.598,-37.598,-35.156,-33.691,-164.551
1692132732.215,-30.762,-42.480,-33.691,-33.203,15.625
1692132732.219,-28.320,-42.480,-29.785,-46.387,108.398
1692132732.223,-29.297,-33.691,-25.391,-52.246,-70.312
1692132732.227,-26.855,-32.715,-23.926,-47.852,-210.449
1692132732.231,-17.090,-34.180,-25.879,-20.508,120.117
1692132732.235,-9.277,-33.203,-25.879,-4.395,384.766
1692132732.238,-10.254,-31.738,-20.996,-17.578,-17.578
1692132732.242,-20.508,-34.180,-25.879,-37.109,-144.531
1692132732.246,-27.832,-27.832,-28.809,-38.086,4.395
1692132732.250,-27.832,-25.879,-26.367,-27.344,-50.293
1692132732.254,-22.949,-27.832,-26.855,-26.855,-113.770
1692132732.283,-18.066,-27.344,-25.879,-33.691,-66.406
1692132732.287,-26.855,-29.297,-23.926,-46.387,18.555
1692132732.291,-38.574,-30.273,-20.020,-49.805,-25.391
1692132732.295,-34.668,-30.273,-18.066,-29.785,-124.023
1692132732.299,-32.715,-27.832,-16.602,-14.648,-56.152
1692132732.303,-34.668,-29.297,-18.066,-23.438,363.770
1692132732.307,-38.086,-27.344,-19.531,-42.969,326.660
1692132732.310,-45.410,-21.973,-18.555,-52.734,-145.020
1692132732.314,-49.316,-27.832,-24.902,-51.270,-77.637
1692132732.318,-39.551,-22.461,-22.949,-31.250,161.133
1692132732.322,-34.668,-14.160,-12.695,-25.391,-58.594
1692132732.326,-41.504,-25.391,-13.672,-44.434,-232.422
1692132732.313,-43.945,-27.344,-10.254,-47.852,-192.871
1692132732.317,-41.504,-19.043,-12.207,-40.527,-164.551
1692132732.321,-23.926,-20.996,-20.020,-24.902,-120.117
1692132732.325,-21.973,-29.297,-26.855,-20.996,-115.234
1692132732.329,-30.762,-31.250,-30.762,-29.297,-98.145
1692132732.333,-34.180,-25.879,-29.785,-37.598,-19.531
1692132732.337,-30.762,-27.344,-27.832,-36.133,-59.082
1692132732.340,-17.090,-30.273,-25.879,-12.695,-37.109
1692132732.344,-7.812,-22.949,-23.926,0.488,87.402
1692132732.348,-16.602,-15.625,-28.809,-12.695,-14.648
1692132732.352,-32.715,-26.855,-38.574,-35.645,-144.531
1692132732.356,-36.133,-36.621,-39.062,-30.762,-150.879
1692132732.358,-28.320,-35.645,-30.762,-10.742,196.777
1692132732.362,-23.926,-32.715,-25.391,-11.230,518.066
1692132732.366,-29.785,-28.320,-26.367,-28.320,48.828
1692132732.370,-32.715,-24.414,-26.855,-40.039,-187.012
1692132732.374,-31.738,-21.973,-23.438,-42.480,-5.859
1692132732.378,-25.879,-28.320,-18.066,-27.344,-51.758
1692132732.382,-18.066,-36.621,-18.555,-17.090,-62.012
1692132732.385,-26.855,-39.062,-26.367,-33.691,56.152
1692132732.389,-49.316,-29.297,-25.879,-56.641,182.617
1692132732.393,-53.711,-24.414,-25.879,-59.570,11.230
1692132732.397,-37.109,-30.762,-30.762,-34.668,-183.594
1692132732.401,-33.203,-34.668,-32.227,-24.902,0.000
1692132732.402,-43.945,-33.691,-29.297,-45.410,55.176
1692132732.406,-52.246,-32.227,-29.297,-56.152,-198.242
1692132732.410,-53.223,-38.086,-28.809,-51.270,-257.324
1692132732.414,-41.992,-37.109,-20.996,-32.227,-166.992
1692132732.418,-32.227,-36.621,-15.137,-21.484,-121.582
1692132732.422,-37.109,-36.621,-20.508,-42.969,-41.504
1692132732.426,-44.922,-40.527,-23.926,-61.035,-53.711
1692132732.429,-45.898,-46.387,-21.973,-52.734,78.613
1692132732.433,-43.945,-46.387,-29.297,-34.668,155.762
1692132732.437,-35.156,-42.969,-34.180,-24.902,-84.961
1692132732.441,-24.902,-32.715,-27.832,-23.926,-102.539
1692132732.445,-25.879,-26.855,-20.996,-30.273,-97.656
1692132732.449,-31.250,-37.109,-26.855,-40.039,-122.070
1692132732.453,-33.691,-39.062,-35.156,-29.785,-76.172
1692132732.457,-27.832,-31.738,-30.762,-14.160,-1.953
1692132732.461,-20.508,-35.156,-25.391,-13.184,192.871
1692132732.465,-24.902,-31.738,-28.320,-22.461,15.625
1692132732.469,-20.508,-20.996,-25.879,-31.250,-206.055
1692132732.473,-21.484,-27.832,-23.926,-31.738,11.719
1692132732.476,-16.602,-26.855,-22.949,-11.230,222.168
1692132732.480,-5.371,-17.090,-21.484,-0.977,17.578
1692132732.484,-21.973,-23.926,-26.367,-22.949,-222.656
1692132732.488,-39.062,-27.344,-27.344,-39.551,-161.133
1692132732.492,-42.480,-30.273,-29.785,-28.809,-172.852
1692132732.494,-47.363,-32.715,-31.738,-13.184,-221.191
1692132732.498,-46.875,-30.273,-28.809,-17.578,-164.062
1692132732.502,-41.504,-28.320,-25.391,-27.832,-20.996
1692132732.506,-45.410,-30.273,-24.902,-40.039,-41.504
1692132732.510,-54.199,-32.715,-29.785,-45.898,-145.996
1692132732.514,-43.457,-34.668,-27.344,-29.297,0.977
1692132732.518,-36.133,-34.668,-22.949,-18.066,277.344
1692132732.521,-39.062,-29.297,-26.367,-33.691,345.703
1692132732.525,-40.039,-19.531,-20.020,-48.340,-14.160
1692132732.529,-42.969,-22.949,-16.602,-45.410,-184.082
1692132732.533,-41.992,-28.320,-21.973,-35.156,-100.586
1692132732.537,-37.598,-22.461,-23.926,-34.180,-67.871
1692132732.538,-38.574,-27.832,-25.879,-48.340,-137.207
1692132732.542,-46.387,-36.133,-26.855,-61.523,-65.430
1692132732.546,-39.551,-34.180,-26.855,-55.176,100.098
1692132732.550,-23.438,-25.879,-20.996,-35.156,-27.344
1692132732.554,-15.625,-14.160,-16.602,-24.902,-166.504
1692132732.558,-9.766,-15.137,-13.672,-25.879,-3.418
1692132732.562,-11.719,-22.461,-7.812,-25.391,228.027
1692132732.565,-22.949,-18.066,-7.812,-36.133,81.543
1692132732.569,-25.391,-13.184,-18.066,-33.203,-118.652
1692132732.573,-9.277,-5.859,-23.926,-15.137,20.020
1692132732.577,-5.371,-1.465,-16.113,-20.508,181.641
1692132732.581,-18.555,-15.625,-10.742,-34.668,-69.336
1692132732.599,-24.414,-19.531,-10.254,-30.762,-223.633
1692132732.603,-19.531,-11.230,-12.695,-17.090,-93.750
1692132732.607,-15.625,-7.812,-16.113,-7.812,-48.340
1692132732.611,-16.602,0.000,-14.160,-14.648,-149.902
1692132732.615,-22.461,-2.441,-15.137,-27.832,-208.008
1692132732.619,-30.762,-3.906,-11.230,-17.090,-60.059
1692132732.623,-22.461,-2.441,-9.277,-0.977,-49.316
1692132732.626,-18.066,-9.277,-19.043,0.977,-92.285
1692132732.630,-24.902,-15.137,-21.484,-11.719,-89.844
1692132732.634,-31.250,-9.766,-18.066,-25.391,71.777
1692132732.638,-41.504,-1.465,-16.602,-30.273,148.438
1692132732.642,-39.551,0.488,-14.160,-20.996,-158.203
1692132732.642,-29.297,-2.441,-12.207,-10.254,-148.926
1692132732.646,-26.855,0.488,-13.184,-16.113,17.090
1692132732.650,-35.645,-5.859,-14.160,-40.527,-60.547
1692132732.654,-52.246,-20.508,-18.066,-57.617,-254.395
1692132732.658,-54.199,-19.043,-21.484,-45.410,-160.156
1692132732.662,-47.852,-10.254,-23.438,-34.668,149.902
1692132732.666,-40.527,-7.324,-25.391,-37.598,183.594
1692132732.669,-38.574,-11.230,-23.926,-53.223,-76.172
1692132732.673,-37.598,-11.230,-19.531,-56.641,-120.605
1692132732.677,-37.109,-3.906,-15.625,-39.551,325.684
1692132732.681,-23.926,-0.488,-20.020,-26.367,273.438
1692132732.685,-6.836,-0.488,-18.555,-19.531,-171.387
1692132732.687,-21.484,-4.395,-18.066,-36.133,-107.910
1692132732.691,-25.879,-5.859,-21.973,-50.293,-75.684
1692132732.695,-18.066,-4.883,-20.508,-42.480,-245.605
1692132732.699,-16.113,-2.930,-16.113,-16.113,-220.215
1692132732.703,-12.207,1.953,-16.113,-9.766,-99.121
1692132732.707,-9.277,1.465,-17.090,-22.949,-61.523
1692132732.711,-25.391,-5.859,-16.602,-34.668,-16.113
1692132732.714,-44.434,-6.348,-24.902,-42.969,-113.770
1692132732.718,-29.297,-10.254,-25.879,-12.695,38.086
1692132732.722,-14.160,-5.859,-21.973,9.277,156.738
1692132732.726,-15.137,5.371,-27.344,-5.371,-200.195
1692132732.730,-21.484,1.465,-20.996,-20.020,-260.254
1692132732.733,-25.391,-6.836,-20.508,-25.391,-85.938
1692132732.737,-20.020,-4.883,-26.855,-12.695,41.016
1692132732.741,-9.277,3.906,-27.344,4.883,-59.570
1692132732.745,-12.207,-1.465,-23.438,-4.883,-92.285
1692132732.749,-47.852,-15.137,-16.113,-26.367,190.918
1692132732.753,-60.547,-22.949,-20.508,-33.203,159.668
1692132732.757,-50.293,-22.949,-27.344,-34.180,-72.266
1692132732.760,-56.152,-22.949,-24.902,-33.691,38.086
1692132732.764,-52.734,-23.926,-26.855,-40.527,220.703
