timestamps,TP9,AF7,AF8,TP10,Right AUX
1685724202.977,-57.617,-30.762,-28.809,-63.477,-240.234
1685724202.981,-42.480,-47.852,-35.156,-44.922,-57.129
1685724202.985,-10.254,-39.551,-30.273,-24.902,-58.105
1685724202.989,-20.508,-24.414,-9.766,-35.156,-188.477
1685724202.993,-23.926,-51.270,-14.648,-28.320,-197.266
1685724202.997,-31.250,-59.570,-16.602,-5.371,115.234
1685724203.001,-41.992,-52.734,-20.020,-6.836,170.898
1685724203.004,-3.418,-56.641,-44.434,-8.789,-61.035
1685724203.008,7.324,-50.293,-39.551,0.488,-152.344
1685724203.012,-4.883,-46.387,-22.949,20.020,97.168
1685724203.016,15.625,-51.758,-59.570,17.090,113.770
1685724203.020,13.184,-50.781,-74.219,8.789,5.859
1685724203.021,-3.906,-39.551,-33.691,26.855,63.965
1685724203.025,-0.488,-45.410,-9.766,34.668,215.820
1685724203.029,-1.465,-55.664,-42.969,16.602,-3.418
1685724203.033,-1.953,-52.246,-45.898,32.227,-260.254
1685724203.037,31.738,-45.410,-29.297,49.316,-149.902
1685724203.041,21.973,-27.832,-41.016,31.738,-58.594
1685724203.045,14.160,-8.301,-38.086,13.672,-73.242
1685724203.048,-6.836,-27.832,-39.551,-8.789,-228.027
1685724203.052,-20.020,-47.363,-34.668,-9.766,-128.418
1685724203.056,27.344,-26.855,-13.672,24.414,262.695
1685724203.060,7.324,-26.855,-27.832,8.301,46.387
1685724203.064,7.812,-28.320,-38.086,-3.906,-184.570
1685724203.067,38.086,-20.020,-29.785,15.137,-125.488
1685724203.071,34.668,-36.621,-25.879,25.879,-116.699
1685724203.075,2.441,-34.180,-29.297,47.363,-64.453
1685724203.079,-17.578,-23.438,-33.203,47.363,-38.574
1685724203.083,0.977,-21.484,-32.227,17.090,45.410
1685724203.087,-8.301,-15.625,-41.992,-10.254,15.137
1685724203.091,-20.020,-21.973,-50.781,3.418,-115.723
1685724203.094,4.395,-22.461,-30.762,11.719,-91.797
1685724203.098,28.320,-15.137,-19.531,0.000,201.660
1685724203.102,4.395,-18.066,-19.531,12.695,199.707
1685724203.106,-29.297,-15.625,-4.883,14.160,-174.316
1685724203.110,-12.695,-18.066,-1.465,-6.836,-137.695
1685724203.112,20.020,-22.949,-18.066,20.996,117.676
1685724203.116,5.371,-17.090,-27.344,32.715,18.555
1685724203.120,-21.973,-15.625,-27.832,1.465,-141.602
1685724203.124,-14.160,-18.066,-37.109,-22.949,-135.742
1685724203.128,0.977,-13.184,-30.273,-7.324,5.371
1685724203.132,-2.930,-17.578,-29.297,-4.395,54.688
1685724203.136,1.465,-30.273,-54.199,-40.039,-5.859
1685724203.139,-0.977,-42.480,-51.758,-30.273,-40.039
1685724203.143,-27.344,-41.992,-39.551,-15.625,223.633
1685724203.147,-25.879,-22.949,-25.879,0.000,71.777
1685724203.151,-44.434,-12.207,-7.812,12.207,-192.383
1685724203.155,-30.762,-10.742,-6.348,31.738,-61.035
1685724203.156,-5.859,-4.883,-7.812,17.578,-44.434
1685724203.160,-13.672,-19.531,-22.949,-5.859,-148.438
1685724203.164,-13.184,-37.109,-35.156,5.859,-181.641
1685724203.168,3.906,-28.320,-34.180,5.859,-98.633
1685724203.172,8.789,-13.672,-23.926,9.277,-12.207
1685724203.176,-5.371,-12.207,-14.160,-0.488,48.828
1685724203.180,-22.461,-20.996,-16.602,-13.672,1.465
1685724203.183,-27.344,-30.273,-20.996,-25.391,241.699
1685724203.187,6.348,-23.438,-19.043,0.977,392.578
1685724203.191,11.230,-14.160,-8.301,33.691,-1.953
1685724203.195,-44.434,-26.367,-22.461,3.418,-137.207
1685724203.199,-51.758,-35.156,-36.621,-22.461,-69.824
1685724203.201,-5.859,-32.227,-40.039,-18.066,-95.703
1685724203.205,-3.418,-30.273,-34.668,10.254,-175.293
1685724203.209,-20.020,-24.902,-22.949,-4.883,-97.656
1685724203.213,-14.160,-11.230,-27.832,-33.203,116.699
1685724203.217,-4.883,-11.230,-28.809,-29.297,-65.918
1685724203.221,-41.016,-30.273,-26.855,-26.367,-207.031
1685724203.225,-46.387,-26.855,-23.926,-2.930,-28.809
1685724203.228,3.906,-20.020,-24.414,-13.672,279.785
1685724203.232,-21.484,-23.926,-26.367,-23.438,67.871
1685724203.236,-28.809,-26.367,-31.738,5.371,-161.133
1685724203.240,-0.488,-20.020,-41.016,8.789,-88.867
1685724203.244,-14.648,-11.230,-38.086,3.906,-106.934
1685724203.261,-31.250,-10.742,-20.508,5.859,-160.156
1685724203.265,-38.574,-22.461,-7.812,-11.719,-115.234
1685724203.269,-46.387,-35.156,-16.113,-54.688,-78.613
1685724203.273,-52.246,-41.016,-19.531,-49.805,-142.578
1685724203.277,-52.246,-44.434,-20.996,-16.113,-241.699
1685724203.281,-55.176,-40.039,-19.531,-12.207,-136.230
1685724203.285,-43.945,-27.344,-19.531,-12.207,275.879
1685724203.288,-28.809,-20.996,-18.555,-27.344,227.539
1685724203.292,-19.531,-32.715,-7.812,-38.086,-207.031
1685724203.296,2.930,-41.504,-12.207,-31.738,-181.641
1685724203.300,-6.836,-24.902,-12.695,-7.324,-42.480
1685724203.304,-38.086,-20.020,-11.719,-8.789,6.348
1685724203.293,-29.785,-23.438,-22.949,-33.203,6.348
1685724203.297,-36.621,-20.508,-33.203,-28.320,-25.879
1685724203.301,-27.344,-24.414,-24.414,-16.602,201.660
1685724203.305,-19.043,-31.250,-25.879,-33.691,96.191
1685724203.309,-30.762,-42.969,-42.480,-20.996,-111.816
1685724203.313,-28.320,-51.270,-36.133,-9.766,-10.254
1685724203.317,-33.691,-43.457,-27.832,-26.367,48.340
1685724203.320,-21.973,-22.461,-22.949,-32.227,-83.496
1685724203.324,-10.254,-1.465,-16.602,-15.625,-178.223
1685724203.328,-16.602,-3.418,-18.555,0.488,3.906
1685724203.332,12.207,0.488,-17.090,5.859,325.195
1685724203.336,-6.836,-3.906,-19.531,-29.785,-12.695
1685724203.352,-40.039,-32.715,-32.227,-48.828,-289.551
1685724203.356,-41.016,-48.340,-34.668,-15.137,-108.398
1685724203.360,-46.875,-44.922,-25.879,-0.977,41.016
1685724203.364,-25.391,-38.574,-24.902,-16.602,-40.039
1685724203.368,4.883,-9.277,-20.508,-21.973,-198.730
1685724203.372,-9.766,-7.324,-37.598,-9.277,69.824
1685724203.376,-36.133,-28.809,-47.363,-11.719,253.418
1685724203.379,-26.367,-30.273,-25.391,-27.832,-53.711
1685724203.383,-29.297,-34.180,-15.137,-21.973,-122.559
1685724203.387,-27.344,-32.715,-17.578,-17.578,42.969
1685724203.391,-10.742,-26.855,-17.578,-48.340,-101.074
1685724203.395,-27.832,-26.367,-6.836,-20.020,-236.328
1685724203.397,-38.086,-29.297,-7.812,31.250,-28.809
1685724203.401,-37.598,-30.273,-25.879,4.883,214.355
1685724203.405,-34.180,-34.668,-25.879,-25.879,-47.363
1685724203.409,-21.484,-35.156,-22.461,-35.156,-271.484
1685724203.413,-32.715,-20.508,-24.902,-28.809,-156.738
1685724203.417,-35.645,-12.695,-26.367,-11.230,50.293
1685724203.421,-26.855,-22.949,-22.949,-7.324,60.547
1685724203.424,-46.875,-46.875,-28.809,-30.762,-90.332
1685724203.428,-47.852,-43.457,-62.500,-69.824,-105.469
1685724203.432,-29.297,-18.555,-47.363,-54.688,211.426
1685724203.436,-49.805,-17.090,-16.113,-28.809,96.191
1685724203.440,-47.852,-29.297,-20.508,-10.742,-84.961
1685724203.441,-29.297,-24.902,-26.367,-21.484,-44.922
1685724203.445,-32.715,-19.531,-32.227,-44.434,-128.418
1685724203.449,-55.176,-25.879,-26.367,-27.344,-154.785
1685724203.453,-22.461,-35.156,-16.602,-13.672,-53.223
1685724203.457,-4.883,-32.715,-17.578,-16.113,41.992
1685724203.461,-41.504,-21.973,-21.484,-7.324,-15.625
1685724203.465,-38.574,-15.625,-34.180,-17.578,-58.105
1685724203.468,-17.578,-18.066,-33.203,-26.855,-27.344
1685724203.472,-13.184,-28.809,-28.809,-9.277,246.582
1685724203.476,-37.109,-30.762,-26.367,0.488,364.258
1685724203.480,-49.316,-17.090,-19.043,-27.832,-66.895
1685724203.484,-47.363,-8.301,-12.207,-47.363,-206.543
1685724203.486,-30.762,-17.090,-9.766,-39.551,-121.582
1685724203.490,-27.344,-20.020,-18.066,-9.277,-171.875
1685724203.494,-34.668,-26.855,-28.320,7.812,-120.605
1685724203.498,-25.391,-26.367,-34.180,-17.090,-32.227
1685724203.502,-28.320,-18.066,-29.785,-34.668,19.531
1685724203.506,-37.109,-25.391,-27.344,-33.691,39.062
1685724203.510,-38.086,-23.438,-34.180,-31.250,17.578
1685724203.513,-41.016,-31.738,-43.457,-11.719,51.270
1685724203.517,-27.344,-41.504,-30.762,0.000,134.277
1685724203.521,-24.414,-22.949,-16.113,-27.832,-88.379
1685724203.525,-58.105,-12.695,-9.277,-42.480,-151.367
1685724203.529,-48.828,-23.926,-16.602,-17.090,4.883
1685724203.531,-27.832,-31.250,-41.504,8.301,195.312
1685724203.535,-23.926,-16.602,-25.879,19.043,-26.855
1685724203.539,-12.207,-11.230,-3.418,-10.254,-268.555
1685724203.543,-8.789,-21.484,-27.832,-45.410,-225.586
1685724203.547,-19.531,-25.879,-42.480,-32.715,-186.035
1685724203.551,-40.039,-23.926,-28.809,0.488,-57.617
1685724203.555,-25.391,-29.297,-18.066,8.789,16.113
1685724203.558,-22.949,-32.227,-20.508,-14.648,120.605
1685724203.562,-23.438,-18.066,-28.320,-30.762,35.156
1685724203.566,-16.113,-17.578,-30.762,-19.531,-218.750
1685724203.570,-16.602,-24.414,-26.855,-9.766,-184.082
1685724203.574,-2.441,-24.902,-24.902,-16.113,-86.914
1685724203.577,6.836,-26.855,-14.160,-24.902,-46.875
1685724203.581,13.672,-28.320,-16.113,-29.785,-148.926
1685724203.585,-3.418,-23.438,-42.480,-13.184,-191.406
1685724203.589,-30.273,-20.020,-38.574,-4.883,159.180
1685724203.593,-44.434,-35.645,-27.832,-28.809,141.602
1685724203.597,-40.527,-43.945,-21.973,-55.176,-82.031
1685724203.601,-32.715,-23.926,-15.625,-74.219,-30.273
1685724203.604,-36.133,-9.766,-9.277,-53.711,164.551
1685724203.608,-16.602,-19.531,-14.160,-18.066,-9.766
1685724203.612,-12.695,-27.832,-25.391,-5.371,-198.242
1685724203.616,-21.484,-21.484,-25.391,-30.273,-163.086
1685724203.620,-19.531,-20.996,-34.668,-59.570,-194.824
1685724203.622,-24.414,-24.902,-29.297,-62.012,-242.676
1685724203.626,-53.223,-29.785,-16.602,-43.457,-182.617
1685724203.630,-32.227,-28.320,-15.625,-26.367,47.363
1685724203.634,-13.672,-30.762,-19.531,-51.270,41.992
1685724203.638,-43.457,-44.434,-24.414,-66.406,-156.738
1685724203.642,-45.410,-44.922,-27.344,-41.016,-120.117
1685724203.646,-26.367,-41.504,-31.738,-13.672,258.789
1685724203.649,-15.625,-48.828,-31.250,-2.930,446.289
1685724203.653,-2.930,-54.199,-23.926,-17.578,-3.906
1685724203.657,-17.090,-51.270,-15.625,-12.207,-212.402
1685724203.661,-41.992,-49.805,-9.766,-1.953,-157.715
1685724203.665,-38.574,-55.176,-14.648,-5.371,-141.113
1685724203.666,-6.836,-60.547,-22.949,9.277,-67.383
1685724203.670,-1.465,-52.246,-25.391,7.324,38.574
1685724203.674,-5.859,-38.574,-25.879,-2.441,96.191
1685724203.678,6.836,-41.504,-21.973,10.742,-158.691
1685724203.682,22.949,-43.457,-19.531,39.551,-245.117
1685724203.686,30.762,-42.480,-19.531,30.762,17.090
1685724203.690,9.277,-38.574,-23.926,11.230,250.488
1685724203.693,-13.184,-41.016,-20.508,-3.418,87.402
1685724203.697,2.930,-46.387,-20.020,-12.207,-221.680
1685724203.701,-6.836,-41.992,-25.879,-2.441,-127.930
1685724203.705,-20.996,-40.527,-20.996,12.207,301.270
1685724203.709,-10.254,-40.039,-12.695,17.578,93.750
1685724203.726,-15.625,-33.691,-14.648,-14.648,-195.801
1685724203.730,-37.109,-44.922,-20.996,-40.527,-187.012
1685724203.734,-43.457,-52.246,-28.320,-38.086,-176.270
1685724203.738,3.418,-30.762,-28.320,-22.949,-158.203
1685724203.742,23.926,-14.648,-26.855,-19.531,-104.492
1685724203.746,-16.602,-17.090,-29.297,-40.527,46.875
1685724203.750,-27.344,-8.301,-23.438,-41.016,-26.855
1685724203.753,-41.016,-13.672,-21.973,-42.480,-168.945
1685724203.757,-43.945,-33.203,-17.090,-41.992,-52.246
1685724203.761,-22.949,-38.086,-14.648,-17.090,99.609
1685724203.765,-13.184,-24.414,-24.414,-16.602,-71.777
1685724203.769,-8.789,-21.973,-30.762,-32.715,-235.352
1685724203.772,-13.184,-27.344,-27.832,-24.902,-136.719
1685724203.776,-25.391,-23.438,-30.762,-2.930,258.789
1685724203.780,-20.508,-23.438,-39.551,6.836,471.680
1685724203.784,-3.906,-24.902,-37.109,1.953,-17.090
1685724203.788,4.883,-19.531,-32.715,5.859,-262.207
1685724203.792,-9.277,-18.555,-32.715,-4.395,-54.199
1685724203.796,-22.949,-20.020,-33.203,2.441,20.020
1685724203.799,-16.602,-12.695,-26.855,19.531,-89.844
1685724203.803,-30.762,-19.043,-25.391,-9.766,-109.375
1685724203.807,-42.480,-21.484,-29.785,-43.457,-25.879
1685724203.811,-29.785,-16.113,-30.762,-44.922,-93.262
1685724203.815,-4.395,-17.090,-29.785,-20.996,-196.289
1685724203.816,-14.648,-13.672,-20.020,1.953,-0.977
1685724203.820,-41.504,-16.113,-16.113,-3.906,262.207
1685724203.824,-41.992,-27.344,-21.484,-23.926,-78.613
1685724203.828,-35.645,-32.715,-27.344,-41.504,-251.465
1685724203.832,-41.992,-31.250,-38.574,-41.992,-72.754
1685724203.836,-41.016,-36.621,-35.645,-25.391,94.727
1685724203.840,-38.574,-29.785,-27.832,-25.879,84.961
1685724203.843,-44.434,-20.508,-26.855,-40.527,-110.352
1685724203.847,-46.875,-18.066,-34.180,-21.484,38.574
1685724203.851,-29.785,-8.789,-41.504,-7.812,120.117
1685724203.855,-10.254,-6.348,-33.203,-5.859,-103.516
1685724203.859,-9.277,-15.137,-18.555,-7.324,-80.566
1685724203.862,0.000,-8.301,-13.184,-17.578,96.680
1685724203.866,2.930,1.465,-23.926,-24.902,29.297
1685724203.870,0.488,-0.488,-33.691,-14.648,-179.199
1685724203.874,16.602,-7.812,-35.156,8.301,-89.355
1685724203.878,23.438,-3.418,-31.250,28.320,250.977
1685724203.882,12.695,-10.254,-33.203,17.578,107.422
1685724203.886,-2.930,-46.875,-47.852,-20.020,-121.094
1685724203.889,-6.836,-58.594,-60.547,-31.738,-63.477
1685724203.893,-16.113,-12.207,-43.457,-11.719,220.215
1685724203.897,-16.113,6.836,-27.344,-6.836,64.453
1685724203.901,-11.719,-7.324,-25.391,-13.672,-231.934
1685724203.905,-0.488,-10.742,-30.273,-9.277,-194.824
1685724203.906,18.066,-16.602,-51.270,6.836,-130.859
1685724203.910,11.230,-15.625,-68.359,17.090,-154.785
1685724203.914,17.578,-13.672,-41.016,20.508,-142.578
1685724203.918,9.766,-29.297,-23.926,23.438,-19.043
1685724203.922,-18.555,-52.246,-60.547,-19.043,-85.938
1685724203.926,-35.156,-44.434,-73.242,-53.223,-106.445
1685724203.930,-20.020,-16.113,-43.945,-22.949,-33.203
1685724203.933,-6.836,-9.277,-18.066,-5.859,205.566
1685724203.937,-22.949,-10.254,-19.531,-28.809,302.734
1685724203.941,-29.785,-12.695,-41.016,-34.668,-92.773
1685724203.945,-20.020,-13.184,-42.480,-13.672,-209.961
1685724203.949,-14.648,-12.207,-19.531,-2.441,-15.625
1685724203.952,-16.602,-31.738,-14.160,-13.184,159.668
1685724203.956,-17.578,-38.086,-18.066,-17.578,24.902
1685724203.960,-20.996,-24.414,-17.090,-25.879,-65.430
1685724203.964,-17.090,-11.719,-17.578,-23.438,145.508
1685724203.968,-17.578,-11.719,-32.227,-4.883,56.641
1685724203.972,-23.926,-18.555,-34.668,-5.371,-21.973
1685724203.976,-24.414,-26.367,-27.832,-19.531,79.590
1685724203.979,-20.508,-26.855,-24.414,-19.531,354.980
1685724203.983,-26.855,-17.090,-25.391,-16.602,145.996
1685724203.987,-19.043,-22.461,-36.133,-26.855,-178.223
1685724203.991,-4.395,-34.180,-22.949,-5.371,-98.633
1685724203.995,-22.461,-38.574,-15.625,-11.230,-76.660
1685724203.996,-39.551,-27.832,-30.762,-53.223,-154.785
1685724204.000,-50.781,-10.742,-32.227,-58.594,-212.891
1685724204.004,-48.340,-9.277,-26.855,-40.039,-117.188
1685724204.008,-17.090,-16.113,-16.602,-24.414,-40.039
1685724204.012,-31.250,-19.043,-18.555,-25.391,-19.531
1685724204.016,-47.852,-15.137,-27.344,-51.270,-23.438
1685724204.020,-42.969,-17.578,-26.367,-62.988,181.152
1685724204.023,-57.617,-20.508,-30.762,-45.898,219.238
1685724204.027,-43.457,-17.090,-34.180,-9.766,-32.715
1685724204.031,-23.438,-23.926,-30.273,-4.395,-84.961
1685724204.035,2.441,-24.902,-31.738,-21.484,8.789
1685724204.039,19.043,-22.949,-29.297,-24.414,-62.012
1685724204.041,-18.555,-37.109,-19.043,-13.672,-101.562
1685724204.045,-37.598,-37.598,-30.273,2.441,-33.691
1685724204.049,-19.531,-31.250,-29.297,-0.977,166.992
1685724204.053,-33.691,-40.527,-14.160,-21.484,-34.668
1685724204.057,-23.438,-41.504,-14.160,-27.344,-283.203
1685724204.061,-12.695,-37.109,-14.648,-14.648,-45.898
1685724204.065,-25.391,-45.898,3.418,19.531,293.457
1685724204.068,-27.832,-58.594,19.531,35.156,79.590
1685724204.072,-21.973,-55.176,18.066,24.414,-180.664
1685724204.076,3.418,-52.246,1.465,26.367,-138.672
1685724204.080,16.602,-48.828,-14.648,53.711,-20.996
1685724204.084,-2.441,-56.641,-19.531,39.551,-57.617
1685724204.101,-14.648,-68.359,-17.578,5.371,-146.484
1685724204.105,-23.438,-58.105,-14.648,-3.418,-64.941
1685724204.109,-50.781,-55.176,-12.695,-15.625,-46.875
1685724204.113,-53.223,-59.570,-7.812,-12.207,-140.625
1685724204.117,-30.762,-46.875,0.977,7.812,-101.562
1685724204.121,-32.715,-35.645,-2.441,5.371,157.227
1685724204.125,-40.527,-41.992,-9.277,-5.371,162.109
1685724204.128,-26.367,-39.062,-15.625,-23.438,-103.516
1685724204.132,-27.832,-32.715,-28.320,-35.156,-175.293
1685724204.136,-37.598,-25.879,-24.414,-1.465,113.281
1685724204.140,-28.320,-22.461,-16.113,2.930,131.836
1685724204.144,-16.602,-31.250,-18.066,-24.902,-77.148
1685724204.146,-33.203,-36.621,-28.320,-29.297,-34.668
1685724204.150,-58.594,-35.156,-31.250,-27.344,269.043
1685724204.154,-39.551,-27.344,-25.391,-20.508,137.207
1685724204.158,-18.555,-23.926,-28.320,-17.578,-142.090
1685724204.162,-32.227,-34.668,-27.832,-17.578,-66.406
1685724204.166,-32.227,-45.898,-31.738,-31.738,24.414
1685724204.170,-26.855,-33.691,-41.992,-49.316,-59.570
1685724204.173,-39.551,-23.438,-41.504,-27.832,-213.379
1685724204.177,-25.391,-26.367,-26.855,10.742,-84.473
1685724204.181,-23.438,-30.273,-12.695,1.953,212.402
1685724204.185,-30.273,-29.785,-21.484,-37.598,-31.738
1685724204.189,-23.926,-22.461,-27.344,-32.227,-227.539
1685724204.191,-34.668,-18.066,-18.066,-17.578,-102.539
1685724204.195,-24.414,-22.461,-14.160,-6.348,-62.012
1685724204.199,-33.203,-22.949,-16.602,-9.277,-107.422
1685724204.203,-67.383,-22.949,-19.531,-36.133,-184.082
1685724204.207,-57.129,-19.043,-21.484,-45.410,-59.570
1685724204.211,-30.762,-15.625,-21.484,-37.109,3.906
1685724204.215,-21.973,-25.879,-22.949,-9.766,-20.020
1685724204.218,-27.832,-31.738,-38.574,-25.391,-31.250
1685724204.222,-41.504,-23.438,-44.922,-51.758,122.559
1685724204.226,-39.551,-18.555,-36.133,-47.852,123.047
1685724204.230,-24.902,-15.625,-23.926,-19.043,-203.125
1685724204.234,-18.066,-15.625,-24.902,-3.418,-108.887
1685724204.252,-24.902,-19.043,-40.527,-15.625,168.457
1685724204.256,-26.855,-18.066,-35.645,-30.762,2.441
1685724204.260,-22.949,-19.531,-15.137,-37.109,-221.680
1685724204.264,-14.160,-20.508,-15.625,-31.250,-124.512
1685724204.268,-10.742,-12.207,-24.414,-10.254,104.004
1685724204.272,-17.090,-5.371,-23.926,-1.465,140.137
1685724204.276,-34.668,-15.625,-29.785,-38.086,4.395
1685724204.279,-44.434,-24.902,-32.715,-69.336,-70.312
1685724204.283,-15.137,-21.973,-25.879,-43.457,205.566
1685724204.287,-5.371,-20.020,-32.227,-21.484,112.305
1685724204.291,-37.109,-18.555,-31.738,-20.996,-126.465
1685724204.295,-53.223,-12.207,-40.527,-24.902,-136.230
1685724204.282,-37.598,-9.766,-36.133,-41.016,-192.383
1685724204.286,-32.227,-18.555,-18.066,-50.293,-225.098
1685724204.290,-28.809,-30.762,-14.160,-24.902,-210.449
1685724204.294,-14.648,-40.039,-10.742,18.555,-42.969
1685724204.298,-16.602,-14.160,-19.043,4.883,4.883
1685724204.302,-53.223,1.953,-54.688,-45.410,-30.273
1685724204.306,-79.102,-16.113,-45.898,-78.613,66.406
1685724204.309,-69.824,-34.668,-12.207,-72.266,161.621
1685724204.313,-66.895,-40.527,-17.090,-65.430,67.871
1685724204.317,-102.051,-18.555,-34.668,-100.586,-54.199
1685724204.321,-118.652,-4.883,-31.738,-118.164,-164.062
1685724204.325,-93.750,1.953,-53.223,-90.332,63.965
1685724204.326,-99.609,7.324,-102.539,-91.309,421.875
1685724204.330,-124.512,29.785,-98.145,-121.582,97.168
1685724204.334,-111.816,64.453,-62.500,-132.324,-183.594
1685724204.338,-139.648,29.785,-22.461,-174.805,-158.691
1685724204.342,-175.781,-7.324,-18.555,-226.074,-235.352
1685724204.346,-147.461,0.488,-75.684,-188.477,-169.434
1685724204.350,-103.516,26.367,-76.660,-122.559,0.488
1685724204.353,-102.539,11.230,-26.367,-146.973,251.953
1685724204.357,-114.258,-8.789,2.930,-190.918,-3.418
1685724204.361,-130.859,-9.766,-20.020,-191.406,-310.059
1685724204.365,-134.766,-6.836,-66.895,-157.227,-215.332
1685724204.369,-107.422,1.953,-65.430,-123.047,-54.199
1685724204.371,-87.402,-3.418,-13.672,-98.633,-77.148
1685724204.375,-101.562,-15.625,-10.254,-83.984,-192.383
1685724204.379,-80.566,-15.137,-23.438,-84.473,-96.191
1685724204.383,-57.129,-6.348,-10.742,-52.246,-18.066
1685724204.387,-51.758,-14.648,-14.648,-24.902,-101.074
1685724204.391,-30.273,-19.043,-25.879,-31.738,-73.242
1685724204.395,-23.926,-9.766,-25.391,-40.039,214.844
1685724204.398,-23.926,-4.883,-35.156,-36.133,227.051
1685724204.402,-9.766,-7.324,-41.504,-19.043,-126.465
1685724204.406,-3.906,-14.160,-27.344,6.836,-71.777
1685724204.410,3.906,-19.531,-14.648,13.184,11.719
1685724204.414,-9.766,-18.555,-15.137,-9.277,-100.586
1685724204.417,-10.742,-7.812,-34.668,-24.902,-177.734
1685724204.421,8.789,-4.395,-38.574,-2.441,-99.609
1685724204.425,0.488,-17.578,-26.367,7.812,249.512
1685724204.429,-6.836,-24.902,-19.531,-6.836,163.086
1685724204.433,-12.695,-39.551,-17.578,-20.996,-151.855
1685724204.437,-18.555,-45.410,-33.203,-13.672,-14.648
1685724204.441,-11.230,-33.203,-38.086,-7.812,105.957
1685724204.444,-18.555,-21.484,-33.203,-19.531,-83.008
1685724204.448,-16.602,-12.695,-46.387,-6.836,-169.922
1685724204.452,-4.883,-7.324,-28.320,-7.324,-90.820
1685724204.456,-5.371,-7.324,-0.977,-20.508,23.926
1685724204.460,-6.348,-15.137,-21.973,-22.949,-117.676
1685724204.476,-5.859,-20.508,-30.273,-12.207,-187.500
1685724204.480,-22.949,-31.738,-3.418,-3.906,-36.621
1685724204.484,-33.691,-39.551,-2.930,-16.602,-41.016
1685724204.488,-23.926,-32.715,-15.625,-41.992,-183.594
1685724204.492,-28.809,-12.695,-16.113,-43.457,-161.133
1685724204.496,-34.668,-13.672,-10.742,-15.137,202.637
1685724204.500,-16.602,-27.832,-8.301,9.277,395.996
1685724204.503,-22.949,-34.180,-44.922,-14.160,-42.969
1685724204.507,-42.969,-31.738,-45.898,-56.152,-214.355
1685724204.511,-31.250,-16.113,-13.672,-47.852,-31.250
1685724204.515,-23.926,-15.625,-13.672,-26.855,-108.398
1685724204.519,-16.602,-30.273,-27.832,-14.160,-216.309
1685724204.521,4.395,-35.645,-46.387,-6.348,-25.391
1685724204.525,-3.418,-32.715,-44.434,-22.949,185.547
1685724204.529,-16.113,-27.832,-18.066,-25.879,-41.992
1685724204.533,-23.438,-20.996,-6.836,-15.137,-183.594
1685724204.537,-29.297,-16.113,-13.672,-17.090,-13.672
1685724204.541,-20.508,-20.996,-18.066,-21.484,148.926
1685724204.545,-4.883,-25.879,-16.113,-39.062,20.996
1685724204.548,-15.137,-15.137,-17.090,-25.391,-112.305
1685724204.552,-13.672,-9.277,-29.785,-12.695,-70.801
1685724204.556,-23.438,-20.508,-37.109,-17.090,293.945
1685724204.560,-45.410,-31.250,-21.484,-17.090,168.457
1685724204.564,-35.645,-32.715,-12.695,-27.344,-164.551
1685724204.566,-36.621,-30.273,-12.695,-48.340,-169.434
1685724204.570,-52.734,-35.156,-13.672,-59.082,-206.055
1685724204.574,-53.223,-44.434,-21.484,-46.387,-198.730
1685724204.578,-46.875,-36.133,-23.438,-30.762,-144.043
1685724204.582,-48.340,-22.949,-22.949,-38.574,-35.156
1685724204.586,-60.059,-21.973,-35.645,-55.176,-16.113
1685724204.590,-55.664,-41.504,-40.527,-52.734,-20.020
1685724204.593,-38.086,-40.039,-24.414,-18.555,-92.773
1685724204.597,-32.715,-15.137,-13.672,4.395,187.988
1685724204.601,-44.922,-23.926,-14.160,-27.832,414.551
1685724204.605,-44.922,-28.809,-11.719,-69.336,-85.938
1685724204.609,-48.828,-25.879,-17.090,-55.664,-186.523
1685724204.611,-41.992,-35.156,-23.438,-20.996,131.348
1685724204.615,-30.762,-37.109,-20.508,-14.160,45.410
1685724204.619,-26.855,-33.203,-19.043,-21.973,-176.270
1685724204.623,-31.250,-31.738,-20.020,-37.598,-187.012
1685724204.627,-34.668,-22.949,-21.973,-43.945,-60.059
1685724204.631,-7.324,-6.836,-22.949,-18.555,14.648
1685724204.635,-16.113,-12.695,-19.043,-2.441,43.457
1685724204.638,-59.082,-28.809,-30.762,-22.461,54.199
1685724204.642,-55.664,-28.809,-45.898,-31.738,250.000
1685724204.646,-37.109,-32.227,-27.344,-24.414,18.066
1685724204.650,-28.320,-26.855,-13.672,-3.418,-209.961
1685724204.654,-22.949,-17.090,-26.367,7.812,37.598
1685724204.656,-23.438,-21.484,-31.738,-10.254,80.078
1685724204.660,-27.832,-33.203,-26.855,-25.879,-132.324
1685724204.664,-35.156,-24.414,-28.809,-33.691,-219.238
1685724204.668,-24.902,-20.996,-31.250,-18.555,-128.418
1685724204.672,-11.719,-23.926,-16.113,13.184,-75.195
1685724204.676,-28.809,-15.625,-5.371,-9.277,-26.367
1685724204.680,-41.992,-21.484,-10.254,-36.621,-0.977
1685724204.683,-47.363,-19.043,-25.879,-43.945,102.051
1685724204.687,-45.898,-8.789,-28.320,-32.227,104.980
1685724204.691,-37.598,-21.973,-28.809,-27.344,-107.422
1685724204.695,-38.574,-33.203,-33.203,-31.250,-54.199
1685724204.699,-44.922,-29.785,-31.250,-25.879,-17.578
1685724204.702,-46.875,-24.414,-28.320,-35.645,-79.102
1685724204.706,-40.527,-20.996,-34.668,-39.062,-146.484
1685724204.710,-33.203,-23.926,-45.898,-29.297,0.000
1685724204.714,-29.297,-36.133,-38.574,-17.578,306.152
1685724204.718,-33.203,-47.363,-20.508,-21.973,112.305
1685724204.722,-43.945,-33.691,-21.484,-59.570,-142.578
1685724204.726,-38.574,-18.555,-28.809,-57.129,-46.387
1685724204.729,-46.387,-13.672,-20.996,-22.461,239.258
1685724204.733,-51.758,-23.438,-12.207,-20.508,75.684
1685724204.737,-48.340,-30.273,-27.344,-46.387,-190.918
1685724204.741,-41.992,-29.785,-29.297,-76.172,-202.637
1685724204.745,-32.715,-36.133,-17.578,-73.730,-203.125
1685724204.761,-41.016,-39.062,-22.461,-35.645,-135.742
1685724204.765,-47.363,-41.992,-33.691,-39.551,-81.055
1685724204.769,-69.824,-33.691,-43.945,-79.102,-25.879
1685724204.773,-68.848,-21.973,-38.574,-83.008,-80.566
1685724204.777,-63.965,-18.555,-27.344,-65.430,-126.953
1685724204.781,-48.828,-20.020,-25.879,-43.945,26.855
1685724204.785,-14.160,-31.250,-31.250,-28.809,296.875
1685724204.788,-22.949,-38.574,-26.367,-31.250,396.973
1685724204.792,-56.641,-35.156,-16.602,-36.133,-56.641
1685724204.796,-55.664,-37.109,-16.602,-31.738,-227.051
1685724204.800,-20.508,-31.738,-28.320,-22.461,-73.730
1685724204.804,-10.742,-39.062,-30.762,-6.348,-48.828
1685724204.791,-25.391,-42.969,-28.320,-9.766,-70.312
1685724204.795,-32.715,-31.738,-31.738,-27.344,-94.727
1685724204.799,-20.996,-35.156,-33.203,-20.996,51.758
1685724204.803,-23.926,-38.574,-29.297,-25.391,-63.965
1685724204.807,-36.133,-45.898,-23.438,-20.508,-123.047
1685724204.811,-33.203,-50.293,-17.090,-7.324,52.246
1685724204.815,-59.082,-35.156,-25.391,-44.922,41.504
1685724204.818,-64.941,-19.043,-37.598,-66.406,-102.539
1685724204.822,-36.621,-5.859,-49.316,-43.945,-198.242
1685724204.826,-35.645,-13.672,-42.969,-5.859,-76.172
1685724204.830,-44.922,-33.691,-16.602,-8.301,312.988
1685724204.834,-44.434,-39.551,-10.742,-61.523,114.258
1685724204.851,-38.086,-31.738,-12.207,-78.613,-235.840
1685724204.855,-35.645,-25.879,-7.812,-59.570,-165.527
1685724204.859,-24.414,-28.320,-19.531,-37.598,-63.965
1685724204.863,-24.414,-27.344,-25.391,-16.602,-122.070
1685724204.867,-47.363,-21.484,-25.879,-30.273,-183.105
1685724204.871,-35.156,-21.484,-29.785,-55.664,-20.020
1685724204.875,-35.156,-29.785,-26.367,-50.293,50.293
1685724204.878,-66.895,-33.691,-25.879,-43.457,-64.941
1685724204.882,-50.781,-30.762,-23.926,-34.180,-101.562
1685724204.886,-38.086,-34.180,-20.020,-38.574,179.688
1685724204.890,-35.645,-32.227,-26.367,-51.758,210.938
1685724204.894,-26.855,-24.414,-35.645,-53.711,-165.039
1685724204.896,-38.574,-20.508,-24.902,-29.297,-83.496
1685724204.900,-29.297,-18.555,-22.949,-8.301,180.176
1685724204.904,-46.387,-13.672,-24.902,-39.551,-32.227
1685724204.908,-49.316,-12.695,-26.855,-67.383,-240.234
1685724204.912,-31.738,-12.695,-27.344,-57.129,-197.266
1685724204.916,-27.832,-10.742,-23.926,-28.809,-28.809
1685724204.920,-5.371,-13.672,-27.344,-20.996,9.277
1685724204.923,-21.484,-11.719,-27.832,-24.902,-130.859
1685724204.927,-32.715,-8.789,-28.320,-38.574,-97.656
1685724204.931,-45.898,-15.137,-30.273,-52.734,206.055
1685724204.935,-49.805,-21.973,-27.344,-26.367,70.312
1685724204.939,-29.785,-36.621,-27.344,-20.020,-77.148
1685724204.941,-10.254,-29.785,-41.016,-35.645,62.500
1685724204.945,-25.391,-13.672,-22.461,-41.504,11.719
1685724204.949,-48.828,-9.277,-6.836,-49.316,-204.102
1685724204.953,-25.879,-7.812,-15.137,-32.227,-222.656
1685724204.957,-6.348,-16.602,-14.648,-18.555,-38.086
1685724204.961,-16.113,-15.137,-12.695,-29.297,106.934
1685724204.965,-19.531,-11.719,-17.090,-50.293,45.410
1685724204.968,-17.578,-24.414,-16.602,-55.176,-160.156
1685724204.972,-52.246,-27.832,-16.602,-36.621,83.008
1685724204.976,-62.988,-20.508,-20.020,-3.418,247.070
1685724204.980,-34.180,-13.184,-30.273,-7.812,-98.145
1685724204.984,-31.738,-8.301,-30.273,-39.062,-134.766
1685724204.987,-53.711,-13.672,-19.531,-42.480,6.836
1685724204.991,-59.082,-25.391,-22.949,-48.828,-73.242
1685724204.995,-38.574,-31.738,-37.109,-33.203,-79.102
1685724204.999,-49.316,-29.785,-34.180,-15.625,-21.484
1685724205.003,-58.105,-22.461,-28.320,-41.504,110.352
1685724205.007,-37.109,-9.766,-20.020,-59.570,60.059
1685724205.011,-39.062,-12.695,-18.066,-42.480,-68.848
1685724205.014,-67.871,-23.926,-29.297,-35.156,-59.082
1685724205.018,-62.988,-22.949,-31.250,-44.434,183.594
1685724205.022,-21.484,-20.508,-22.949,-57.129,-23.438
1685724205.026,-34.180,-20.508,-21.484,-54.199,-298.828
1685724205.030,-37.598,-14.160,-27.344,-54.199,-193.359
1685724205.031,-38.086,-17.578,-27.344,-38.086,-74.219
1685724205.035,-32.227,-25.391,-26.855,-18.555,-16.113
1685724205.039,-31.738,-26.367,-29.785,-35.156,-64.941
1685724205.043,-50.293,-28.809,-32.715,-57.617,-149.902
1685724205.047,-33.691,-21.973,-32.227,-53.711,-114.746
1685724205.051,-24.414,-26.855,-30.762,-33.203,19.043
1685724205.055,-10.742,-44.922,-24.414,-21.484,51.270
1685724205.058,-20.020,-49.805,-14.648,-36.621,247.070
1685724205.062,-32.227,-31.738,-25.391,-57.617,321.777
1685724205.066,-29.297,-5.371,-37.109,-52.246,-113.281
1685724205.070,-33.691,0.000,-35.156,-32.715,-224.121
1685724205.074,-22.461,-10.254,-30.762,-20.020,-15.137
1685724205.076,-19.531,-14.160,-25.879,-23.926,-9.277
1685724205.080,-15.137,-7.324,-32.715,-43.945,-153.809
1685724205.084,-11.719,-10.742,-32.227,-46.875,-155.273
1685724205.088,-28.809,-19.043,-23.926,-23.438,124.512
1685724205.092,-38.086,-18.066,-18.555,-16.602,78.125
1685724205.096,-30.273,-17.578,-16.602,-17.090,0.488
1685724205.100,-21.973,-26.855,-40.039,-27.832,32.715
1685724205.103,-19.531,-33.691,-47.363,-41.016,312.988
1685724205.107,-39.551,-32.715,-22.461,-43.945,185.547
1685724205.111,-47.852,-27.344,-17.090,-38.086,-190.918
1685724205.115,-39.551,-31.250,-17.578,-51.270,-151.367
1685724205.119,-37.109,-28.809,-17.578,-70.801,-126.953
1685724205.121,-38.086,-17.578,-21.973,-68.848,-199.219
1685724205.125,-35.156,-11.719,-19.043,-51.758,-183.105
1685724205.129,-23.926,-10.742,-19.531,-39.062,-48.340
1685724205.133,-37.109,-14.160,-34.180,-39.551,-37.598
1685724205.137,-54.688,-17.090,-36.133,-59.082,-144.043
1685724205.141,-53.223,-22.949,-34.180,-59.570,-121.094
1685724205.145,-43.945,-30.762,-33.203,-30.273,169.922
1685724205.148,-21.484,-36.133,-28.809,-18.555,241.699
1685724205.152,-24.414,-41.016,-32.715,-31.250,-79.102
1685724205.156,-47.363,-42.480,-41.504,-55.664,-141.113
1685724205.160,-49.316,-28.809,-33.691,-61.523,-24.902
1685724205.164,-46.875,-9.277,-21.484,-37.109,-108.398
1685724205.166,-45.898,-8.789,-30.762,-18.066,-78.125
1685724205.170,-31.250,-20.508,-27.832,-32.715,-20.996
1685724205.174,-36.133,-21.484,-21.973,-57.129,171.387
1685724205.178,-47.363,-21.484,-25.879,-54.688,8.301
1685724205.182,-43.457,-25.879,-20.508,-33.203,-278.320
1685724205.186,-40.039,-29.785,-11.719,-5.859,-11.719
1685724205.190,-54.199,-34.180,-8.301,-12.695,392.578
1685724205.193,-47.363,-39.062,-8.789,-47.852,67.871
1685724205.197,-23.438,-40.039,-9.766,-62.012,-276.855
1685724205.201,-32.227,-42.969,-7.812,-56.641,-189.453
1685724205.205,-63.477,-54.688,0.000,-28.809,-92.285
1685724205.209,-77.148,-60.547,2.441,-12.695,-68.848
1685724205.212,-56.641,-53.223,-7.324,-26.367,-65.918
1685724205.216,-41.016,-45.410,-22.949,-39.551,-74.707
1685724205.220,-40.039,-43.945,-28.809,-23.438,-105.957
1685724205.224,-53.223,-50.293,-24.414,-19.043,-189.941
1685724205.228,-61.523,-38.574,-12.207,-14.160,-133.301
1685724205.232,-46.387,-28.809,-7.812,-22.949,62.988
1685724205.236,-41.016,-34.668,-29.297,-49.316,19.531
1685724205.239,-36.621,-38.574,-30.273,-49.805,-144.531
1685724205.243,-31.738,-41.016,-18.066,-40.039,-137.207
1685724205.247,-38.086,-40.039,-26.367,-11.230,158.203
1685724205.251,-39.551,-47.363,-23.438,-12.207,128.906
1685724205.255,-53.223,-49.805,-12.695,-41.504,-173.340
1685724205.271,-67.871,-36.133,-21.973,-44.922,-68.359
1685724205.275,-61.035,-22.461,-25.879,-47.363,158.203
1685724205.279,-50.293,-26.855,-34.668,-43.457,112.793
1685724205.283,-48.340,-35.156,-33.691,-46.875,-60.059
1685724205.287,-46.387,-31.250,-20.020,-62.500,-112.305
1685724205.291,-59.570,-30.273,-29.297,-69.824,135.254
1685724205.295,-55.176,-36.621,-45.410,-60.547,85.449
1685724205.298,-34.180,-40.527,-41.504,-45.898,-83.008
1685724205.302,-37.109,-35.156,-27.344,-26.855,-1.465
1685724205.306,-49.805,-30.762,-33.203,-39.062,174.805
1685724205.310,-50.781,-42.480,-42.969,-65.430,-66.406
1685724205.314,-20.508,-37.598,-34.668,-58.105,-189.941
1685724205.316,-37.598,-25.391,-20.996,-49.316,-90.332
1685724205.320,-71.289,-30.762,-20.508,-42.969,-60.547
1685724205.324,-55.664,-28.320,-30.762,-43.945,-192.383
1685724205.328,-39.062,-27.344,-26.855,-56.641,-287.598
1685724205.332,-34.180,-33.691,-21.973,-51.758,-123.047
1685724205.336,-34.668,-40.527,-25.879,-29.785,59.570
1685724205.340,-52.246,-39.551,-31.250,-43.945,81.055
1685724205.343,-57.129,-24.902,-29.785,-56.152,3.418
1685724205.347,-44.922,-22.461,-17.578,-51.758,170.898
1685724205.351,-64.941,-37.598,-27.832,-60.059,329.590
1685724205.355,-61.035,-32.227,-49.805,-55.176,-45.898
1685724205.359,-42.480,-22.461,-48.340,-41.016,-83.984
1685724205.361,-49.805,-27.344,-35.156,-59.082,67.383
1685724205.365,-41.504,-22.461,-32.227,-83.008,-146.973
1685724205.369,-24.902,-8.301,-27.832,-60.059,-259.766
1685724205.373,-15.137,-12.695,-31.250,-25.879,-103.027
1685724205.377,-22.949,-24.414,-31.250,-35.156,106.934
1685724205.381,-54.199,-27.832,-21.973,-55.664,63.965
1685724205.385,-12.207,-21.973,-21.973,-66.895,-118.164
1685724205.388,-10.742,-18.555,-32.715,-60.547,-134.766
1685724205.392,-58.105,-20.020,-34.668,-52.246,239.746
1685724205.396,-51.270,-27.344,-23.926,-36.621,165.039
1685724205.400,-62.012,-33.691,-18.066,-40.527,-132.324
1685724205.404,-53.223,-32.227,-24.414,-72.754,-187.500
1685724205.406,-31.738,-28.320,-35.645,-52.734,-185.059
1685724205.410,-24.902,-31.250,-35.645,-24.902,-163.086
1685724205.414,-5.371,-36.133,-20.996,-28.809,-89.844
1685724205.418,-38.574,-22.949,-20.996,-41.504,-11.719
1685724205.422,-76.172,-15.137,-52.246,-68.848,-79.590
1685724205.426,-57.617,-16.602,-58.105,-77.148,-94.238
1685724205.430,-51.758,-19.043,-29.785,-63.965,-31.250
1685724205.433,-38.574,-16.602,-19.043,-25.879,209.473
1685724205.437,-56.152,-15.137,-28.809,-36.621,243.164
1685724205.441,-83.008,-12.207,-28.809,-77.148,-113.770
1685724205.445,-44.922,-0.977,-28.809,-54.199,-88.379
1685724205.449,-9.766,-9.277,-41.992,-23.438,139.160
1685724205.466,-32.715,-29.297,-40.039,-22.949,108.398
1685724205.470,-50.293,-32.227,-24.414,-30.762,-100.586
1685724205.474,-34.180,-26.367,-16.113,-41.504,-157.715
1685724205.478,-12.695,-18.066,-11.230,-31.738,41.992
1685724205.482,-18.066,-16.113,-21.484,-33.691,-54.199
1685724205.486,-26.367,-15.625,-36.133,-24.414,-127.441
1685724205.490,-11.230,-12.695,-33.691,-4.883,70.801
1685724205.493,-17.090,-19.043,-28.809,-20.996,276.367
1685724205.497,-46.387,-23.926,-34.668,-49.805,-14.648
1685724205.501,-51.270,-26.855,-30.762,-62.988,-260.254
1685724205.505,-37.598,-39.551,-31.250,-47.363,-121.582
1685724205.509,-60.547,-50.781,-33.203,-31.250,-83.008
1685724205.512,-56.641,-24.414,-16.113,-27.344,-144.043
1685724205.516,-30.273,0.488,-8.789,-44.922,-190.918
1685724205.520,-34.668,-2.930,-20.996,-57.617,-105.469
1685724205.524,-51.758,-21.484,-23.438,-44.922,-12.695
1685724205.528,-44.434,-30.762,-32.715,-20.508,-64.941
1685724205.532,-41.992,-26.855,-30.762,-23.438,-57.617
1685724205.536,-78.613,-27.832,-20.508,-62.500,80.566
1685724205.539,-60.547,-21.484,-32.715,-65.430,19.531
1685724205.543,-35.156,-27.832,-42.480,-30.273,-163.086
1685724205.547,-45.898,-38.574,-39.062,-19.043,-74.219
1685724205.551,-39.062,-23.926,-38.086,-39.551,231.445
1685724205.555,-22.949,-8.789,-37.598,-40.039,175.293
1685724205.542,-1.465,-9.277,-37.598,-46.875,-118.164
1685724205.546,-10.742,-20.996,-56.152,-55.664,-38.574
1685724205.550,-42.480,-25.391,-48.828,-34.668,270.996
1685724205.554,-46.387,-21.973,-26.367,-47.363,165.039
1685724205.558,-44.922,-9.766,-12.695,-61.523,-152.344
1685724205.562,-39.551,-12.695,-7.812,-51.758,-60.547
1685724205.566,-16.602,-18.066,-15.137,-28.320,101.562
1685724205.569,-6.836,-15.137,-20.020,-21.484,-11.230
1685724205.573,-20.996,-15.137,-31.250,-56.152,-152.832
1685724205.577,-35.645,-19.531,-38.086,-69.824,-154.297
1685724205.581,-28.320,-15.625,-33.203,-41.016,170.410
1685724205.585,-12.695,1.953,-33.691,-39.551,20.508
1685724205.602,-19.531,1.465,-37.598,-40.527,-216.797
1685724205.606,-37.109,-9.277,-46.875,-41.016,-85.449
1685724205.610,-53.711,-9.766,-48.828,-73.730,-103.027
1685724205.614,-38.086,-12.695,-41.504,-58.105,-195.312
1685724205.618,-26.855,-12.695,-35.156,-17.578,-173.828
1685724205.622,-47.852,-7.812,-40.039,-16.602,83.008
1685724205.626,-38.574,-3.906,-48.828,-25.879,89.844
1685724205.629,-16.113,-3.906,-57.129,-38.086,-58.105
1685724205.633,-5.371,-12.207,-46.875,-38.086,-124.512
1685724205.637,-1.953,-16.113,-26.855,-22.949,125.977
1685724205.641,-16.602,-34.180,-27.344,-13.672,277.832
1685724205.645,-23.438,-25.879,-36.621,-11.719,1.953
1685724205.647,-13.184,5.859,-41.504,-27.832,20.020
1685724205.651,-21.484,1.465,-46.875,-58.594,129.395
1685724205.655,-33.691,-10.742,-44.434,-38.086,-61.523
1685724205.659,-37.598,-20.508,-42.480,-19.043,-177.246
1685724205.663,-20.508,-25.391,-43.945,-37.598,-108.887
1685724205.667,-24.902,-15.137,-34.180,-41.992,-38.086
1685724205.671,-33.691,-9.766,-20.996,-45.410,-28.809
1685724205.674,-28.809,-22.949,-27.832,-44.922,-119.629
1685724205.678,-28.320,-27.832,-35.156,-20.996,-22.949
1685724205.682,-12.207,-22.949,-31.250,-6.348,366.211
1685724205.686,2.930,-31.250,-35.645,-25.391,152.832
1685724205.690,-11.230,-32.227,-38.574,-54.199,-256.836
1685724205.706,-31.738,-20.996,-39.062,-52.246,-200.195
1685724205.710,-22.949,-25.391,-25.879,-28.809,-79.102
1685724205.714,-21.484,-28.320,-21.484,-9.766,-78.125
1685724205.718,-9.277,-20.020,-30.762,-4.395,-136.719
1685724205.722,-1.465,-26.367,-32.227,-25.391,-104.004
1685724205.726,-37.598,-35.156,-33.203,-38.574,-27.832
1685724205.730,-59.570,-37.109,-29.785,-29.297,-28.320
1685724205.733,-26.855,-32.227,-21.973,-15.625,-103.027
1685724205.737,-24.902,-29.785,-16.113,-23.438,109.863
1685724205.741,-33.203,-31.738,-32.715,-41.016,139.160
1685724205.745,-43.457,-31.738,-49.805,-42.480,-127.441
1685724205.749,-69.824,-21.973,-36.621,-44.922,-65.918
1685724205.736,-62.012,-11.719,-21.973,-28.809,250.488
1685724205.740,-37.109,-10.254,-21.484,-22.949,122.559
1685724205.744,-26.367,-13.184,-25.391,-56.641,-270.020
1685724205.748,-26.367,-20.996,-23.926,-61.523,-235.840
1685724205.752,-41.016,-28.320,-25.391,-33.203,-110.352
1685724205.756,-56.641,-26.367,-32.227,-31.250,5.859
1685724205.760,-57.617,-25.879,-38.086,-50.293,89.355
1685724205.763,-42.480,-25.391,-29.785,-59.082,30.273
1685724205.767,-25.391,-29.297,-20.508,-33.203,-91.309
1685724205.771,-0.488,-35.645,-27.832,-13.184,-161.621
1685724205.775,-21.484,-31.738,-37.109,-22.461,-180.176
1685724205.779,-80.078,-32.715,-43.457,-64.453,-32.715
1685724205.782,-82.031,-38.086,-40.527,-71.289,208.496
1685724205.786,-70.801,-35.645,-22.461,-56.152,-24.902
1685724205.790,-63.965,-26.367,-17.578,-61.523,-195.801
1685724205.794,-45.410,-29.785,-20.996,-33.691,-22.461
1685724205.798,-52.734,-34.668,-12.207,-24.414,31.250
1685724205.802,-54.199,-30.762,-18.555,-52.246,-77.148
1685724205.806,-37.109,-31.738,-24.902,-54.688,-106.445
1685724205.809,-36.133,-31.250,-21.484,-33.203,121.094
1685724205.813,-25.391,-30.762,-20.996,-24.902,178.223
1685724205.817,-5.371,-36.133,-18.555,-22.949,-110.352
1685724205.821,-55.664,-38.574,-19.531,-40.039,-156.738
1685724205.825,-75.195,-30.762,-30.273,-64.453,-45.898
1685724205.826,-34.180,-23.438,-37.109,-45.410,36.133
1685724205.830,-50.293,-17.090,-39.062,-37.109,-98.633
1685724205.834,-46.387,-13.672,-37.109,-36.621,-102.539
1685724205.838,-30.762,-17.578,-29.785,-43.945,221.680
1685724205.842,-45.410,-16.602,-22.949,-79.590,34.180
1685724205.846,-45.410,-17.090,-22.949,-62.988,-212.402
1685724205.850,-25.879,-15.625,-24.414,-20.020,-67.383
1685724205.853,-24.902,-20.996,-23.926,-4.883,289.551
1685724205.857,-54.688,-28.320,-27.832,-31.250,154.785
1685724205.861,-58.105,-30.273,-35.645,-51.270,-236.816
1685724205.865,-37.109,-27.832,-34.180,-41.016,-188.477
1685724205.869,-50.293,-24.414,-33.203,-28.809,-107.422
1685724205.871,-74.707,-26.855,-21.484,-41.016,-95.215
1685724205.875,-18.555,-30.762,-18.066,-38.086,-108.887
1685724205.879,-15.625,-33.203,-33.691,-43.945,-158.203
1685724205.883,-75.684,-40.039,-38.086,-71.289,-162.598
1685724205.887,-69.824,-44.922,-39.551,-57.129,-101.562
1685724205.891,-36.133,-24.414,-35.156,-22.461,32.227
1685724205.895,-46.387,-12.207,-34.180,-35.645,293.457
1685724205.898,-57.617,-17.578,-30.762,-66.895,320.801
1685724205.902,-53.223,-14.648,-29.785,-57.129,-124.023
1685724205.906,-59.082,-19.531,-29.297,-31.738,-218.262
1685724205.910,-33.691,-36.133,-29.785,-24.414,21.973
1685724205.914,-33.691,-33.691,-24.902,-35.156,-52.734
1685724205.916,-77.148,-19.043,-23.438,-81.543,-171.875
1685724205.920,-83.984,-13.184,-30.273,-89.844,-179.199
1685724205.924,-41.504,-17.090,-35.645,-44.922,48.828
1685724205.928,-29.297,-32.227,-31.738,-15.137,62.500
1685724205.932,-43.945,-40.527,-24.902,-21.484,-115.234
1685724205.936,-62.988,-37.598,-27.344,-55.664,-2.441
1685724205.940,-61.523,-39.551,-25.391,-55.664,268.555
1685724205.943,-30.273,-37.109,-24.902,-18.066,15.137
1685724205.947,-54.199,-44.922,-18.555,-17.578,-158.203
1685724205.951,-48.340,-44.922,-14.648,-15.625,-3.418
1685724205.955,-39.062,-43.945,-16.602,-41.504,39.062
1685724205.959,-47.852,-45.410,-21.484,-50.293,-189.453
1685724205.976,-20.996,-36.133,-34.180,-39.062,-237.305
1685724205.980,-26.367,-35.645,-27.832,-33.691,-81.543
1685724205.984,-61.523,-26.367,-22.949,-27.832,-60.059
1685724205.988,-51.758,-21.973,-17.578,-32.715,-155.762
1685724205.992,-30.762,-24.902,-18.066,-42.480,-214.844
1685724205.996,-36.621,-19.531,-26.855,-49.805,-17.090
1685724206.000,-25.391,-19.531,-21.973,-15.625,76.172
1685724206.003,-22.949,-41.992,-26.367,-5.859,-38.086
1685724206.007,-56.641,-43.945,-37.598,-34.668,-84.961
1685724206.011,-51.758,-28.809,-31.250,-47.363,84.473
1685724206.015,-34.668,-30.273,-23.438,-50.293,90.820
1685724206.019,-25.391,-26.367,-33.691,-42.969,-33.203
1685724206.036,-37.598,-29.785,-34.668,-19.531,51.758
1685724206.040,-46.387,-35.645,-35.156,-12.695,266.113
1685724206.044,-52.246,-33.691,-38.574,-52.246,61.523
1685724206.048,-57.617,-35.156,-23.926,-57.617,-242.676
1685724206.052,-37.598,-25.879,-26.855,-42.480,-83.496
1685724206.056,-23.926,-19.043,-25.391,-20.996,115.234
1685724206.060,-24.414,-30.762,-23.926,-35.156,26.367
1685724206.063,-34.180,-44.434,-26.855,-73.730,-192.383
1685724206.067,-49.316,-42.969,-19.531,-57.129,-189.453
1685724206.071,-44.922,-31.250,-24.902,-29.785,192.383
1685724206.075,-32.227,-25.391,-26.367,-29.297,125.000
1685724206.079,-43.945,-21.973,-23.438,-46.875,-94.238
1685724206.067,-38.086,-22.949,-23.926,-56.152,-103.027
1685724206.071,-51.758,-24.414,-28.809,-55.664,-29.297
1685724206.075,-47.363,-32.715,-27.344,-41.992,-72.266
1685724206.079,-13.672,-43.457,-29.297,-13.672,-141.113
1685724206.083,-46.387,-35.156,-39.062,-31.250,22.949
1685724206.087,-35.645,-23.926,-31.738,-59.570,32.715
1685724206.091,-8.301,-22.949,-26.855,-57.617,-65.430
1685724206.094,-40.039,-29.785,-25.879,-40.527,-111.816
1685724206.098,-60.547,-36.133,-31.250,-37.598,53.711
1685724206.102,-67.871,-32.715,-39.551,-36.133,85.938
1685724206.106,-47.852,-24.414,-35.156,-58.594,-164.551
1685724206.110,-42.480,-20.996,-28.320,-74.219,-235.840
1685724206.111,-59.082,-24.414,-27.832,-41.016,232.422
1685724206.115,-28.320,-19.531,-32.227,-1.953,427.246
1685724206.119,-11.230,-9.277,-29.297,-25.391,-44.434
1685724206.123,-32.715,-13.184,-27.832,-54.199,-208.496
1685724206.127,-45.410,-18.066,-35.645,-54.688,-108.398
1685724206.131,-44.434,-16.602,-35.156,-64.453,-79.590
1685724206.135,-22.461,-13.184,-33.691,-48.828,-25.391
1685724206.138,-28.320,-4.883,-32.227,-43.945,-15.137
1685724206.142,-52.734,-2.930,-36.133,-55.176,213.867
1685724206.146,-59.570,-8.789,-36.133,-54.688,-20.508
1685724206.150,-34.668,-11.719,-29.297,-48.340,-275.879
1685724206.154,-33.203,-18.066,-41.016,-51.758,-67.383
1685724206.156,-41.016,-22.949,-55.664,-39.062,-31.250
1685724206.160,-11.719,-21.973,-66.895,-16.113,-138.672
1685724206.164,-40.039,-28.320,-55.176,-36.621,-187.012
1685724206.168,-52.734,-28.809,-41.504,-55.664,-119.141
1685724206.172,-32.715,-24.414,-55.176,-37.598,-72.754
1685724206.176,-37.598,-25.391,-43.945,-25.391,-23.438
1685724206.180,-37.109,-21.484,-19.531,-37.109,15.137
1685724206.183,-54.688,-29.785,-16.602,-46.875,196.289
1685724206.187,-43.457,-35.156,-18.555,-50.781,160.645
1685724206.191,-15.625,-26.367,-18.555,-26.855,-64.453
1685724206.195,-20.020,-22.949,-32.715,-40.527,-89.355
1685724206.199,-22.461,-31.738,-39.062,-72.266,140.625
1685724206.201,-39.551,-35.645,-26.367,-55.664,151.855
1685724206.205,-47.852,-29.297,-28.320,-54.199,-260.254
1685724206.209,-27.832,-25.879,-37.598,-49.805,-228.516
1685724206.213,7.812,-25.391,-37.598,-41.504,31.250
1685724206.217,-23.926,-38.574,-36.621,-67.383,-55.176
1685724206.221,-85.938,-37.598,-38.086,-80.566,-160.156
1685724206.225,-71.777,-27.832,-37.598,-32.227,-50.293
1685724206.228,-49.316,-27.344,-38.574,-11.230,197.266
1685724206.232,-51.758,-29.785,-32.715,-55.176,98.633
1685724206.236,-53.711,-29.297,-29.297,-73.730,-41.016
1685724206.240,-54.688,-26.367,-34.180,-63.965,-53.223
1685724206.244,-53.223,-39.551,-39.551,-66.895,-93.750
1685724206.246,-50.293,-47.852,-33.691,-51.758,-142.090
1685724206.250,-36.133,-34.180,-28.809,-39.062,-122.070
1685724206.254,-23.926,-22.949,-33.691,-18.555,-11.719
1685724206.258,-34.668,-20.020,-36.621,-43.457,-91.309
1685724206.262,-64.453,-20.996,-29.297,-66.895,-214.355
1685724206.266,-60.059,-29.785,-24.902,-64.941,-57.617
1685724206.270,-46.387,-34.180,-30.273,-49.316,258.301
1685724206.273,-50.781,-25.391,-30.273,-41.992,265.625
1685724206.277,-58.594,-17.578,-29.297,-58.105,-113.281
1685724206.281,-54.199,-19.043,-34.668,-60.059,-259.277
1685724206.285,-39.551,-20.020,-41.992,-58.594,-157.227
1685724206.289,-42.480,-21.973,-38.574,-44.434,14.648
1685724206.292,-57.617,-30.762,-32.227,-43.945,67.871
1685724206.296,-29.785,-28.809,-34.668,-31.738,-59.082
1685724206.300,-28.320,-23.438,-37.109,-38.574,138.672
1685724206.304,-59.082,-30.762,-34.180,-70.801,79.102
1685724206.308,-60.547,-36.133,-26.855,-44.434,-172.363
1685724206.312,-42.480,-29.785,-25.879,-30.762,78.125
1685724206.316,-46.387,-26.855,-24.902,-62.988,296.875
1685724206.319,-71.289,-23.926,-32.715,-83.984,-104.492
1685724206.323,-56.641,-14.648,-43.457,-56.641,-326.172
1685724206.327,-59.570,-19.531,-41.504,-31.250,-153.809
1685724206.331,-60.059,-30.762,-38.574,-39.551,-70.312
1685724206.335,-37.109,-27.832,-31.738,-43.457,-197.266
1685724206.351,-66.895,-27.832,-16.602,-91.797,-254.883
1685724206.355,-39.551,-29.297,-18.555,-78.125,-82.520
1685724206.359,-28.809,-34.668,-16.113,-33.691,63.965
1685724206.363,-79.590,-39.551,-14.648,-33.203,21.484
1685724206.367,-66.895,-31.250,-31.738,-47.363,-96.680
1685724206.371,-49.316,-30.273,-34.668,-83.984,150.391
1685724206.375,-43.945,-39.551,-32.715,-68.359,298.828
1685724206.378,-60.059,-40.527,-44.434,-51.270,-63.477
1685724206.382,-79.102,-34.668,-50.781,-60.059,-144.531
1685724206.386,-73.242,-31.250,-39.062,-62.988,58.105
1685724206.390,-52.246,-32.715,-31.738,-70.801,-66.406
1685724206.394,-21.484,-34.668,-38.086,-71.289,-227.539
1685724206.411,-25.391,-37.598,-37.598,-47.852,-1.465
1685724206.415,-46.387,-37.109,-28.320,-38.086,263.672
1685724206.419,-55.664,-31.250,-19.531,-17.090,72.266
1685724206.423,-69.336,-34.668,-13.672,-25.391,-216.309
1685724206.427,-66.406,-41.992,-2.930,-40.039,-121.094
1685724206.431,-48.340,-46.387,-11.230,-35.156,49.805
1685724206.435,-17.578,-54.199,-23.926,-26.367,3.418
1685724206.438,-41.016,-58.594,-19.043,-24.902,-119.141
1685724206.442,-96.191,-58.594,-21.973,-56.641,-112.305
1685724206.446,-72.266,-54.688,-25.879,-74.219,173.828
1685724206.450,-53.223,-50.293,-21.973,-38.574,-4.395
1685724206.454,-48.340,-49.316,-30.762,-15.137,-187.500
1685724206.441,-55.664,-50.781,-39.062,-51.270,-70.312
1685724206.445,-59.570,-50.781,-28.320,-62.012,-97.656
1685724206.449,-44.922,-45.898,-22.461,-54.688,-161.133
1685724206.453,-44.922,-46.387,-26.367,-63.965,-162.109
1685724206.457,-48.340,-43.945,-32.227,-38.574,-21.973
1685724206.461,-66.406,-43.457,-27.832,-20.508,186.035
1685724206.465,-65.430,-44.434,-18.066,-52.246,107.422
1685724206.468,-46.387,-34.668,-25.879,-72.266,3.906
1685724206.472,-40.527,-19.531,-31.738,-36.621,36.133
1685724206.476,-55.176,-23.926,-20.996,-33.203,-45.898
1685724206.480,-49.805,-38.086,-17.090,-44.922,-103.027
1685724206.484,-56.152,-47.852,-19.531,-47.852,-98.633
1685724206.501,-61.035,-53.711,-15.137,-48.828,238.770
1685724206.505,-60.547,-46.387,-23.438,-46.875,427.734
1685724206.509,-53.223,-36.133,-31.250,-22.461,39.062
1685724206.513,-35.156,-26.855,-16.602,11.230,-130.371
1685724206.517,-43.945,-24.902,-23.438,-19.531,-89.355
1685724206.521,-55.664,-29.785,-44.922,-58.105,-135.742
1685724206.525,-50.781,-28.320,-41.504,-47.363,-152.344
1685724206.528,-32.227,-38.086,-27.832,-23.926,-88.867
1685724206.532,-20.996,-40.527,-25.879,-20.508,248.047
1685724206.536,-27.832,-34.668,-24.414,-36.621,70.801
1685724206.540,-49.805,-45.898,-21.484,-40.039,-285.156
1685724206.544,-34.180,-42.480,-24.902,-20.508,-204.590
1685724206.531,-23.438,-29.297,-25.879,-27.344,-61.523
1685724206.535,-66.895,-18.066,-29.297,-49.316,-120.117
1685724206.539,-69.336,-22.949,-26.855,-46.387,-171.875
1685724206.543,-37.598,-41.016,-29.297,-49.316,-121.094
1685724206.547,-32.715,-40.527,-37.598,-45.410,-143.066
1685724206.551,-43.457,-32.715,-38.574,-20.996,-97.168
1685724206.555,-27.832,-30.762,-34.668,-20.508,73.730
1685724206.558,-65.430,-33.203,-27.344,-50.293,128.906
1685724206.562,-73.242,-39.062,-27.344,-63.965,-56.152
1685724206.566,-31.250,-35.156,-33.691,-59.570,-180.664
1685724206.570,-44.922,-31.250,-30.762,-65.430,-147.461
1685724206.574,-47.363,-33.691,-33.691,-61.523,246.582
1685724206.577,-44.922,-33.691,-52.246,-51.758,401.367
1685724206.581,-75.195,-31.738,-42.480,-50.781,-10.742
1685724206.585,-65.918,-30.762,-26.367,-62.012,-179.199
1685724206.589,-51.270,-27.344,-34.668,-54.688,55.176
1685724206.593,-52.246,-26.367,-37.598,-36.621,3.906
1685724206.597,0.488,-25.879,-35.645,-23.438,-86.914
1685724206.601,-12.695,-23.438,-35.645,-47.363,104.004
1685724206.604,-83.496,-30.762,-33.203,-74.219,220.215
1685724206.608,-82.031,-40.527,-29.785,-57.617,-107.422
1685724206.612,-60.547,-40.527,-24.902,-40.039,-263.672
1685724206.616,-11.230,-25.391,-30.273,-38.086,-84.473
1685724206.620,-28.320,-10.742,-41.992,-54.688,-136.719
1685724206.622,-52.734,-14.160,-39.062,-86.914,-267.090
1685724206.626,-42.480,-13.184,-31.250,-82.520,-232.910
1685724206.630,-52.246,-3.418,-38.086,-58.105,-12.207
1685724206.634,-64.941,-6.348,-36.133,-61.035,44.434
1685724206.638,-67.871,-12.695,-36.133,-74.219,-89.355
1685724206.642,-63.965,-8.789,-48.828,-87.891,-139.160
1685724206.646,-74.707,-8.789,-51.758,-100.098,78.613
1685724206.649,-65.430,-4.883,-41.992,-60.547,302.734
1685724206.653,-49.316,18.555,-32.715,-41.992,11.719
1685724206.657,-46.387,15.137,-54.199,-75.684,-91.797
1685724206.661,-49.805,-0.977,-76.172,-83.984,-24.902
1685724206.665,-65.430,-2.441,-64.453,-80.078,-104.004
1685724206.666,-65.918,0.488,-53.711,-54.688,-98.633
1685724206.670,-71.289,-16.113,-52.734,-62.988,-3.906
1685724206.674,-60.059,-18.555,-49.316,-89.844,188.965
1685724206.678,-45.898,-5.859,-30.273,-74.219,2.930
1685724206.682,-31.250,-24.902,-24.414,-65.430,-197.266
1685724206.686,-48.340,-21.973,-34.668,-67.383,-26.855
1685724206.690,-85.938,-5.859,-39.062,-45.898,335.938
1685724206.693,-60.059,-7.324,-34.180,-42.480,222.656
1685724206.697,-49.316,-4.883,-28.809,-46.875,-190.430
1685724206.701,-46.387,-12.695,-31.738,-53.223,-221.191
1685724206.705,-36.133,-32.227,-35.156,-39.551,-109.863
1685724206.709,-39.062,-27.344,-31.250,-13.184,-52.734
1685724206.726,-19.531,-10.254,-29.785,-21.484,-89.844
1685724206.730,-23.438,-9.277,-29.785,-38.574,-113.281
1685724206.734,-19.531,-10.254,-31.738,-58.105,-82.031
1685724206.738,-23.926,-15.625,-35.156,-53.711,-134.766
1685724206.742,-55.176,-24.902,-32.227,-33.691,-88.867
1685724206.746,-62.500,-23.926,-29.297,-29.297,99.121
1685724206.750,-59.082,-31.250,-32.227,-45.410,51.758
1685724206.753,-51.758,-36.133,-30.762,-62.500,-63.477
1685724206.757,-25.391,-21.484,-27.832,-46.875,-138.184
1685724206.761,-17.578,-17.090,-24.902,-22.461,151.855
1685724206.765,-43.457,-23.926,-30.762,-23.926,362.305
1685724206.769,-56.641,-31.738,-34.668,-59.082,-60.547
1685724206.772,-51.758,-30.762,-29.785,-68.359,-76.660
1685724206.776,-55.176,-24.902,-28.809,-41.016,153.809
1685724206.780,-53.223,-18.555,-34.668,-40.527,21.973
1685724206.784,-46.875,-5.859,-37.598,-47.852,-136.719
1685724206.788,-71.777,-23.926,-26.367,-61.035,-126.953
1685724206.792,-73.730,-47.852,-31.250,-80.566,-17.090
1685724206.796,-47.363,-30.762,-35.156,-64.941,-60.059
1685724206.799,-41.504,-5.859,-22.949,-47.363,-201.172
1685724206.803,-40.527,9.766,-25.391,-42.969,-98.145
1685724206.807,-43.457,-1.465,-28.809,-58.105,212.891
1685724206.811,-50.293,-23.438,-27.832,-52.734,-11.719
1685724206.815,-85.449,-38.574,-23.438,-66.406,-297.852
1685724206.816,-83.008,-44.922,-17.578,-75.195,-147.949
1685724206.820,-50.293,-13.672,-12.695,-61.035,-20.020
1685724206.824,-60.059,-4.395,-16.602,-67.871,-129.883
1685724206.828,-95.703,-45.410,-37.109,-96.191,-151.855
1685724206.832,-99.609,-50.781,-39.062,-89.844,-30.273
1685724206.836,-74.219,-31.250,-34.180,-74.707,22.949
1685724206.840,-59.082,-27.344,-36.133,-59.570,33.691
1685724206.843,-72.754,-9.766,-25.879,-59.082,-94.238
1685724206.847,-68.848,-6.836,-23.438,-83.008,1.953
1685724206.851,-53.223,-32.715,-34.180,-76.172,91.797
1685724206.855,-65.430,-44.922,-30.762,-61.035,-161.133
1685724206.859,-69.336,-44.434,-21.973,-50.781,-81.055
1685724206.862,-48.828,-31.250,-18.555,-47.363,163.574
1685724206.866,-47.363,-8.789,-11.230,-70.312,48.828
1685724206.870,-57.129,0.488,-12.695,-96.191,-167.969
1685724206.874,-50.293,-20.508,-25.391,-83.496,-134.277
1685724206.878,-69.824,-40.527,-32.227,-58.594,161.621
1685724206.882,-71.289,-41.016,-23.438,-69.824,134.277
1685724206.886,-63.965,-41.016,-17.090,-92.773,-83.984
1685724206.889,-60.059,-38.574,-18.066,-96.191,-138.184
1685724206.893,-47.363,-32.227,-15.137,-68.848,146.973
1685724206.897,-49.316,-16.113,-10.742,-49.316,54.688
1685724206.901,-53.223,-17.578,-11.230,-47.363,-194.824
1685724206.905,-61.035,-30.762,-21.973,-68.359,-178.711
1685724206.906,-72.754,-31.738,-28.809,-74.219,-200.195
1685724206.910,-83.984,-41.016,-33.203,-59.082,-173.828
1685724206.914,-78.125,-39.062,-30.273,-54.199,-45.410
1685724206.918,-62.988,-28.809,-21.973,-44.922,141.602
1685724206.922,-56.152,-29.297,-18.066,-52.734,66.895
1685724206.926,-78.125,-42.480,-21.484,-76.172,-10.254
1685724206.930,-82.520,-49.316,-25.879,-68.848,23.438
1685724206.933,-49.805,-41.504,-20.508,-37.598,168.457
1685724206.937,-47.852,-29.297,-15.137,-28.320,405.762
1685724206.941,-45.410,-26.855,-16.113,-59.570,33.203
1685724206.945,-45.898,-34.180,-23.926,-74.707,-249.512
1685724206.949,-66.406,-31.738,-31.250,-71.777,-99.121
1685724206.951,-66.406,-32.715,-32.227,-56.152,8.301
1685724206.955,-50.293,-39.062,-27.832,-40.527,-102.051
1685724206.959,-49.805,-33.691,-22.461,-41.992,-169.434
1685724206.963,-50.781,-26.367,-20.020,-46.387,22.461
1685724206.967,-49.316,-33.691,-19.531,-41.016,-40.527
1685724206.971,-63.965,-37.598,-26.367,-42.480,-74.219
1685724206.975,-55.176,-31.250,-36.621,-38.574,104.980
1685724206.978,-42.969,-31.738,-25.879,-33.203,420.410
1685724206.982,-52.246,-22.461,-17.090,-58.105,170.898
1685724206.986,-53.223,-20.508,-24.902,-60.059,-214.355
1685724206.990,-38.574,-39.062,-23.926,-41.016,-139.648
1685724206.994,-42.480,-41.992,-21.484,-33.203,-51.758
1685724206.996,-52.734,-33.203,-20.996,-28.809,-154.785
1685724207.000,-37.109,-36.133,-19.531,-54.199,-229.004
1685724207.004,-32.715,-40.039,-24.902,-56.641,-136.230
1685724207.008,-55.664,-38.574,-28.320,-33.691,-97.656
1685724207.012,-63.965,-33.691,-30.273,-27.832,-112.793
1685724207.016,-43.945,-27.344,-28.809,-33.203,-100.586
1685724207.020,-40.039,-18.555,-22.461,-47.852,129.883
1685724207.023,-49.316,-17.090,-20.508,-49.316,228.027
1685724207.027,-41.504,-30.762,-27.832,-36.621,-31.738
1685724207.031,-34.668,-38.086,-36.621,-20.020,-105.469
1685724207.035,-36.133,-34.668,-30.762,-17.090,29.785
1685724207.039,-30.273,-32.715,-27.344,-38.574,-98.633
1685724207.041,-31.738,-30.762,-32.715,-53.711,-242.188
1685724207.045,-47.363,-20.508,-37.598,-44.434,-159.668
1685724207.049,-46.875,-30.273,-32.715,-27.832,106.445
1685724207.053,-41.992,-35.156,-26.367,-25.879,60.547
1685724207.057,-34.668,-29.785,-26.367,-40.527,-136.230
1685724207.061,-39.062,-38.086,-23.438,-50.293,-28.809
1685724207.065,-46.875,-33.691,-27.832,-41.504,193.359
1685724207.068,-30.273,-22.461,-31.738,-14.160,0.977
1685724207.072,-39.062,-23.438,-26.855,-18.066,-188.477
1685724207.076,-40.039,-21.973,-27.832,-47.852,-138.672
1685724207.080,-41.016,-23.926,-33.691,-58.105,-54.199
1685724207.084,-58.105,-15.137,-29.785,-46.875,-95.215
1685724207.089,-43.945,-12.207,-25.879,-20.508,-125.488
1685724207.093,-46.387,-30.762,-34.668,-18.555,6.836
1685724207.097,-56.152,-41.504,-42.480,-54.199,57.129
1685724207.101,-42.969,-41.504,-40.527,-73.242,-129.395
1685724207.105,-34.668,-26.367,-37.598,-58.594,-197.754
1685724207.109,-51.758,-20.020,-34.668,-28.809,104.980
1685724207.113,-57.129,-39.062,-33.203,-29.297,252.441
1685724207.116,-34.180,-46.875,-31.738,-55.176,-12.695
1685724207.120,-33.203,-38.086,-27.832,-64.941,-159.668
1685724207.124,-48.828,-16.602,-27.832,-47.363,102.051
1685724207.128,-53.223,-19.043,-29.785,-33.691,173.828
1685724207.132,-50.293,-43.457,-22.461,-38.086,-11.719
1685724207.146,-46.387,-38.086,-16.113,-45.410,83.984
1685724207.150,-50.781,-24.902,-25.391,-58.594,94.727
1685724207.154,-54.199,-17.090,-30.273,-57.129,-130.859
1685724207.158,-50.293,-24.414,-25.391,-37.598,-204.102
1685724207.162,-34.668,-32.715,-31.738,-38.574,-97.656
1685724207.166,-24.414,-32.715,-33.691,-41.992,335.449
1685724207.170,-48.828,-36.621,-31.250,-51.270,402.832
1685724207.173,-54.199,-37.109,-27.832,-56.152,-121.582
1685724207.177,-57.617,-35.645,-24.902,-44.434,-144.531
1685724207.181,-76.660,-42.480,-21.973,-45.410,56.641
1685724207.185,-72.754,-36.621,-13.672,-51.270,-97.656
1685724207.189,-78.613,-37.598,-13.184,-58.594,-235.352
1685724207.191,-84.961,-45.898,-18.066,-57.129,-192.383
1685724207.195,-62.012,-41.016,-15.137,-44.434,-144.531
1685724207.199,-62.012,-40.039,-18.555,-45.898,-132.812
1685724207.203,-79.590,-43.945,-25.391,-50.293,-53.711
1685724207.207,-84.473,-38.086,-25.391,-66.406,35.645
1685724207.211,-73.242,-33.691,-21.484,-70.801,28.320
1685724207.215,-56.641,-25.879,-9.277,-33.203,-65.918
1685724207.218,-52.734,-25.879,-11.230,-5.371,-46.875
1685724207.222,-49.805,-38.086,-25.391,-32.715,100.586
1685724207.226,-62.988,-36.621,-26.367,-60.547,-16.602
1685724207.230,-73.730,-37.598,-29.785,-71.289,-226.562
1685724207.234,-54.688,-35.645,-31.738,-52.246,-199.219
1685724207.236,-40.039,-36.621,-29.785,-25.879,237.793
1685724207.240,-60.059,-44.922,-39.062,-39.062,401.367
1685724207.244,-73.730,-50.781,-39.062,-52.734,-60.547
1685724207.248,-59.082,-48.828,-33.203,-56.641,-222.168
1685724207.252,-54.688,-45.410,-24.414,-45.410,-147.949
1685724207.256,-56.641,-41.992,-17.090,-23.926,-19.043
1685724207.260,-46.875,-32.715,-25.879,-27.344,33.691
1685724207.263,-56.641,-30.273,-32.715,-46.875,-52.246
1685724207.267,-65.430,-37.109,-34.180,-57.617,121.094
1685724207.271,-39.551,-32.227,-32.715,-45.410,20.508
1685724207.275,-20.020,-22.949,-30.762,-25.391,-250.000
1685724207.279,-25.879,-21.484,-35.645,-17.578,-150.391
1685724207.281,-34.180,-32.227,-37.598,-25.879,-107.910
1685724207.285,-39.062,-38.086,-37.109,-35.645,-221.191
1685724207.289,-32.227,-32.715,-39.551,-33.203,-223.633
1685724207.293,-27.832,-32.227,-35.156,-20.020,-82.031
1685724207.297,-31.738,-24.902,-30.273,-17.578,0.488
1685724207.301,-28.809,-18.555,-30.762,-46.387,68.359
1685724207.305,-40.039,-22.949,-32.715,-64.941,3.906
1685724207.308,-57.129,-35.156,-38.574,-54.688,63.965
1685724207.312,-52.734,-40.527,-35.645,-28.320,266.602
1685724207.316,-44.434,-35.156,-29.785,-27.832,-4.395
1685724207.320,-42.480,-32.715,-29.297,-52.734,-154.785
1685724207.324,-56.641,-31.738,-26.367,-77.148,67.383
1685724207.326,-66.895,-33.691,-26.855,-63.965,14.648
1685724207.330,-62.500,-41.504,-26.855,-37.598,-173.340
1685724207.334,-58.594,-31.738,-30.762,-31.738,-45.410
1685724207.338,-61.523,-23.926,-34.180,-37.109,217.773
1685724207.342,-63.965,-35.156,-31.738,-64.453,8.789
1685724207.346,-57.617,-29.297,-33.203,-75.684,-163.086
1685724207.350,-56.152,-25.391,-33.691,-49.805,61.523
1685724207.353,-45.898,-28.809,-32.227,-21.973,182.129
1685724207.357,-41.992,-33.203,-34.180,-40.039,-27.832
1685724207.361,-44.922,-32.715,-33.691,-54.688,-249.023
1685724207.365,-61.523,-27.344,-30.762,-62.988,-131.348
1685724207.369,-55.176,-26.855,-26.855,-50.781,219.238
1685724207.371,-28.320,-32.227,-25.391,-16.602,46.387
1685724207.375,-35.645,-31.250,-24.414,-16.113,-121.094
1685724207.379,-55.176,-25.391,-23.438,-35.156,-59.082
1685724207.383,-52.246,-26.367,-23.438,-30.273,-85.449
1685724207.387,-46.387,-24.414,-26.855,-20.996,-127.441
1685724207.391,-55.664,-37.598,-41.016,-24.414,-34.668
1685724207.395,-62.988,-35.645,-38.574,-34.668,249.512
1685724207.398,-44.922,-18.066,-25.391,-52.246,207.031
1685724207.402,-41.992,-24.414,-36.133,-57.129,-216.309
1685724207.406,-51.270,-45.410,-41.016,-33.203,-254.883
1685724207.410,-50.293,-50.293,-36.621,-20.508,40.527
1685724207.414,-46.387,-36.621,-37.109,-39.551,19.043
1685724207.417,-43.457,-34.668,-33.691,-54.199,-164.062
1685724207.421,-47.363,-35.156,-27.832,-55.176,-98.145
1685724207.425,-58.594,-29.785,-27.344,-41.504,176.270
1685724207.429,-58.105,-32.715,-30.273,-28.809,119.629
1685724207.433,-49.805,-32.227,-28.809,-29.785,-131.348
1685724207.437,-45.410,-23.438,-23.438,-48.828,-46.875
1685724207.441,-30.273,-20.020,-28.809,-56.641,182.617
1685724207.444,-56.152,-28.809,-30.273,-47.363,-60.059
1685724207.448,-67.871,-32.715,-20.996,-24.414,-254.883
1685724207.452,-25.391,-30.273,-22.949,-7.812,-112.793
1685724207.456,-53.223,-34.180,-27.344,-20.996,5.859
1685724207.460,-84.961,-33.691,-22.949,-59.570,-79.590
1685724207.476,-19.531,-28.320,-32.227,-58.594,-173.828
1685724207.480,-46.875,-24.902,-32.715,-33.691,-101.074
1685724207.484,-59.082,-19.531,-26.367,-42.969,-24.902
1685724207.488,-29.785,-27.832,-28.809,-36.621,-48.340
1685724207.492,-27.832,-34.668,-28.809,-39.551,-155.762
1685724207.496,-37.109,-35.645,-29.297,-55.176,69.336
1685724207.500,-34.668,-33.691,-27.832,-26.367,391.602
1685724207.503,-53.223,-25.879,-20.996,-7.324,58.105
1685724207.507,-86.426,-32.715,-20.996,-28.809,-121.582
1685724207.511,-47.852,-38.574,-24.414,-48.828,2.441
1685724207.515,-35.156,-33.203,-25.391,-36.133,-123.535
1685724207.519,-43.457,-24.902,-27.344,-4.883,-229.980
1685724207.521,-45.410,-26.367,-25.391,-15.625,3.906
1685724207.525,-16.113,-25.391,-19.531,-4.395,233.887
1685724207.529,-24.414,-27.344,-25.879,-23.926,23.926
1685724207.533,-62.988,-32.715,-33.203,-44.922,-208.008
1685724207.537,-51.758,-30.762,-31.250,-14.648,-95.703
1685724207.541,-65.430,-34.668,-30.762,-14.648,119.141
1685724207.545,-41.016,-36.621,-35.156,-22.461,138.672
1685724207.548,-1.465,-37.109,-29.297,-6.348,-39.551
1685724207.552,-25.879,-40.039,-23.926,-3.418,-168.945
1685724207.556,-35.645,-29.297,-25.879,21.484,158.691
1685724207.560,-17.090,-18.555,-18.066,35.156,101.562
1685724207.564,-14.160,-22.949,-16.113,1.465,-162.109
1685724207.566,-18.066,-25.391,-22.949,-7.812,-98.633
1685724207.570,-31.250,-26.367,-25.879,-1.465,-147.461
1685724207.574,-18.555,-25.391,-28.320,-11.230,-264.160
1685724207.578,-7.324,-25.391,-30.273,-4.395,-209.961
1685724207.582,-40.039,-26.855,-26.367,13.184,-62.988
1685724207.586,-32.227,-24.414,-22.949,7.324,31.738
1685724207.590,-11.719,-24.902,-25.391,-33.203,-8.789
1685724207.593,-5.859,-24.902,-25.391,-22.461,-151.367
1685724207.597,-17.578,-20.020,-25.879,5.859,197.266
1685724207.601,-39.062,-15.137,-26.855,-12.207,462.402
1685724207.605,-28.809,-16.602,-31.250,-37.109,-32.715
1685724207.609,17.090,-19.043,-32.715,-18.066,-198.242
1685724207.611,23.926,-16.113,-25.391,9.277,42.969
1685724207.615,-35.645,-16.113,-23.438,-21.484,-62.500
1685724207.619,-68.359,-18.066,-25.879,-37.598,-171.875
1685724207.623,-72.266,-24.902,-24.414,-52.734,-121.094
1685724207.627,-79.590,-40.039,-19.531,-88.379,-119.141
1685724207.631,-112.793,-53.711,-19.531,-89.844,-43.457
1685724207.635,-131.836,-58.105,-20.020,-76.172,43.945
1685724207.638,-136.719,-39.551,-7.324,-80.078,5.371
1685724207.642,-145.020,-26.855,-13.672,-98.633,190.918
1685724207.646,-149.414,-38.574,-23.926,-118.164,-44.922
1685724207.650,-146.973,-42.480,-25.879,-119.141,-322.754
1685724207.654,-165.039,-41.992,-17.578,-108.887,-20.996
1685724207.656,-140.625,-31.738,12.207,-100.586,171.875
1685724207.660,-138.184,-32.227,27.344,-98.145,-35.645
1685724207.664,-142.090,-39.062,13.184,-123.535,-184.570
1685724207.668,-139.648,-29.297,-5.859,-140.625,-170.898
1685724207.672,-138.672,-37.109,-19.531,-104.492,-131.348
1685724207.676,-115.723,-41.016,-24.414,-63.965,-35.156
1685724207.680,-125.977,-32.227,-26.367,-78.613,-0.488
1685724207.683,-135.742,-38.574,5.859,-110.352,102.539
1685724207.687,-117.188,-53.223,26.855,-110.840,80.566
1685724207.691,-110.840,-60.547,7.324,-84.473,-166.992
1685724207.695,-87.402,-61.035,1.465,-58.594,-104.980
1685724207.699,-53.223,-49.805,-3.906,-44.434,7.812
1685724207.702,-52.246,-38.086,-15.137,-44.922,-70.801
1685724207.706,-72.266,-38.574,-19.043,-43.457,-105.957
1685724207.710,-34.180,-39.062,-23.438,-25.391,-93.750
1685724207.714,-12.207,-35.156,-31.738,-10.254,175.293
1685724207.718,-29.785,-35.156,-36.133,-0.977,161.621
1685724207.722,-40.527,-35.156,-36.133,-15.625,-62.500
1685724207.726,-40.039,-31.738,-38.086,-37.598,-56.152
1685724207.729,-8.301,-26.367,-41.504,-0.977,199.219
1685724207.733,8.789,-30.273,-34.668,25.391,89.355
1685724207.737,-11.230,-40.039,-31.738,36.133,-174.805
1685724207.741,-27.832,-37.598,-35.156,4.395,-152.344
1685724207.745,-16.113,-29.785,-34.668,-30.762,-210.449
1685724207.746,-11.719,-25.391,-36.133,-11.230,-251.465
1685724207.750,-30.762,-25.391,-36.133,18.555,-173.340
1685724207.754,-33.691,-27.832,-35.156,27.832,-47.852
1685724207.758,-12.207,-34.668,-38.086,-0.488,-7.324
1685724207.762,-8.301,-34.668,-34.668,-15.137,-44.922
1685724207.766,-29.785,-37.109,-32.227,-1.465,-46.875
1685724207.770,-13.184,-28.320,-31.738,10.742,229.004
1685724207.773,0.000,-14.160,-26.367,23.926,418.457
1685724207.777,-2.441,-20.020,-29.785,15.137,-4.395
1685724207.781,5.859,-26.367,-36.621,-9.277,-216.797
1685724207.785,-0.488,-32.715,-35.645,-7.324,-99.121
1685724207.789,-5.371,-37.598,-37.598,9.277,-106.934
1685724207.791,3.418,-30.762,-34.668,22.949,-79.102
1685724207.795,-8.301,-17.090,-29.297,5.371,-54.688
1685724207.799,-23.438,-20.020,-33.203,-15.137,119.629
1685724207.803,-20.508,-32.227,-35.645,-14.160,25.879
1685724207.807,-21.484,-33.691,-33.691,-7.324,-201.172
1685724207.811,-27.344,-32.715,-38.086,1.465,92.773
1685724207.815,-30.273,-34.668,-42.969,-8.789,430.176
1685724207.818,-30.273,-31.738,-36.133,-38.086,89.844
1685724207.822,-27.832,-26.855,-35.156,-34.668,-245.605
1685724207.826,-34.668,-26.855,-37.109,-13.184,-144.531
1685724207.830,-43.457,-26.367,-31.250,-8.789,102.539
1685724207.834,-46.875,-27.832,-34.180,-34.668,-41.504
1685724207.836,-23.438,-23.926,-32.227,-57.129,-241.211
1685724207.840,-36.621,-27.344,-32.715,-51.270,-217.773
1685724207.844,-33.691,-34.668,-37.109,-28.809,-170.410
1685724207.848,-21.973,-30.273,-36.133,10.254,-73.730
1685724207.852,-43.457,-25.879,-37.109,-7.812,-40.527
1685724207.856,-54.199,-27.344,-41.504,-43.945,-3.418
1685724207.860,-75.684,-29.297,-38.574,-37.109,-28.809
1685724207.863,-56.641,-34.180,-39.062,-40.039,-110.352
1685724207.867,-39.551,-40.039,-42.969,-41.016,-112.305
1685724207.871,-42.969,-40.039,-41.016,-38.574,251.465
1685724207.875,-48.340,-35.156,-32.715,-30.762,295.410
1685724207.879,-41.992,-25.879,-30.273,-43.457,-145.996
1685724207.897,-44.922,-22.461,-32.227,-42.480,-83.984
1685724207.901,-39.551,-30.273,-33.691,-12.695,155.273
1685724207.905,-40.527,-29.297,-32.227,-14.648,27.832
1685724207.909,-43.457,-24.902,-28.809,-59.570,-170.410
1685724207.913,-41.504,-29.785,-32.227,-81.543,-203.613
1685724207.917,-82.031,-31.738,-31.250,-73.242,-67.871
1685724207.921,-89.844,-26.855,-33.691,-72.754,32.715
1685724207.924,-58.594,-35.156,-49.316,-43.457,-48.828
1685724207.928,-60.547,-36.133,-47.363,-57.617,-98.633
1685724207.932,-82.520,-24.902,-26.367,-78.613,90.820
1685724207.936,-73.242,-33.203,-16.602,-55.664,-47.363
1685724207.940,-83.496,-35.156,-22.461,-63.965,-89.355
1685724207.941,-60.547,-21.973,-19.531,-50.293,46.387
1685724207.945,-20.020,-20.996,-19.531,-45.410,5.859
1685724207.949,-51.270,-24.902,-26.855,-55.176,-138.184
1685724207.953,-77.148,-32.227,-32.715,-59.082,-205.566
1685724207.957,-55.664,-40.039,-35.156,-41.504,-95.215
1685724207.961,-42.480,-33.691,-37.109,-5.371,18.555
1685724207.965,-47.852,-21.973,-32.227,-21.973,-45.410
1685724207.968,-64.453,-24.902,-18.066,-36.621,-186.523
1685724207.972,-40.527,-21.973,-10.254,-20.996,-52.734
1685724207.976,-29.297,-20.508,-15.137,-22.949,130.859
1685724207.980,-28.320,-27.832,-28.809,-14.160,-73.242
1685724207.984,-14.160,-30.762,-31.250,-18.066,-89.355
1685724207.987,-20.996,-35.156,-34.180,-36.133,36.133
1685724207.991,-40.039,-31.738,-40.527,-30.273,-93.262
1685724207.995,-45.410,-36.133,-36.133,-18.555,-126.953
1685724207.999,-23.438,-41.016,-21.484,-19.531,-66.406
1685724208.003,-21.484,-28.320,-19.531,-24.902,172.363
1685724208.007,-56.641,-28.320,-32.227,-39.551,125.977
1685724208.011,-50.293,-30.273,-30.273,-54.199,-97.656
1685724208.014,-21.484,-24.902,-27.832,-25.879,-77.148
1685724208.018,-23.438,-27.832,-37.109,-9.766,208.984
1685724208.022,-51.758,-31.250,-41.016,-30.273,71.289
1685724208.026,-65.918,-22.461,-32.715,-50.781,-209.473
1685724208.030,-46.875,-12.207,-26.367,-52.734,-174.316
1685724208.046,-38.086,-15.137,-32.715,-49.316,-140.137
1685724208.050,-32.715,-22.461,-34.180,-27.832,-106.445
1685724208.054,-48.828,-32.227,-36.133,-22.461,-56.152
1685724208.058,-48.828,-32.227,-36.133,-29.785,-11.719
1685724208.062,-20.020,-25.391,-38.574,-28.809,-22.461
1685724208.066,-9.766,-29.297,-38.086,0.488,-81.055
1685724208.070,-24.414,-42.480,-35.645,8.789,-21.484
1685724208.073,-38.086,-37.598,-31.250,-22.949,278.809
1685724208.077,-36.133,-24.414,-23.438,-44.434,436.035
1685724208.081,-55.176,-33.203,-25.879,-46.387,3.418
1685724208.085,-62.500,-40.527,-29.785,-39.062,-242.676
1685724208.089,-5.859,-26.855,-34.668,-25.879,-76.660
1685724208.076,-8.301,-16.602,-32.227,-22.949,56.641
1685724208.080,-43.457,-14.160,-22.949,-12.695,-94.238
1685724208.084,-12.207,-13.184,-16.602,-22.949,-183.105
1685724208.088,-6.348,-10.254,-20.996,-30.762,24.902
1685724208.092,-19.531,-16.113,-24.902,5.371,-33.691
1685724208.096,-8.301,-23.926,-21.484,13.672,-41.016
1685724208.100,-32.227,-25.879,-25.879,-26.367,62.012
1685724208.103,-33.203,-23.926,-24.902,-42.969,54.688
1685724208.107,-19.531,-23.438,-17.578,-16.602,-92.773
1685724208.111,-20.508,-23.926,-19.043,8.301,-173.340
1685724208.115,2.930,-23.438,-19.043,13.184,-18.066
1685724208.119,-2.930,-24.902,-22.949,-11.719,313.477
1685724208.121,-22.461,-29.785,-37.598,-55.176,44.434
1685724208.125,-38.574,-29.785,-41.016,-49.316,-302.734
1685724208.129,-57.129,-24.902,-34.668,-12.207,-127.930
1685724208.133,-42.480,-25.391,-33.203,2.441,-17.090
1685724208.137,-13.672,-24.414,-35.645,-30.273,-129.883
1685724208.141,-20.020,-23.926,-35.156,-46.875,-160.156
1685724208.145,-20.996,-23.926,-38.086,-42.480,91.797
1685724208.148,-20.020,-20.996,-40.527,-29.785,240.234
1685724208.152,-21.973,-18.066,-31.250,-8.789,-2.441
1685724208.156,-26.855,-20.020,-24.902,-8.789,24.902
1685724208.160,-40.039,-29.297,-33.691,-38.574,113.281
1685724208.164,-36.133,-34.668,-40.039,-38.086,-66.406
1685724208.166,-26.855,-28.809,-36.133,12.695,-103.516
1685724208.170,-2.441,-18.066,-34.668,-11.719,-19.531
1685724208.174,-9.766,-17.578,-33.691,-37.109,164.062
1685724208.178,-41.016,-25.879,-40.527,-49.805,-38.086
1685724208.182,-30.273,-31.250,-36.621,-37.598,-310.059
1685724208.186,-20.996,-38.086,-40.527,-23.438,-97.168
1685724208.190,-29.785,-32.715,-44.922,-26.367,292.480
1685724208.193,-37.598,-28.809,-33.691,-11.230,75.684
1685724208.197,-51.758,-33.691,-26.855,-28.809,-190.918
1685724208.201,-43.945,-38.086,-30.273,-46.387,-131.836
1685724208.205,-20.020,-37.109,-31.250,-21.484,-72.266
1685724208.209,-41.016,-27.344,-33.691,-29.785,-54.199
1685724208.212,-24.414,-8.301,-38.086,-30.273,2.930
1685724208.216,-17.090,-3.418,-30.273,-20.996,-27.344
1685724208.220,-54.688,-17.090,-21.484,-20.020,-65.918
1685724208.224,-34.180,-20.996,-22.461,-9.277,-196.777
1685724208.228,-26.855,-21.484,-24.414,-8.301,-166.504
1685724208.232,-39.551,-24.414,-29.785,-3.418,150.391
1685724208.236,-37.109,-22.949,-36.133,-24.414,155.273
1685724208.239,-37.598,-25.391,-30.762,-49.805,-120.117
1685724208.243,-45.898,-25.879,-29.297,-6.348,-196.777
1685724208.247,-52.246,-24.414,-33.203,14.648,33.691
1685724208.251,-48.828,-25.391,-36.621,-0.977,100.586
1685724208.255,-42.480,-26.855,-26.367,-33.691,-76.660
1685724208.272,-46.875,-26.855,-21.484,-60.059,-125.488
1685724208.276,-47.363,-20.996,-25.391,-41.016,70.312
1685724208.280,-42.480,-18.555,-10.254,-6.836,77.637
1685724208.284,-64.941,-31.250,-22.949,-13.672,-135.254
1685724208.288,-76.172,-36.621,-43.457,-36.621,-130.859
1685724208.292,-52.246,-37.598,-34.668,-42.480,169.434
1685724208.296,-53.711,-42.969,-27.832,-63.477,114.258
1685724208.299,-44.434,-40.039,-29.297,-49.316,-160.156
1685724208.303,-21.484,-30.273,-25.879,-13.184,-76.660
1685724208.307,-49.805,-22.949,-23.438,-20.996,79.102
1685724208.311,-66.406,-30.762,-25.879,-48.828,-115.234
1685724208.315,-35.156,-30.762,-25.879,-46.875,-205.078
1685724208.316,-22.949,-29.785,-22.949,-29.785,-129.883
1685724208.320,-30.273,-32.715,-32.227,-11.719,-37.109
1685724208.324,-56.152,-26.855,-40.527,-32.227,-128.418
1685724208.328,-51.270,-20.020,-34.180,-56.641,-212.402
1685724208.332,-24.414,-20.508,-26.855,-57.129,-111.328
1685724208.336,-22.461,-24.414,-28.320,-52.246,-8.301
1685724208.340,-16.602,-20.996,-30.762,-45.410,69.336
1685724208.343,-8.301,-16.602,-25.879,-23.438,31.250
1685724208.347,-25.879,-17.578,-25.391,-27.832,93.750
1685724208.351,-39.062,-22.461,-29.785,-29.785,290.527
1685724208.355,-31.250,-25.879,-29.297,-10.254,-42.480
1685724208.359,-29.785,-21.973,-30.273,7.812,-147.949
1685724208.361,-47.852,-20.508,-32.715,6.348,197.754
1685724208.365,-47.363,-23.926,-31.738,-23.438,14.648
1685724208.369,-37.109,-30.273,-31.738,-45.410,-322.754
1685724208.373,-41.016,-32.227,-26.367,-28.320,-224.609
1685724208.377,-41.504,-32.715,-26.855,-7.324,127.930
1685724208.381,-13.184,-31.738,-30.273,-7.812,76.660
1685724208.385,-38.086,-28.320,-29.785,-41.504,-16.113
1685724208.388,-52.734,-31.250,-24.414,-53.711,32.227
1685724208.392,-30.762,-33.691,-24.414,-21.973,268.066
1685724208.396,-31.738,-28.809,-29.785,-28.320,201.172
1685724208.400,-41.504,-26.855,-40.039,-34.668,-115.723
1685724208.404,-64.453,-21.973,-45.410,-36.621,-138.672
1685724208.421,-61.523,-19.043,-38.086,-57.129,-152.832
1685724208.425,-53.223,-23.926,-33.203,-49.316,-216.309
1685724208.429,-49.805,-24.902,-30.762,-29.297,-146.484
1685724208.433,-53.711,-19.043,-26.855,-40.527,-11.719
1685724208.437,-38.574,-17.578,-30.762,-63.477,-41.504
1685724208.441,-37.598,-21.973,-31.250,-62.988,-51.758
1685724208.445,-42.969,-21.973,-26.855,-63.965,-91.797
1685724208.448,-57.129,-24.902,-20.020,-47.363,43.457
1685724208.452,-54.199,-28.320,-17.578,-35.645,253.906
1685724208.456,-49.316,-24.902,-27.832,-38.086,-24.902
1685724208.460,-49.805,-19.531,-33.203,-37.598,-204.590
1685724208.464,-60.059,-22.461,-29.297,-53.711,6.836
1685724208.451,-67.383,-33.691,-32.227,-48.828,32.227
1685724208.455,-69.824,-31.738,-34.180,-42.969,-146.973
1685724208.459,-54.199,-22.461,-31.738,-41.016,-83.008
1685724208.463,-46.387,-23.438,-36.621,-70.312,81.055
1685724208.467,-59.082,-22.949,-36.621,-74.219,-46.875
1685724208.471,-62.988,-24.902,-27.344,-43.945,-131.836
1685724208.475,-48.828,-33.691,-23.926,-50.293,68.848
1685724208.478,-85.449,-41.016,-24.902,-50.293,131.836
1685724208.482,-85.449,-41.992,-30.762,-53.223,-75.684
1685724208.486,-41.504,-35.156,-31.250,-68.848,-247.559
1685724208.490,-35.645,-32.227,-29.297,-45.410,-143.066
1685724208.494,-42.480,-38.086,-29.297,-11.719,264.160
1685724208.497,-51.270,-40.527,-27.344,-31.250,146.484
1685724208.501,-61.035,-34.180,-29.785,-42.969,-149.902
1685724208.505,-62.988,-30.762,-37.109,-56.641,-159.668
1685724208.509,-57.129,-29.785,-37.598,-50.781,-110.840
1685724208.513,-23.926,-41.992,-36.133,-43.945,-102.051
1685724208.517,-39.062,-48.340,-38.086,-50.293,-86.914
1685724208.521,-62.988,-32.227,-41.016,-53.223,145.020
1685724208.524,-39.551,-29.297,-34.180,-44.434,220.703
1685724208.528,-35.156,-39.551,-36.621,-33.203,-177.734
1685724208.532,-39.062,-41.992,-43.457,-36.133,-178.223
1685724208.536,-55.176,-35.645,-39.551,-25.391,-25.879
1685724208.540,-54.199,-32.227,-31.250,-44.434,-106.934
1685724208.541,-46.875,-34.180,-30.762,-78.125,-105.469
1685724208.545,-65.430,-31.738,-29.785,-36.133,-90.820
1685724208.549,-35.156,-22.949,-25.879,-8.301,129.883
1685724208.553,-12.695,-23.438,-27.832,-29.297,78.125
1685724208.557,-50.293,-32.715,-29.785,-45.410,-154.297
1685724208.561,-49.316,-31.250,-28.320,-45.410,-64.453
1685724208.565,-37.109,-22.949,-27.832,-38.086,310.547
1685724208.568,-26.855,-23.926,-26.367,-25.391,257.812
1685724208.572,-6.348,-26.367,-32.715,-29.297,-124.023
1685724208.576,-25.391,-20.996,-33.203,-34.668,-150.391
1685724208.580,-34.180,-16.602,-32.227,-48.340,-154.785
1685724208.584,-28.809,-25.391,-31.250,-55.176,-249.512
1685724208.586,-19.043,-25.879,-27.832,-5.371,-194.824
1685724208.590,-17.090,-25.391,-32.227,4.883,-48.828
1685724208.594,-35.645,-28.809,-30.762,-20.508,-36.133
1685724208.598,-48.340,-25.879,-26.367,-38.574,-124.512
1685724208.602,-36.621,-24.414,-27.832,-65.430,-169.922
1685724208.606,-26.855,-22.949,-35.645,-34.668,31.738
1685724208.610,-31.250,-19.531,-42.480,-21.973,170.410
1685724208.613,-38.574,-26.367,-36.133,-41.992,48.340
1685724208.617,-31.250,-32.227,-29.297,-39.551,-125.977
1685724208.621,-44.922,-21.973,-29.297,-41.992,41.016
1685724208.625,-15.625,-8.789,-25.391,-41.992,227.539
1685724208.629,-6.836,-13.184,-20.508,-23.438,8.301
1685724208.646,-24.414,-26.367,-18.066,-12.695,19.043
1685724208.650,-33.691,-27.344,-25.879,-50.293,121.582
1685724208.654,-43.945,-24.902,-31.250,-64.941,-70.312
1685724208.658,-24.902,-23.926,-27.832,-19.531,-209.961
1685724208.662,-34.668,-23.926,-23.926,-2.930,-98.145
1685724208.666,-46.387,-29.297,-23.438,-9.277,64.941
1685724208.670,-41.992,-32.715,-20.996,-14.160,35.156
1685724208.673,-40.527,-37.598,-16.113,-11.230,-146.484
1685724208.677,-30.273,-42.969,-21.973,0.977,-153.809
1685724208.681,-34.180,-46.875,-25.391,-5.371,223.633
1685724208.685,-34.180,-49.316,-18.066,0.977,187.500
1685724208.689,-23.438,-54.688,-17.090,-6.348,-121.094
1685724208.691,-23.438,-54.199,-20.020,-23.926,-158.691
1685724208.695,-16.113,-53.223,-16.113,-5.859,-115.723
1685724208.699,6.836,-55.664,-17.578,24.902,-102.051
1685724208.703,-8.301,-56.641,-20.996,27.832,-61.035
1685724208.707,-26.367,-52.246,-16.602,20.020,-36.621
1685724208.711,14.648,-47.363,-15.137,-4.395,-56.641
1685724208.715,13.184,-42.480,-22.461,3.906,-97.656
1685724208.718,-7.324,-34.668,-24.414,18.555,-153.320
1685724208.722,-19.043,-35.156,-21.973,9.766,105.469
1685724208.726,-37.109,-38.086,-19.531,20.996,246.094
1685724208.730,-33.203,-37.109,-22.461,-9.277,-78.125
1685724208.734,-25.879,-37.109,-27.832,-23.926,-161.133
1685724208.736,-37.598,-38.086,-26.367,1.953,243.164
1685724208.740,-30.762,-38.086,-20.508,-4.395,280.762
1685724208.744,-6.836,-32.715,-20.996,-16.602,-92.773
1685724208.748,-11.230,-30.762,-20.020,0.488,-166.992
1685724208.752,-19.531,-35.156,-20.996,-9.277,-165.039
1685724208.756,-17.090,-33.691,-31.738,-10.254,-40.039
1685724208.760,-40.527,-31.250,-34.180,-4.395,-15.137
1685724208.763,-59.082,-34.668,-27.344,-31.250,-20.996
1685724208.767,-26.367,-40.039,-24.414,-61.523,178.711
1685724208.771,-11.719,-30.273,-23.926,-26.855,-77.637
1685724208.775,-50.293,-22.461,-23.926,-1.465,-298.828
1685724208.779,-55.664,-30.762,-18.555,1.465,-157.715
1685724208.781,-42.969,-35.645,-17.578,-19.531,-119.141
1685724208.785,-27.344,-26.367,-23.438,-47.363,-202.637
1685724208.789,-33.203,-30.273,-24.414,-20.996,-265.625
1685724208.793,-32.227,-35.156,-21.973,-12.207,-155.273
1685724208.797,-37.109,-28.809,-22.461,-9.766,-48.828
1685724208.801,-44.922,-29.297,-29.297,-14.648,-93.262
1685724208.805,-38.574,-32.227,-27.344,-35.645,-118.164
1685724208.808,-42.480,-22.949,-30.273,-55.664,62.012
1685724208.812,-30.762,-15.137,-36.621,-44.434,141.113
1685724208.816,-16.602,-23.438,-36.621,-15.137,-95.215
1685724208.820,-30.762,-24.414,-38.086,-16.113,-160.156
1685724208.824,-27.832,-27.344,-41.016,-23.926,-110.840
1685724208.826,-26.367,-35.156,-42.480,-22.949,-48.340
1685724208.830,-43.945,-35.645,-46.387,-27.832,-114.746
1685724208.834,-38.574,-36.133,-50.781,-9.766,-45.410
1685724208.838,-33.203,-36.621,-48.340,-16.602,368.652
1685724208.842,-43.945,-27.832,-42.969,-35.645,213.379
1685724208.846,-21.484,-17.090,-40.527,-35.645,-122.559
1685724208.850,-21.973,-20.996,-41.504,-47.363,-43.945
1685724208.853,-38.574,-23.926,-34.668,-33.203,261.719
1685724208.857,-37.109,-30.273,-30.273,-18.066,130.859
1685724208.861,-21.484,-37.598,-30.273,-35.156,-157.715
1685724208.865,-17.578,-36.621,-34.180,-54.688,-142.090
1685724208.869,-21.973,-41.992,-40.039,-45.898,-133.789
1685724208.871,-31.250,-50.781,-35.645,-36.621,-118.652
1685724208.875,-7.812,-76.660,-31.250,-16.602,-119.629
1685724208.879,-7.324,-74.219,-26.855,-23.438,-130.859
1685724208.883,-46.875,-30.273,-20.508,-57.617,-99.121
1685724208.887,-32.715,-59.082,-15.137,-49.805,-73.730
1685724208.891,9.766,-166.992,-13.184,-8.789,-62.988
1685724208.895,-38.086,-180.664,-22.461,-14.160,202.148
1685724208.898,-85.938,-40.527,-35.645,-57.129,404.785
1685724208.902,-30.762,-5.859,-26.855,-44.922,71.289
1685724208.906,-34.668,10.742,-27.344,-45.898,-184.082
1685724208.910,-79.102,56.152,-36.621,-45.410,6.836
1685724208.914,-78.613,39.062,-32.227,-31.250,51.270
1685724208.916,-75.684,24.902,-35.645,-64.941,-25.391
1685724208.920,-81.055,26.855,-41.016,-83.984,-71.777
1685724208.924,-53.711,46.387,-39.062,-69.824,89.844
1685724208.928,-46.387,35.645,-34.668,-41.504,84.961
1685724208.932,-65.918,5.859,-34.180,-29.785,-145.020
1685724208.936,-47.363,-48.828,-30.273,-39.062,-82.031
1685724208.940,-34.668,-81.543,-26.855,-53.223,247.559
1685724208.943,-81.055,-15.625,-39.551,-72.754,25.391
1685724208.947,-95.215,2.441,-40.039,-47.363,-215.820
1685724208.951,-32.715,-37.109,-31.738,-38.086,-71.777
1685724208.955,-34.180,-61.523,-29.297,-52.734,86.426
1685724208.959,-67.383,-24.414,-30.273,-69.336,-96.191
1685724208.961,-73.730,24.414,-32.227,-72.754,-239.258
1685724208.965,-62.988,-15.137,-28.809,-51.758,-154.785
1685724208.969,-41.992,-42.480,-30.273,-37.109,-62.012
1685724208.973,-19.531,-28.320,-31.738,-35.156,-36.133
1685724208.977,-20.996,-81.543,-28.809,-49.805,-133.789
1685724208.981,-75.195,-62.988,-41.016,-92.285,-97.168
1685724208.985,-80.566,0.977,-36.621,-87.891,8.301
1685724208.988,-48.340,-57.129,-16.113,-26.367,7.812
1685724208.992,-25.391,-65.918,-21.484,-22.461,-61.035
1685724208.996,-58.105,44.434,-32.227,-58.105,35.645
1685724209.000,-92.773,64.453,-30.273,-70.312,28.320
1685724209.004,-64.453,36.133,-32.715,-74.219,-122.559
1685724209.021,-52.734,12.695,-31.738,-59.570,-25.879
1685724209.025,-43.457,-24.902,-31.738,-26.855,236.816
1685724209.029,-43.945,-26.367,-27.832,-26.855,157.227
1685724209.033,-64.453,-54.688,-17.578,-41.504,-187.500
1685724209.037,-68.848,-41.504,-25.879,-43.945,-179.688
1685724209.041,-53.223,25.879,-34.668,-42.480,48.340
1685724209.045,-34.180,30.273,-34.668,-58.105,81.055
1685724209.048,-34.180,20.508,-44.922,-68.848,-127.441
1685724209.052,-33.691,18.066,-45.898,-71.289,-162.109
1685724209.056,-31.738,-18.555,-28.809,-59.570,95.703
1685724209.060,-43.457,-53.223,-31.250,-41.992,-47.852
1685724209.064,-56.641,-40.527,-32.715,-53.223,-172.363
1685724209.066,-64.941,-46.875,-25.391,-51.758,-45.410
1685724209.070,-57.617,-55.664,-36.621,-45.410,-63.965
1685724209.074,-48.828,-34.180,-40.039,-43.457,-151.367
1685724209.078,-50.781,18.066,-40.039,-38.574,-201.660
1685724209.082,-14.648,-29.785,-41.504,-30.762,-20.020
1685724209.086,-13.184,-108.887,-34.668,-17.578,218.262
1685724209.090,-65.430,-25.879,-35.645,-42.480,69.336
1685724209.093,-61.035,65.918,-34.668,-69.336,-110.840
1685724209.097,-56.641,28.320,-26.855,-36.621,46.875
1685724209.101,-53.711,-44.434,-25.879,-9.277,213.867
1685724209.105,-64.941,-18.555,-30.273,-42.480,-55.664
1685724209.109,-75.684,16.602,-36.133,-66.406,-128.418
1685724209.111,-30.762,-18.066,-27.832,-41.016,41.504
1685724209.115,-16.602,-2.441,-19.043,-9.766,-36.133
1685724209.119,-55.176,11.719,-26.855,-3.906,-176.270
1685724209.123,-37.109,-19.043,-27.344,-34.180,-68.848
1685724209.127,-8.789,-30.762,-26.367,-59.082,144.531
1685724209.131,-26.855,-9.277,-24.902,-65.430,-41.992
1685724209.135,-51.270,12.695,-15.625,-45.898,-128.906
1685724209.138,-42.969,2.930,-15.625,-15.625,19.531
1685724209.142,-31.738,-10.254,-18.066,-28.320,282.227
1685724209.146,-27.832,-12.695,-21.484,-33.203,121.094
1685724209.150,-23.926,-18.066,-24.414,-34.668,-189.941
1685724209.154,-23.438,-32.227,-19.531,-22.461,-165.527
1685724209.156,-9.277,-49.805,-19.043,-7.812,-106.445
1685724209.160,-26.367,-51.270,-19.043,-9.277,-70.801
1685724209.164,-30.762,-20.996,-19.531,-21.973,-108.887
1685724209.168,-20.020,-12.207,-20.996,-34.180,-137.207
1685724209.172,-15.625,-30.273,-25.391,-18.555,-94.727
1685724209.176,1.465,-20.996,-18.066,1.465,-86.914
1685724209.180,-8.301,9.766,-23.926,-2.930,-6.836
1685724209.183,-29.297,3.418,-42.480,-30.273,186.035
1685724209.187,-21.484,-5.859,-40.527,-44.922,113.281
1685724209.191,-45.898,2.930,-25.879,-29.297,-149.414
1685724209.195,-36.621,-6.836,-15.137,2.441,-177.246
1685724209.199,-12.695,-22.949,-20.508,4.883,183.594
1685724209.201,-19.531,-20.020,-31.738,-24.902,288.086
1685724209.205,-30.273,0.977,-35.156,-48.828,-134.766
1685724209.209,-31.738,2.930,-33.691,-44.434,-176.758
1685724209.213,-12.207,8.789,-28.320,-26.367,72.266
1685724209.217,-12.207,10.742,-29.297,-25.391,19.531
1685724209.221,-29.785,1.465,-33.691,-40.527,-90.332
1685724209.225,-41.992,-1.465,-34.180,-80.078,-32.227
1685724209.228,-39.551,3.906,-33.691,-60.547,170.898
1685724209.232,-29.297,7.812,-36.621,-25.879,151.855
1685724209.236,-7.324,7.324,-42.969,-23.438,-75.684
1685724209.240,-21.973,-0.488,-43.457,-29.785,-87.891
1685724209.244,-53.711,-4.395,-42.969,-41.992,-44.922
1685724209.249,-12.207,12.695,-42.969,-43.457,-176.758
1685724209.253,10.254,17.090,-50.293,-31.738,-214.844
1685724209.257,-15.137,13.672,-47.363,-18.555,-104.980
1685724209.261,-39.062,1.953,-34.668,-26.855,-101.562
1685724209.265,-27.832,-1.465,-34.180,-61.523,-230.469
1685724209.269,-12.207,7.812,-44.434,-62.988,-245.117
1685724209.273,-15.625,-7.812,-46.875,-19.531,66.406
1685724209.276,-17.578,-36.621,-33.691,-17.090,233.398
1685724209.280,-12.207,-16.602,-29.297,-24.414,-105.957
1685724209.284,-25.391,13.672,-36.621,-39.062,-202.637
1685724209.288,-44.434,4.883,-40.039,-48.828,-104.980
1685724209.292,-34.668,-9.277,-30.762,-21.973,-47.363
1685724209.291,-29.297,-14.648,-32.227,-8.301,-6.348
1685724209.295,-25.391,-11.719,-44.922,-16.113,-9.766
1685724209.299,-38.086,-19.043,-47.852,-25.391,-38.574
1685724209.303,-40.039,-39.551,-37.109,-22.949,-213.867
1685724209.307,-21.973,-19.043,-14.160,-11.719,-273.926
1685724209.311,-25.879,10.742,-12.695,-13.184,-2.441
1685724209.315,-25.879,1.465,-30.762,-21.973,534.668
1685724209.318,-46.875,-15.137,-33.203,-37.109,588.379
1685724209.322,-61.523,-18.555,-26.855,-42.480,-65.430
1685724209.326,-22.461,-3.418,-29.297,-25.391,-264.160
1685724209.330,-21.484,2.441,-31.738,-16.602,-137.207
1685724209.334,-15.137,-16.113,-33.203,-19.043,-142.578
1685724209.337,-15.137,-21.484,-22.949,-39.062,-202.148
1685724209.341,-27.344,-15.625,-17.578,-51.758,-145.020
1685724209.345,-22.461,-18.066,-22.949,-36.133,-87.402
1685724209.349,-22.461,-22.461,-29.297,-24.414,-146.484
1685724209.353,-10.742,-20.996,-28.320,-23.926,-161.621
1685724209.357,-18.066,-18.066,-27.832,-31.250,81.055
1685724209.361,-31.250,-14.648,-26.855,-51.270,191.895
1685724209.364,-25.879,-19.531,-24.902,-35.645,-146.973
1685724209.368,-33.203,-23.926,-28.809,-16.113,-169.922
1685724209.372,-35.645,-13.184,-28.809,-17.090,50.293
1685724209.376,-36.133,-8.789,-25.391,-23.926,-22.949
1685724209.380,-76.172,-27.344,-20.508,-41.992,-193.359
1685724209.396,-62.500,-28.809,-29.785,-50.781,-127.441
1685724209.400,-31.738,-4.883,-29.785,-26.367,133.301
1685724209.404,-33.691,-8.301,-25.391,-18.066,80.566
1685724209.408,-38.086,-48.828,-27.832,-41.992,-171.875
1685724209.412,-25.391,-60.547,-24.414,-38.574,-144.531
1685724209.416,-44.922,-43.945,-20.020,-38.574,85.449
1685724209.420,-79.102,-18.066,-23.926,-37.109,26.367
1685724209.423,-69.824,-9.766,-32.715,-23.926,-90.820
1685724209.427,-48.828,-25.391,-29.785,-34.668,6.836
1685724209.431,-45.410,-29.785,-34.180,-62.012,80.078
1685724209.435,-52.734,-29.785,-51.758,-71.289,-18.555
1685724209.439,-49.805,-18.555,-43.945,-51.270,-65.430
1685724209.441,-59.082,-0.977,-28.809,-33.691,131.348
1685724209.445,-67.871,1.953,-27.832,-45.410,334.961
1685724209.449,-50.293,-5.371,-43.457,-76.660,37.598
1685724209.453,-38.574,-49.316,-38.574,-62.012,-146.484
1685724209.457,-42.480,-78.125,-19.531,-19.531,-13.184
1685724209.461,-34.668,-16.602,-33.203,-8.789,129.395
1685724209.465,-36.621,23.926,-37.109,-27.832,103.516
1685724209.468,-48.828,16.113,-26.855,-57.617,-21.484
1685724209.472,-27.832,-12.695,-10.254,-61.035,45.898
1685724209.476,-29.297,-31.250,-7.324,-42.969,305.176
1685724209.480,-58.594,-26.367,-36.621,-38.574,-20.020
1685724209.484,-49.805,-23.926,-34.180,-23.438,-165.039
1685724209.486,-20.508,-37.109,-8.301,-11.719,124.023
1685724209.490,-41.504,-38.574,-18.555,-49.805,-96.191
1685724209.494,-58.594,-13.672,-28.809,-70.312,-306.641
1685724209.498,-47.363,-3.418,-20.020,-28.809,-150.391
1685724209.502,-57.129,-16.113,-10.254,-10.742,0.977
1685724209.506,-55.664,-28.809,-18.555,-32.715,-38.086
1685724209.510,-38.086,-33.203,-30.762,-48.340,-93.262
1685724209.513,-28.320,-29.297,-27.832,-40.039,-110.840
1685724209.517,-19.043,-35.156,-24.902,-15.625,223.145
1685724209.521,-43.945,-44.922,-21.484,-25.391,207.520
1685724209.525,-62.012,-33.691,-14.648,-38.086,-125.977
1685724209.529,-39.551,-23.438,-16.602,-42.969,-95.703
1685724209.531,-35.156,-21.484,-18.555,-44.922,-71.289
1685724209.535,-31.738,-23.438,-12.695,-16.113,-135.742
1685724209.539,-39.551,-32.715,-15.137,-11.230,-138.184
1685724209.543,-57.129,-27.832,-20.508,-23.438,-88.867
1685724209.547,-51.270,-16.602,-20.996,-37.109,-131.836
1685724209.551,-41.016,-20.020,-23.438,-47.363,-147.461
1685724209.555,-20.996,-17.578,-30.762,-22.461,-13.184
1685724209.558,-14.648,-14.648,-24.902,-5.371,179.199
1685724209.562,-30.273,-28.320,-20.996,-12.695,253.418
1685724209.566,-28.320,-35.156,-28.320,-41.992,-83.984
1685724209.570,-20.996,-21.973,-24.414,-44.434,-208.008
1685724209.574,-26.367,-27.832,-22.461,-26.367,18.555
1685724209.576,-28.809,-47.852,-16.602,-10.254,125.977
1685724209.580,-41.504,-28.809,-9.277,-12.695,4.883
1685724209.584,-43.945,-28.809,-21.484,-37.109,-139.160
1685724209.588,-39.062,-51.270,-34.668,-53.223,83.008
1685724209.592,-36.621,-23.438,-31.250,-33.203,73.730
1685724209.596,-37.109,-11.719,-25.879,-7.324,-92.285
1685724209.600,-41.016,-46.875,-36.621,-33.691,41.016
1685724209.603,-47.363,-38.574,-35.645,-65.918,227.051
1685724209.607,-47.363,-23.926,-23.926,-62.500,-25.879
1685724209.611,-45.410,-23.438,-21.484,-47.363,-271.973
1685724209.615,-50.293,-33.691,-15.137,-38.086,-115.723
1685724209.619,-47.363,-35.156,-21.973,-30.273,-24.414
1685724209.622,-36.133,-33.691,-37.109,-47.852,-107.422
1685724209.626,-58.594,-54.199,-27.832,-48.828,-166.992
1685724209.630,-55.176,-41.016,-21.973,-42.969,-23.926
1685724209.634,-40.039,-21.484,-18.555,-34.668,48.828
1685724209.638,-62.500,-15.137,-12.695,-20.996,-36.133
1685724209.642,-50.781,-11.230,-9.766,-24.902,-58.594
1685724209.646,-35.645,-14.648,-11.719,-38.086,95.215
1685724209.649,-33.691,-30.273,-14.160,-36.133,172.363
1685724209.653,-24.902,-24.902,-16.113,-15.137,-95.215
1685724209.657,-28.809,-20.996,-19.043,-4.395,-98.145
1685724209.661,-42.480,-39.062,-21.484,-32.227,-7.324
1685724209.665,-43.457,-32.227,-30.273,-71.289,-118.652
1685724209.666,-22.461,-20.996,-33.203,-52.734,-205.566
1685724209.670,-12.695,-23.926,-27.832,-2.930,-108.887
1685724209.674,-34.668,-10.742,-25.391,-3.418,208.008
1685724209.678,-20.020,-9.766,-27.832,-27.344,126.465
1685724209.682,-33.691,-42.969,-43.457,-34.668,-70.801
1685724209.686,-51.270,-45.410,-29.297,-13.672,-69.824
1685724209.690,-26.367,-26.367,-29.785,4.883,318.848
1685724209.693,-25.879,-20.020,-49.316,-4.395,343.262
1685724209.697,-25.391,-38.574,-27.832,-29.297,-130.371
1685724209.701,-24.414,-49.805,-6.836,-30.762,-222.168
1685724209.705,-36.621,-14.160,-16.602,-27.832,-134.277
1685724209.709,-26.367,15.137,-31.250,-41.992,-133.301
1685724209.711,-34.180,2.930,-31.738,-51.758,-134.277
1685724209.715,-46.387,-17.578,-25.879,-61.035,-82.520
1685724209.719,-31.738,-14.648,-25.879,-74.707,-133.789
1685724209.723,-54.688,-2.930,-27.344,-64.941,-206.055
1685724209.727,-31.738,-1.953,-27.832,-45.898,-178.711
1685724209.731,-19.043,-8.789,-25.879,-27.832,43.457
1685724209.735,-47.363,-26.855,-24.414,-10.742,137.695
1685724209.738,-60.547,-43.945,-32.227,-30.762,2.441
1685724209.742,-59.082,-36.133,-37.598,-53.711,-105.469
1685724209.746,-49.805,-22.461,-28.320,-36.621,75.195
1685724209.750,-49.316,-24.902,-21.484,-12.207,300.293
1685724209.754,-19.043,-46.875,-24.902,-12.207,29.785
1685724209.771,-22.461,-41.016,-22.949,-46.387,-45.898
1685724209.775,-53.223,-8.789,-20.996,-58.594,83.008
1685724209.779,-49.316,0.000,-24.414,-38.574,-75.195
1685724209.783,-34.668,-10.742,-20.996,-20.508,-192.871
1685724209.787,-34.180,-22.949,-18.066,-23.926,-87.402
1685724209.791,-38.574,-23.438,-22.949,-36.133,27.344
1685724209.795,-40.527,-26.855,-29.297,-37.109,-30.762
1685724209.798,-15.625,-29.785,-34.668,-7.812,-165.039
1685724209.802,-4.883,-36.133,-28.320,11.719,-106.934
1685724209.806,-13.184,-33.203,-22.949,-7.812,313.965
1685724209.810,-19.531,-14.160,-19.531,-34.668,114.746
1685724209.814,-23.438,-22.949,-27.344,-45.898,-288.574
1685724209.816,-29.297,-36.621,-32.715,-33.203,-207.031
1685724209.820,-23.438,-20.508,-36.133,-17.578,-133.301
1685724209.824,-18.066,-18.066,-32.715,-19.531,-125.488
1685724209.828,-50.293,-37.598,-19.531,-32.715,-112.793
1685724209.832,-58.105,-37.598,-21.973,-46.387,-135.742
1685724209.836,-51.270,-20.020,-27.832,-40.527,-107.422
1685724209.840,-65.430,-23.926,-21.973,-20.996,8.789
1685724209.843,-61.523,-39.062,-18.066,-7.324,-8.789
1685724209.847,-46.387,-39.551,-24.414,-26.855,54.199
1685724209.851,-38.086,-14.648,-35.645,-59.570,139.160
1685724209.855,-28.809,-1.953,-32.715,-54.199,-145.020
1685724209.859,-37.598,-21.484,-22.461,-32.227,-110.840
1685724209.861,-47.363,-26.367,-17.090,-7.812,262.695
1685724209.865,-26.367,-19.531,-12.207,-12.207,135.742
1685724209.869,-14.648,-14.160,-13.672,-29.297,-199.707
1685724209.873,-33.691,-19.531,-20.020,-34.180,-188.965
1685724209.877,-27.344,-42.480,-22.949,-21.973,148.438
1685724209.881,-19.043,-42.969,-25.879,-16.602,163.574
1685724209.885,-42.969,-20.508,-36.133,-35.156,-38.574
1685724209.888,-47.363,-15.137,-36.133,-53.223,-124.023
1685724209.892,-31.738,-27.832,-34.668,-43.945,68.359
1685724209.896,-25.879,-29.785,-35.156,-33.691,11.230
1685724209.900,-26.855,-18.066,-28.809,-30.762,-175.781
1685724209.904,-43.457,-14.160,-33.203,-46.387,-142.578
1685724209.907,-34.668,-16.602,-37.109,-45.410,-184.082
1685724209.911,-15.137,-24.414,-33.203,-42.969,-178.223
1685724209.915,-6.348,-38.086,-21.484,-38.086,-32.715
1685724209.919,-3.906,-48.340,-17.578,-15.625,40.527
1685724209.923,-25.879,-29.297,-27.344,-19.531,52.734
1685724209.927,-34.668,15.137,-18.555,-22.949,-1.953
1685724209.931,-34.180,14.648,-15.625,-29.785,-91.797
1685724209.934,-63.965,-29.297,-34.668,-41.016,45.410
1685724209.938,-75.195,-44.434,-35.156,-25.879,260.254
1685724209.942,-57.617,-36.621,-27.344,-26.367,16.602
1685724209.946,-52.246,-35.645,-27.832,-44.922,-135.254
1685724209.950,-37.109,-41.016,-34.180,-60.059,-65.918
1685724209.952,-15.625,-45.410,-32.715,-40.039,-10.254
1685724209.956,-13.184,-44.434,-21.484,-14.160,-56.152
1685724209.960,-29.297,-32.715,-24.414,-25.879,-111.816
1685724209.964,-29.297,-21.484,-32.227,-48.828,62.500
1685724209.968,-32.227,-20.020,-23.438,-53.711,-17.090
1685724209.972,-43.945,-15.625,-28.809,-57.129,-148.926
1685724209.976,-35.645,-7.812,-27.832,-34.668,-29.297
1685724209.979,-34.668,-11.719,-18.555,-18.066,366.211
1685724209.983,-42.480,-22.949,-19.043,-49.316,228.516
1685724209.987,-29.785,-24.902,-21.484,-56.641,-225.098
1685724209.991,-33.691,-19.043,-27.344,-35.156,-207.520
1685724209.995,-40.039,-24.902,-37.109,-27.344,-119.629
1685724209.996,-30.762,-46.387,-34.668,-10.254,-110.352
1685724210.000,-39.551,-29.785,-27.832,-22.461,-151.367
1685724210.004,-56.641,-7.324,-27.832,-52.734,-158.691
1685724210.008,-52.734,-17.578,-32.227,-54.688,-145.508
1685724210.012,-41.992,-26.367,-29.297,-26.855,-107.910
1685724210.016,-45.410,-35.156,-23.438,-16.602,-54.199
1685724210.020,-34.668,-39.551,-32.715,-31.250,218.262
1685724210.023,-30.762,-21.484,-36.133,-34.180,442.871
1685724210.027,-42.969,-8.789,-31.738,-40.527,-29.297
1685724210.031,-56.152,-15.625,-33.203,-36.621,-196.777
1685724210.035,-46.875,-20.508,-31.738,-20.508,-20.020
1685724210.039,-35.645,-19.043,-20.508,-24.414,-59.082
1685724210.041,-34.180,-28.809,-18.555,-51.758,-172.852
1685724210.045,-38.574,-41.016,-27.832,-58.105,-162.109
1685724210.049,-42.480,-28.320,-29.297,-35.645,147.461
1685724210.053,-29.785,-7.324,-40.527,-14.648,92.285
1685724210.057,-17.090,0.000,-43.945,-14.160,-125.488
1685724210.061,-33.691,-19.043,-37.598,-38.574,-37.598
1685724210.065,-34.668,-34.668,-38.574,-42.969,217.773
1685724210.068,-26.367,-20.508,-34.668,-21.484,40.527
1685724210.072,-39.062,-15.137,-37.109,-12.207,-191.895
1685724210.076,-46.387,-20.508,-39.551,-20.020,-44.922
1685724210.080,-57.129,-21.973,-34.180,-31.250,186.035
1685724210.084,-45.898,-35.156,-31.738,-38.086,-129.395
1685724210.086,-13.672,-64.453,-30.273,-22.461,-310.059
1685724210.090,-7.812,-57.129,-25.879,-24.902,-120.117
1685724210.094,-34.180,-12.207,-22.461,-40.039,-28.809
1685724210.098,-57.617,10.742,-19.043,-43.945,-125.488
1685724210.102,-54.199,3.418,-12.695,-41.504,-254.395
1685724210.106,-33.203,-8.301,-20.020,-26.367,-45.898
1685724210.110,-33.691,-12.695,-31.250,-16.602,138.184
1685724210.113,-29.785,-17.578,-31.250,-26.367,-8.789
1685724210.117,-20.020,-19.531,-29.297,-41.992,-130.859
1685724210.121,-33.203,-19.043,-25.391,-54.199,-7.812
1685724210.125,-34.180,-21.484,-23.926,-49.805,-11.719
1685724210.129,-21.484,-24.414,-28.320,-26.367,-106.445
1685724210.146,-40.527,-30.273,-34.668,-27.832,28.809
1685724210.150,-67.383,-35.645,-33.203,-39.551,245.605
1685724210.154,-41.016,-25.879,-26.367,-42.480,124.023
1685724210.158,-21.973,-21.484,-29.785,-50.781,-211.426
1685724210.162,-21.973,-24.414,-36.133,-34.668,-107.910
1685724210.166,-43.945,-24.902,-40.527,-21.484,92.773
1685724210.170,-62.988,-29.785,-37.109,-44.434,1.465
1685724210.173,-41.016,-26.855,-30.273,-47.363,-197.266
1685724210.177,-13.672,-20.996,-30.273,-35.645,-125.488
1685724210.181,-16.113,-34.668,-22.949,-22.461,240.723
1685724210.185,-34.180,-41.504,-20.020,-23.438,142.578
1685724210.189,-34.180,-30.273,-22.461,-31.250,-71.777
1685724210.192,-39.062,-22.461,-14.648,-44.922,-111.816
1685724210.196,-43.945,-24.902,-17.090,-41.016,-149.414
1685724210.200,-28.320,-33.691,-21.484,-19.531,-61.523
1685724210.204,-13.672,-24.414,-16.113,-16.113,-35.645
1685724210.208,-27.832,-10.254,-28.809,-27.832,-42.480
1685724210.212,-34.668,-7.812,-41.992,-31.738,8.301
1685724210.216,-31.250,-13.672,-25.391,-26.855,-62.988
1685724210.219,-36.621,-20.020,-21.484,-16.602,-141.113
1685724210.223,-26.367,-27.344,-24.414,-4.395,87.891
1685724210.227,-24.902,-28.320,-19.531,-8.789,257.812
1685724210.231,-42.969,-26.367,-27.832,-33.691,-127.930
1685724210.235,-45.410,-27.832,-27.832,-47.363,-192.383
1685724210.236,-32.715,-23.926,-20.508,-30.762,31.250
1685724210.240,-33.691,-32.715,-16.602,-10.254,33.203
1685724210.244,-46.875,-41.016,-15.625,-7.812,-74.707
1685724210.248,-36.133,-24.414,-22.461,-31.738,-91.797
1685724210.252,-30.273,-2.930,-32.227,-53.711,11.719
1685724210.256,-36.133,-14.648,-37.598,-28.809,69.336
1685724210.260,-34.668,-32.227,-25.879,-1.465,87.402
1685724210.263,-38.574,-16.113,-11.719,-16.113,28.809
1685724210.267,-33.203,-4.883,-12.207,-35.645,289.551
1685724210.271,-32.227,-16.113,-22.949,-42.969,314.941
1685724210.275,-31.250,-29.297,-26.855,-30.762,-131.348
1685724210.279,-22.461,-35.156,-26.367,-2.441,-142.578
1685724210.281,-34.180,-30.273,-29.785,-3.906,-11.230
1685724210.285,-52.734,-25.879,-34.668,-36.133,-152.344
1685724210.289,-41.504,-20.508,-28.809,-41.504,-235.352
1685724210.293,-28.320,-21.973,-30.762,-30.273,-150.391
1685724210.297,-29.785,-26.367,-35.156,-20.020,-58.594
1685724210.301,-40.527,-27.344,-28.809,-6.348,20.996
1685724210.305,-46.875,-29.785,-23.926,-20.508,-66.406
1685724210.308,-38.086,-29.297,-30.273,-37.598,43.945
1685724210.312,-31.738,-30.762,-35.156,-37.598,350.586
1685724210.316,-23.926,-28.809,-32.715,-13.184,47.852
1685724210.320,-23.926,-24.902,-36.133,-2.930,-91.309
1685724210.324,-28.320,-17.090,-35.156,-21.484,11.230
1685724210.326,-28.320,-10.254,-25.879,-33.203,-79.590
1685724210.330,-20.996,-12.207,-23.926,-34.668,-177.734
1685724210.334,-7.812,-18.066,-20.996,-20.508,-98.145
1685724210.338,-10.742,-12.207,-12.207,-1.465,184.570
1685724210.342,-28.320,-13.184,-24.414,-24.902,46.875
1685724210.346,-28.320,-18.555,-39.062,-59.570,-248.535
1685724210.350,-24.902,-18.066,-29.297,-52.734,-134.766
1685724210.353,-39.062,-25.391,-22.949,-32.715,220.215
1685724210.357,-29.297,-23.438,-29.785,-27.832,104.004
1685724210.361,-8.789,-17.090,-33.691,-31.738,-147.949
1685724210.365,-14.648,-20.508,-32.227,-35.156,-106.934
1685724210.369,-47.363,-21.484,-28.320,-53.223,-13.184
1685724210.371,-42.480,-17.090,-19.043,-34.668,-96.680
1685724210.375,-25.391,-20.020,-20.020,-13.672,-131.348
1685724210.379,-32.715,-29.297,-27.832,-49.805,-82.031
1685724210.383,-39.551,-37.109,-29.785,-58.105,-111.328
1685724210.387,-24.902,-42.480,-24.414,-41.504,-145.020
1685724210.391,-6.348,-37.109,-21.484,-28.809,-97.168
1685724210.395,-28.809,-36.621,-22.949,-16.113,152.344
1685724210.398,-53.223,-40.527,-20.508,-25.391,300.781
1685724210.402,-45.898,-28.809,-19.043,-43.457,-122.070
1685724210.406,-28.320,-30.273,-27.344,-48.828,-291.992
1685724210.410,-38.574,-29.297,-29.785,-30.273,-110.352
1685724210.414,-36.621,-31.250,-28.809,-14.648,-27.344
1685724210.432,-20.508,-44.434,-40.039,-11.719,-1.953
1685724210.436,-33.203,-35.156,-48.340,-21.973,-37.109
1685724210.440,-39.551,-24.414,-35.645,-47.363,82.520
1685724210.444,-31.250,-23.438,-15.625,-36.133,47.363
1685724210.448,-20.508,-27.832,-12.207,-16.602,-155.273
1685724210.452,-25.879,-42.480,-22.461,-17.090,-30.273
1685724210.456,-40.039,-45.410,-24.414,-38.574,267.578
1685724210.459,-34.668,-41.016,-28.320,-47.852,-25.879
1685724210.463,-21.484,-33.203,-29.297,-22.949,-306.641
1685724210.467,-25.879,-18.066,-26.367,-10.742,-174.805
1685724210.471,-36.133,-16.113,-30.762,-22.949,-45.898
1685724210.475,-39.062,-30.762,-28.320,-46.387,-111.328
1685724210.461,-26.367,-41.504,-22.461,-49.316,-192.871
1685724210.465,-20.508,-39.062,-20.020,-30.762,-119.629
1685724210.469,-25.879,-28.320,-18.066,-16.602,11.719
1685724210.473,-0.488,-14.160,-25.879,-22.949,60.547
1685724210.477,-7.812,-15.137,-34.180,-40.527,-37.598
1685724210.481,-43.945,-21.484,-41.504,-46.387,50.293
1685724210.485,-45.898,-34.180,-38.574,-42.969,98.633
1685724210.488,-38.086,-49.316,-30.762,-28.809,-45.410
1685724210.492,-39.551,-44.922,-33.691,-21.973,-85.449
1685724210.496,-44.434,-29.785,-34.668,-32.227,148.438
1685724210.500,-42.969,-21.973,-38.086,-50.781,312.988
1685724210.504,-37.598,-33.203,-47.852,-57.617,-74.219
1685724210.521,-36.133,-46.387,-43.945,-57.129,-125.488
1685724210.525,-39.062,-26.855,-37.598,-52.734,160.156
1685724210.529,-35.645,-13.184,-26.855,-39.551,20.508
1685724210.533,-32.227,-14.160,-6.836,-44.922,-224.609
1685724210.537,-40.039,-5.371,-0.488,-52.246,-224.121
1685724210.541,-41.016,-10.742,-13.184,-35.645,-81.055
1685724210.545,-51.270,-25.879,-18.066,-29.297,0.000
1685724210.548,-56.641,-36.621,-15.625,-40.039,-55.176
1685724210.552,-54.688,-51.758,-35.645,-61.523,-118.652
1685724210.556,-41.504,-48.340,-32.715,-50.781,107.422
1685724210.560,-27.832,-32.227,-8.789,-18.066,69.336
1685724210.564,-20.020,-33.691,-27.344,4.883,-148.438
1685724210.566,-34.668,-60.547,-49.805,-19.043,-137.207
1685724210.570,-45.898,-34.668,-21.973,-56.152,-119.629
1685724210.574,-40.039,5.859,-24.414,-58.105,-147.949
1685724210.578,-54.199,-20.508,-54.688,-41.992,-181.152
1685724210.582,-37.109,-44.434,-46.387,-15.137,-66.406
1685724210.586,-23.438,-27.344,-15.137,-24.414,67.871
1685724210.590,-37.109,-33.203,-10.254,-51.758,62.012
1685724210.593,-18.555,-42.969,-20.996,-38.086,-39.551
1685724210.597,-41.504,-37.598,-26.367,-29.785,109.863
1685724210.601,-58.105,-41.504,-39.551,-41.016,367.676
1685724210.605,-40.039,-38.574,-25.879,-24.414,40.527
1685724210.609,-34.668,-38.086,-5.371,-47.363,-192.871
1685724210.611,-39.551,-31.250,-19.531,-65.918,25.879
1685724210.615,-45.410,-8.789,-36.133,-18.555,-35.156
1685724210.619,-43.945,-7.324,-47.852,0.000,-166.016
1685724210.623,-25.879,-32.715,-42.480,1.465,-104.980
1685724210.627,-31.738,-31.250,-21.484,-15.137,-43.945
1685724210.631,-62.500,-20.020,-21.484,-65.918,-15.625
1685724210.635,-62.988,-20.508,-27.832,-48.828,-12.207
1685724210.638,-32.227,-19.531,-29.297,-9.277,10.742
1685724210.642,-13.672,-26.855,-28.809,-16.113,270.508
1685724210.646,-31.250,-18.555,-35.156,-25.879,100.586
1685724210.650,-32.227,-16.113,-23.438,-33.203,-183.105
1685724210.654,-29.785,-41.504,-13.184,-36.621,-126.953
1685724210.656,-22.949,-46.387,-6.348,-1.465,-44.922
1685724210.660,-34.180,-29.785,-15.625,9.277,-105.469
1685724210.664,-49.805,-27.344,-26.367,-23.926,-122.559
1685724210.668,-17.090,-22.949,-8.301,-29.297,-106.934
1685724210.672,8.301,-4.883,-0.977,-12.695,-137.695
1685724210.676,-22.949,-11.230,-20.508,-19.531,-20.020
1685724210.680,-26.855,-18.555,-29.297,-17.090,36.621
1685724210.683,-23.438,-24.414,-43.457,-37.109,55.664
1685724210.687,-46.387,-26.367,-46.875,-49.316,115.234
1685724210.691,-38.086,-21.973,-54.688,-37.598,-149.414
1685724210.695,-32.715,-31.738,-30.273,-33.203,-228.516
1685724210.699,-24.414,-27.832,1.953,0.977,9.277
1685724210.702,-39.062,-19.531,0.000,6.348,80.078
1685724210.706,-46.387,-19.531,-10.254,-33.691,-70.801
1685724210.710,-17.090,-14.160,-24.902,-47.363,-123.535
1685724210.714,-22.461,-20.508,-34.180,-24.902,137.695
1685724210.718,-44.434,-16.113,-22.461,-13.184,169.922
1685724210.722,-43.457,-20.020,-13.184,-25.879,-71.777
1685724210.726,-25.391,-30.762,-13.672,-40.039,-59.570
1685724210.729,-20.020,-23.438,-15.137,-44.434,141.602
1685724210.733,-56.641,-29.297,-34.668,-35.156,37.598
1685724210.737,-46.875,-43.457,-30.273,-6.836,-125.000
1685724210.741,-21.973,-52.246,-19.043,-12.695,-122.070
1685724210.745,-20.508,-37.598,-22.461,-29.297,-114.746
1685724210.746,-14.648,-14.648,-18.555,-14.648,-166.016
1685724210.750,-33.691,-21.484,-34.180,-25.879,-196.777
1685724210.754,-20.508,-20.508,-33.691,-21.973,-77.148
1685724210.758,-8.301,-10.254,-16.113,-16.113,19.531
1685724210.762,-55.664,-20.020,-18.066,-38.086,-62.988
1685724210.766,-70.312,-32.227,-24.902,-70.801,-151.367
1685724210.770,-42.969,-22.949,-28.320,-49.805,115.723
1685724210.773,-16.113,-15.625,-33.203,-13.184,449.219
1685724210.777,-14.160,-29.297,-49.316,-27.832,84.473
1685724210.781,-35.156,-39.551,-48.340,-28.320,-146.973
1685724210.785,-39.062,-34.180,-30.273,-38.574,-88.379
1685724210.789,-24.902,-29.785,-15.137,-39.551,-131.348
1685724210.791,-16.113,-12.695,-19.043,-17.090,-73.242
1685724210.795,-30.273,-2.441,-24.902,-21.484,-47.852
1685724210.799,-32.227,-9.766,-20.508,-21.484,115.723
1685724210.803,-32.227,-20.508,-9.277,-22.461,-33.203
1685724210.807,-50.293,-33.203,-19.043,-39.551,-315.430
1685724210.811,-32.715,-38.574,-34.180,-22.461,-46.387
1685724210.815,-28.809,-29.297,-33.203,-8.789,377.441
1685724210.818,-46.387,-16.113,-30.762,-18.555,102.539
1685724210.822,-49.805,-13.184,-33.203,-32.227,-268.066
1685724210.826,-23.438,-22.461,-27.344,-37.109,-155.273
1685724210.830,-18.066,-25.391,-27.832,-26.855,103.516
1685724210.834,-20.996,-17.090,-29.297,-10.742,8.789
1685724210.851,-13.672,-27.832,-14.160,-4.883,-135.742
1685724210.855,-14.648,-28.320,-25.879,-27.832,-78.125
1685724210.859,-26.855,-12.695,-36.621,-39.551,-78.613
1685724210.863,-28.320,-13.184,-18.555,-26.855,-132.324
1685724210.867,-43.457,-25.391,-20.996,-19.043,-99.121
1685724210.871,-41.016,-22.461,-22.461,-26.367,60.547
1685724210.875,-16.602,-17.090,-12.695,-47.852,101.562
1685724210.878,-27.344,-29.785,-24.414,-49.805,-139.648
1685724210.882,-48.340,-37.109,-13.184,-25.391,-129.395
1685724210.886,-53.711,-40.527,-13.184,-11.230,107.422
1685724210.890,-44.434,-32.715,-45.410,-20.996,190.430
1685724210.894,-56.152,-26.855,-41.992,-48.828,-115.234
1685724210.896,-44.434,-24.414,-31.250,-55.664,-201.172
1685724210.900,-13.184,-15.137,-24.414,-27.832,73.730
1685724210.904,-33.691,-19.531,-19.043,-1.953,69.824
1685724210.908,-41.504,-25.391,-32.227,-0.488,-142.578
1685724210.912,-34.180,-29.297,-19.043,-21.484,-159.180
1685724210.916,-38.574,-41.992,-10.742,-34.668,-12.207
1685724210.920,-25.391,-32.715,-20.508,-21.484,6.348
1685724210.923,-9.766,-16.602,-15.137,-7.812,-117.676
1685724210.927,-26.855,-25.879,-26.855,-11.719,-37.598
1685724210.931,-36.621,-33.203,-36.133,-18.555,218.750
1685724210.935,-30.762,-29.785,-27.344,-37.598,18.066
1685724210.939,-17.090,-28.809,-25.879,-36.621,-173.340
1685724210.956,-20.020,-26.367,-28.809,-20.020,-90.332
1685724210.960,-49.805,-23.926,-33.203,-17.578,7.812
1685724210.964,-30.762,-21.973,-37.598,-26.855,-91.797
1685724210.968,-9.766,-14.160,-27.832,-44.922,-221.191
1685724210.972,-35.156,-29.297,-11.230,-26.367,-170.410
1685724210.976,-41.992,-46.387,-17.090,-8.789,61.523
1685724210.980,-38.086,-31.250,-30.762,-33.691,172.852
1685724210.983,-27.344,-20.996,-30.762,-45.410,-54.688
1685724210.987,-20.508,-17.090,-23.438,-50.293,-2.441
1685724210.991,-38.086,-21.484,-33.203,-48.828,183.594
1685724210.995,-35.645,-22.949,-35.645,-37.109,-92.773
1685724210.999,-27.344,-19.043,-32.227,-23.438,-104.980
1685724210.987,-36.621,-31.738,-44.434,-20.020,156.250
1685724210.991,-46.875,-32.227,-32.227,-31.250,63.477
1685724210.995,-53.711,-34.668,-30.762,-42.969,-180.664
1685724210.999,-28.320,-21.484,-17.578,-9.277,-153.809
1685724211.003,-26.855,-12.695,2.930,7.812,40.039
1685724211.007,-52.246,-23.438,-27.344,-31.738,10.254
1685724211.011,-49.805,-34.668,-54.199,-53.711,-79.590
1685724211.014,-39.062,-33.691,-42.480,-52.246,-44.434
1685724211.018,-24.414,-20.996,-37.598,-30.273,53.711
1685724211.022,-40.039,-26.855,-44.434,-27.344,-30.273
1685724211.026,-42.969,-31.250,-43.457,-43.945,-150.879
1685724211.030,-43.457,-28.320,-26.855,-34.668,-109.863
1685724211.031,-44.434,-27.832,-16.602,-24.414,179.199
1685724211.035,-37.109,-31.738,-22.461,-42.480,64.941
1685724211.039,-32.227,-24.902,-45.410,-24.902,-112.793
1685724211.043,-26.855,-20.508,-51.270,-22.461,-33.691
1685724211.047,-28.320,-22.461,-38.574,-45.898,-24.414
1685724211.051,-32.715,-20.996,-30.273,-47.363,-11.719
1685724211.055,-40.527,-21.484,-20.020,-35.156,-58.105
1685724211.058,-52.246,-20.508,-21.484,-19.043,62.988
1685724211.062,-32.715,-24.414,-28.320,-20.508,373.535
1685724211.066,-29.297,-32.715,-21.484,-31.738,33.691
1685724211.070,-42.480,-27.344,-20.508,-32.227,-269.531
1685724211.074,-41.992,-26.367,-31.738,-41.504,-137.207
1685724211.076,-45.898,-25.391,-33.691,-28.320,-21.484
1685724211.080,-36.621,-27.344,-35.156,-19.531,-79.102
1685724211.084,-32.227,-42.969,-50.293,-42.969,-156.738
1685724211.088,-30.762,-41.992,-48.828,-45.898,-15.137
1685724211.092,-29.785,-23.926,-32.715,-23.926,-39.551
1685724211.096,-25.391,-20.508,-25.391,-19.531,-30.762
1685724211.100,-26.367,-21.973,-31.250,-28.320,46.875
1685724211.103,-29.297,-20.508,-42.969,-35.645,338.379
1685724211.107,-35.156,-25.391,-35.645,-47.852,207.031
1685724211.111,-51.758,-26.855,-23.926,-57.617,-217.285
1685724211.115,-40.039,-23.438,-18.066,-27.344,-149.902
1685724211.119,-21.973,-20.508,-14.160,-9.277,1.953
1685724211.136,-18.066,-20.508,-30.273,-31.738,-87.891
1685724211.140,-23.438,-26.855,-39.551,-47.852,-220.215
1685724211.144,-20.508,-20.996,-22.461,-42.969,-177.734
1685724211.148,-16.113,-16.602,-10.254,-32.227,-66.895
1685724211.152,-14.160,-19.531,-8.301,-15.137,-45.410
1685724211.156,-43.457,-17.578,-17.090,-17.090,-9.766
1685724211.160,-56.152,-28.320,-39.062,-35.156,104.492
1685724211.163,-37.598,-30.762,-34.668,-38.574,182.129
1685724211.167,-22.949,-17.578,-27.832,-25.391,-34.180
1685724211.171,-35.156,-16.602,-41.016,-19.531,-78.613
1685724211.175,-66.895,-21.973,-45.410,-38.086,73.242
1685724211.179,-46.875,-29.785,-34.180,-45.898,-38.086
1685724211.168,-19.531,-28.809,-30.762,-39.062,-163.086
1685724211.172,-40.527,-29.297,-31.738,-13.184,-135.254
1685724211.176,-34.180,-31.250,-19.043,-12.207,47.852
1685724211.180,-33.203,-28.320,-23.926,-40.527,-6.836
1685724211.184,-50.293,-17.090,-41.992,-70.801,-237.305
1685724211.188,-38.086,-1.465,-46.387,-62.500,-161.621
1685724211.192,-20.996,5.371,-43.457,-26.855,78.613
1685724211.195,-33.691,-8.789,-43.457,-31.738,37.109
1685724211.199,-23.926,-14.160,-51.758,-50.293,-112.793
1685724211.203,-24.902,-9.766,-62.012,-55.176,-126.953
1685724211.207,-55.176,-27.832,-49.316,-46.875,165.527
1685724211.211,-36.133,-31.738,-56.641,-45.410,168.945
1685724211.212,-6.348,-21.973,-56.152,-20.508,-78.613
1685724211.216,-26.855,-30.762,-26.367,-0.488,-62.012
1685724211.220,-38.086,-31.738,-6.836,-39.551,-7.324
1685724211.224,-29.785,-15.625,-2.930,-63.965,-147.461
1685724211.228,-23.926,-6.348,-15.137,-39.551,-217.773
1685724211.232,-19.531,-10.254,-24.414,-5.859,102.539
1685724211.236,-20.508,-8.301,-19.531,-7.812,444.824
1685724211.239,-22.461,1.953,-9.277,-25.391,-0.977
1685724211.243,-22.461,-3.906,-14.160,-39.551,-293.945
1685724211.247,-20.020,-21.484,-30.273,-36.621,-125.000
1685724211.251,3.418,-28.809,-30.762,-15.137,-93.262
1685724211.255,-4.395,-26.367,-32.227,-19.531,-43.457
1685724211.271,-55.176,-25.879,-43.945,-43.457,-15.137
1685724211.275,-43.945,-27.344,-45.898,-50.781,119.141
1685724211.279,-29.785,-27.344,-34.180,-40.527,114.746
1685724211.283,-37.598,-21.973,-24.902,-19.043,-183.594
1685724211.287,-11.719,-11.719,-18.555,-3.418,-125.977
1685724211.291,-10.254,-9.766,-16.113,-12.207,137.695
1685724211.295,-31.250,-19.043,-30.273,-35.645,40.527
1685724211.298,-36.621,-36.133,-41.504,-40.527,-172.852
1685724211.302,-20.508,-47.363,-36.133,-22.949,-114.258
1685724211.306,5.859,-32.715,-27.344,7.324,239.258
1685724211.310,4.883,-15.625,-30.762,-6.836,63.477
1685724211.314,-41.504,-14.648,-33.691,-41.016,-230.957
1685724211.316,-58.594,-23.926,-30.273,-31.738,-223.633
1685724211.320,-56.152,-29.297,-26.855,-6.348,-124.023
1685724211.324,-56.641,-33.203,-29.297,-21.484,-22.949
1685724211.328,-28.320,-27.832,-33.691,-30.762,-105.469
1685724211.332,-7.812,-11.719,-22.949,-13.672,-85.449
1685724211.336,-22.949,-28.320,-32.715,-32.715,-22.949
1685724211.340,-40.039,-42.480,-36.133,-39.062,-19.043
1685724211.343,-29.785,-40.039,-17.578,-13.184,-77.148
1685724211.347,-31.738,-33.691,-20.996,-23.438,43.945
1685724211.351,-56.152,-24.902,-27.832,-71.289,222.656
1685724211.355,-51.758,-35.645,-39.551,-73.242,-151.367
1685724211.359,-43.945,-35.156,-49.316,-41.992,-199.219
1685724211.361,-37.598,-28.320,-38.086,-22.949,69.824
1685724211.365,-17.090,-20.508,-29.297,-25.879,-5.859
1685724211.369,-19.043,-28.320,-23.438,-37.598,-189.453
1685724211.373,-43.945,-30.273,-22.949,-39.551,-212.402
1685724211.377,-43.457,-29.297,-22.461,-20.020,41.504
