timestamps,TP9,AF7,AF8,TP10,Right AUX
1689186025.335,-23.438,-27.344,-31.250,-10.254,-209.473
1689186025.339,-16.113,-27.344,-41.992,-13.184,53.223
1689186025.343,-34.180,-27.832,-38.574,-22.949,-1.953
1689186025.347,-47.363,-24.902,-23.926,-32.227,-197.754
1689186025.351,-45.410,-30.762,-21.973,-29.785,-197.266
1689186025.355,-26.855,-31.738,-24.414,-26.855,-68.359
1689186025.359,-8.301,-30.762,-24.414,-30.762,43.457
1689186025.362,-37.598,-35.645,-23.438,-34.180,-59.082
1689186025.366,-61.035,-31.738,-30.762,-37.598,-102.539
1689186025.370,-41.504,-25.391,-28.320,-25.879,92.285
1689186025.374,-17.090,-25.879,-18.555,-8.789,38.086
1689186025.378,12.695,-27.832,-17.090,-1.465,-94.727
1689186025.392,-2.930,-26.855,-19.531,-12.695,-1.465
1689186025.396,-50.293,-25.391,-19.531,-32.715,-41.504
1689186025.400,-58.594,-27.832,-21.973,-42.969,-111.816
1689186025.404,-36.621,-31.250,-19.043,-34.668,-29.785
1689186025.408,-22.949,-30.762,-20.020,-20.508,99.609
1689186025.412,-33.691,-24.902,-28.809,-24.414,478.027
1689186025.416,-62.012,-25.391,-33.691,-34.668,282.715
1689186025.419,-51.758,-29.785,-27.832,-26.367,-270.996
1689186025.423,-6.836,-26.855,-24.902,-17.578,-136.230
1689186025.427,-14.160,-29.785,-26.855,-21.973,-5.859
1689186025.431,-46.875,-34.180,-27.832,-22.949,-82.031
1689186025.435,-67.383,-32.715,-21.973,-26.367,-100.098
1689186025.437,-63.965,-28.320,-18.555,-37.598,-158.691
1689186025.441,-31.738,-26.855,-36.133,-39.062,-153.320
1689186025.445,-3.906,-26.367,-40.527,-31.250,-149.902
1689186025.449,-5.859,-24.902,-32.227,-26.367,-118.164
1689186025.453,-30.762,-31.250,-20.508,-36.133,-120.117
1689186025.457,-51.758,-32.715,-22.461,-55.664,-136.719
1689186025.461,-31.738,-31.738,-29.297,-52.734,-47.363
1689186025.464,-7.324,-40.527,-35.156,-31.738,2.930
1689186025.468,-3.418,-43.457,-37.109,-13.672,247.070
1689186025.472,-25.879,-46.387,-48.828,-32.715,271.484
1689186025.476,-41.992,-35.156,-43.945,-46.875,-156.250
1689186025.480,-22.461,-26.367,-24.902,-16.602,-175.293
1689186025.482,-2.930,-29.297,-38.574,-7.324,-8.301
1689186025.486,1.953,-22.949,-29.297,-27.832,0.000
1689186025.490,-36.621,-23.926,-10.254,-44.922,-70.801
1689186025.494,-68.359,-31.250,-13.672,-57.129,0.000
1689186025.498,-51.270,-25.879,-14.160,-43.945,99.609
1689186025.502,-31.738,-22.949,-15.137,-27.344,41.016
1689186025.506,-4.883,-33.691,-23.438,-13.184,-0.977
1689186025.509,-2.930,-19.531,-28.809,-18.066,95.703
1689186025.513,-43.945,-0.488,-37.109,-35.156,310.059
1689186025.517,-32.715,-23.438,-64.941,-51.270,14.160
1689186025.521,-23.926,-41.016,-90.820,-65.918,-252.930
1689186025.525,-79.590,-26.855,-52.246,-86.914,-158.691
1689186025.527,-123.535,-22.461,-25.879,-112.305,-197.266
1689186025.531,-126.953,-29.297,-47.363,-125.488,-253.418
1689186025.535,-125.977,-28.809,-53.711,-157.715,-218.750
1689186025.539,-145.996,6.348,-70.801,-180.664,-130.371
1689186025.543,-155.762,29.785,-78.125,-181.152,-81.055
1689186025.547,-163.086,25.391,-55.664,-203.125,-56.641
1689186025.551,-184.082,24.414,-55.664,-241.211,2.441
1689186025.554,-197.266,21.484,-69.824,-248.047,192.871
1689186025.558,-138.672,15.137,-48.340,-220.215,90.332
1689186025.562,-131.836,4.883,-51.758,-199.219,-165.039
1689186025.566,-198.730,-14.648,-81.055,-212.402,-20.996
1689186025.570,-208.008,-13.672,-77.637,-225.586,47.363
1689186025.572,-188.965,-1.465,-52.246,-233.398,-117.188
1689186025.576,-169.922,-7.324,-32.715,-229.980,-229.492
1689186025.580,-138.184,-14.648,-56.641,-207.520,11.719
1689186025.584,-131.348,-8.301,-63.477,-170.410,283.203
1689186025.588,-138.184,0.488,-57.617,-160.156,5.371
1689186025.592,-119.141,-6.836,-64.941,-161.133,-165.527
1689186025.596,-100.586,-10.254,-58.105,-150.391,30.273
1689186025.599,-103.027,-12.207,-53.711,-148.926,179.688
1689186025.603,-100.098,-19.043,-45.898,-131.836,-93.750
1689186025.607,-91.309,-20.020,-46.387,-121.094,-220.703
1689186025.611,-78.125,-15.137,-45.898,-115.234,-141.113
1689186025.615,-55.176,-13.184,-43.457,-88.379,-115.234
1689186025.620,-43.457,-22.461,-49.805,-59.570,-112.305
1689186025.624,-37.598,-23.438,-45.898,-53.711,-25.391
1689186025.628,-31.250,-18.066,-33.691,-50.781,72.266
1689186025.632,-30.762,-23.438,-37.109,-46.875,-42.480
1689186025.636,-22.949,-24.414,-37.109,-40.527,-181.641
1689186025.640,-14.160,-20.020,-36.133,-20.996,-81.543
1689186025.644,-17.578,-22.461,-36.133,-16.113,253.418
1689186025.647,-25.879,-24.902,-25.391,-27.344,164.551
1689186025.651,-33.203,-22.461,-25.879,-41.992,-243.652
1689186025.655,-27.344,-23.438,-39.062,-44.434,-201.172
1689186025.659,-0.977,-28.809,-39.062,-21.973,-67.383
1689186025.663,15.625,-22.461,-29.297,-5.371,-112.793
1689186025.662,-0.977,-16.602,-22.461,-12.695,-168.945
1689186025.666,-12.695,-20.020,-18.066,-25.391,-123.535
1689186025.670,-26.367,-24.902,-19.531,-30.273,4.883
1689186025.674,-28.809,-26.855,-18.066,-17.578,49.316
1689186025.678,-21.973,-28.320,-20.508,-15.625,16.113
1689186025.682,-30.273,-29.785,-22.949,-23.438,79.102
1689186025.686,-37.109,-25.391,-23.438,-39.062,442.871
1689186025.689,-30.273,-20.508,-27.832,-33.691,335.938
1689186025.693,-8.301,-19.043,-29.785,-16.602,-128.418
1689186025.697,6.836,-18.555,-28.809,-13.184,-142.090
1689186025.701,-12.695,-23.438,-28.320,-17.578,-104.492
1689186025.705,-32.715,-30.762,-31.738,-11.719,-194.336
1689186025.709,-28.320,-30.273,-34.668,-7.812,-216.797
1689186025.713,-18.555,-31.738,-28.320,-19.043,-109.863
1689186025.717,-5.371,-29.785,-25.391,-20.508,-33.691
1689186025.721,0.488,-24.414,-26.367,-12.207,-83.984
1689186025.725,-22.461,-26.855,-29.297,-6.348,-167.969
1689186025.729,-40.039,-24.414,-36.133,-21.484,-40.039
1689186025.733,-21.484,-27.832,-43.945,-28.809,88.379
1689186025.736,-6.836,-36.133,-41.992,-17.090,41.992
1689186025.740,0.488,-32.227,-24.902,5.859,-16.602
1689186025.744,-44.922,-30.762,-19.043,2.441,230.469
1689186025.748,-82.031,-35.645,-26.855,-35.645,194.824
1689186025.752,-41.504,-34.180,-21.973,-36.133,-158.691
1689186025.767,-8.301,-31.250,-14.648,-13.184,-53.223
1689186025.771,-5.859,-30.273,-15.137,-2.441,-33.203
1689186025.775,-27.832,-24.414,-17.090,-4.883,-115.234
1689186025.779,-36.621,-26.855,-23.438,-16.113,-134.766
1689186025.783,-7.812,-26.367,-21.484,1.465,6.348
1689186025.787,-1.953,-26.367,-25.879,8.789,314.453
1689186025.791,-12.695,-27.832,-33.203,-0.488,153.809
1689186025.794,-17.578,-21.484,-24.902,3.906,-171.875
1689186025.798,-17.090,-24.902,-20.508,5.859,8.301
1689186025.802,-16.113,-32.715,-26.855,-15.137,213.379
1689186025.806,-2.930,-34.668,-25.391,-19.531,-37.598
1689186025.810,-8.301,-34.180,-23.926,-15.137,-114.746
1689186025.812,-39.062,-29.297,-27.344,-19.043,-45.898
1689186025.816,-60.059,-27.832,-21.484,-14.160,-80.078
1689186025.820,-53.711,-39.062,-15.625,-15.137,-162.598
1689186025.824,-17.578,-39.062,-11.230,10.742,-169.922
1689186025.828,-28.320,-22.949,-19.531,-15.137,-120.117
1689186025.832,-61.523,-16.602,-38.086,-70.801,-2.930
1689186025.836,-74.219,-21.484,-37.109,-64.453,-15.625
1689186025.839,-79.102,-25.879,-32.715,-65.918,-111.816
1689186025.843,-58.594,-19.043,-32.715,-80.078,140.137
1689186025.847,-45.410,-18.555,-36.133,-78.125,163.086
1689186025.851,-83.496,-23.926,-41.016,-79.102,-190.918
1689186025.855,-108.398,-23.926,-35.156,-92.285,-122.070
1689186025.857,-86.914,-30.762,-33.203,-88.379,17.578
1689186025.861,-65.430,-34.668,-35.645,-66.406,-87.891
1689186025.865,-56.641,-30.762,-37.109,-58.594,-48.340
1689186025.869,-50.781,-23.926,-31.250,-55.176,84.961
1689186025.873,-52.734,-16.602,-27.832,-46.875,75.684
1689186025.877,-62.500,-17.578,-29.297,-47.852,-56.152
1689186025.881,-40.039,-24.902,-32.227,-34.180,-109.375
1689186025.884,-6.348,-27.344,-36.133,-20.508,68.848
1689186025.888,-18.555,-29.785,-30.273,-35.156,187.012
1689186025.892,-47.852,-27.832,-23.926,-49.805,-113.770
1689186025.896,-53.711,-22.461,-26.367,-39.062,-252.930
1689186025.900,-35.156,-27.344,-28.320,-38.574,-109.863
1689186025.904,-14.160,-31.250,-27.344,-38.086,-52.734
1689186025.908,-20.020,-22.949,-27.344,-32.715,-101.562
1689186025.912,-45.410,-12.207,-21.484,-27.344,-107.422
1689186025.916,-41.992,-10.742,-20.508,-30.762,-28.809
1689186025.920,-3.906,-10.254,-29.785,-31.250,-43.457
1689186025.924,16.602,-10.254,-45.410,2.441,-91.309
1689186025.928,-23.926,-13.184,-47.852,-2.930,-61.035
1689186025.931,-51.270,-10.742,-36.133,-29.297,188.965
1689186025.935,-44.922,-6.836,-31.250,-32.715,94.238
1689186025.939,-14.648,-11.230,-26.855,-36.133,-259.766
1689186025.943,1.465,-15.137,-13.184,-34.180,-165.039
1689186025.947,-18.066,-17.578,-15.625,12.695,-54.688
1689186025.947,-27.832,-20.020,-21.484,3.418,-149.902
1689186025.951,-41.992,-17.090,-17.090,-52.734,-202.148
1689186025.955,-34.180,-17.578,-15.625,-36.133,-0.977
1689186025.959,-16.113,-18.066,-23.926,-16.602,144.043
1689186025.963,-21.484,-18.555,-28.320,-18.555,41.016
1689186025.967,-27.832,-20.020,-26.367,-26.855,-49.805
1689186025.971,-16.602,-19.531,-27.832,-34.668,8.789
1689186025.974,-16.602,-16.602,-28.809,-33.691,334.473
1689186025.978,-14.648,-12.207,-26.367,-23.438,207.031
1689186025.982,-17.578,-8.789,-25.391,-12.207,-118.652
1689186025.986,-32.715,-8.789,-24.414,-18.555,-128.418
1689186025.990,-39.551,-9.766,-26.855,-26.855,-150.879
1689186025.993,-28.320,-14.160,-35.645,-19.531,-173.828
1689186025.997,2.441,-15.137,-35.645,-12.207,-144.531
1689186026.001,2.930,-10.742,-22.461,0.000,-54.199
1689186026.005,-37.109,-16.113,-16.602,-1.953,-57.129
1689186026.009,-47.852,-20.996,-17.090,-24.902,-114.258
1689186026.013,-20.508,-14.648,-25.391,-22.949,-51.270
1689186026.017,-1.953,-10.254,-24.414,2.441,241.699
1689186026.020,-6.348,-15.625,-13.672,2.441,260.254
1689186026.024,-24.902,-20.020,-11.719,-5.371,-99.121
1689186026.028,-44.922,-23.438,-17.578,-25.879,-189.453
1689186026.032,-53.711,-26.367,-23.438,-43.945,-63.477
1689186026.036,-25.879,-21.973,-21.973,-28.809,-86.914
1689186026.037,-3.418,-23.438,-27.832,-13.672,-164.551
1689186026.041,-4.883,-20.996,-25.391,-0.488,-22.949
1689186026.045,-27.832,-20.020,-14.160,-7.812,312.500
1689186026.049,-62.500,-14.648,-25.391,-28.809,130.859
1689186026.053,-50.293,-6.348,-41.992,-35.645,-235.352
1689186026.057,-26.855,-10.742,-29.297,-19.043,88.867
1689186026.061,-35.156,-18.066,-13.672,-1.465,474.609
1689186026.064,-57.617,-18.555,-22.949,-35.156,23.438
1689186026.068,-62.500,-16.602,-34.668,-65.918,-322.754
1689186026.072,-38.574,-18.555,-30.273,-54.688,-27.344
1689186026.076,-20.996,-15.625,-23.926,-37.598,57.129
1689186026.080,-29.785,-16.113,-21.484,-29.785,-174.805
1689186026.099,-37.598,-21.484,-25.879,-30.273,-221.680
1689186026.103,-37.109,-20.996,-29.297,-29.297,-154.785
1689186026.107,-20.508,-20.508,-31.738,-23.926,-119.141
1689186026.111,-0.488,-18.555,-36.133,-33.203,-119.629
1689186026.115,-21.484,-21.484,-36.133,-25.391,-73.242
1689186026.119,-48.828,-27.832,-26.367,-17.090,49.316
1689186026.123,-60.547,-27.344,-30.762,-16.602,-8.789
1689186026.126,-39.062,-24.902,-33.203,-29.785,-167.480
1689186026.130,-8.789,-23.926,-30.762,-33.691,-169.434
1689186026.134,-15.625,-23.438,-32.715,-18.066,87.891
1689186026.138,-28.809,-27.832,-28.320,-35.156,36.621
1689186026.142,-28.320,-30.273,-26.855,-44.434,-152.344
1689186026.142,-35.645,-34.668,-23.438,-20.508,-59.082
1689186026.146,-22.949,-37.109,-28.809,-10.254,35.156
1689186026.150,-13.184,-29.785,-39.062,-24.902,26.367
1689186026.154,-34.180,-33.203,-39.551,-37.109,-84.473
1689186026.158,-54.199,-41.016,-38.574,-42.969,-15.625
1689186026.162,-51.270,-44.922,-38.086,-54.688,130.859
1689186026.166,-26.855,-37.598,-31.250,-46.387,-0.488
1689186026.169,-8.301,-28.320,-19.531,-29.297,-114.258
1689186026.173,-22.949,-30.273,-14.648,-32.715,34.180
1689186026.177,-53.711,-33.691,-22.949,-31.250,362.305
1689186026.181,-50.293,-33.203,-30.273,-26.367,83.984
1689186026.185,-35.645,-34.668,-31.250,-26.855,-191.406
1689186026.188,-24.902,-34.180,-30.762,-15.137,-61.035
1689186026.192,-30.762,-30.273,-32.227,-15.625,-83.984
1689186026.196,-29.297,-24.414,-32.227,-44.922,-143.066
1689186026.200,-17.090,-18.555,-32.715,-38.574,-190.918
1689186026.204,-9.766,-21.484,-31.250,-6.836,-41.992
1689186026.208,-0.488,-21.973,-20.508,-15.137,99.609
1689186026.212,-20.996,-27.344,-11.230,-14.648,-23.926
1689186026.215,-39.062,-25.391,-20.508,-25.391,-184.570
1689186026.219,-37.598,-15.137,-31.738,-41.992,62.500
1689186026.223,-20.020,-19.531,-14.160,-28.809,99.121
1689186026.227,-7.812,-23.438,-9.766,-10.254,-161.133
1689186026.231,-13.672,-28.809,-20.020,-17.578,-96.191
1689186026.232,-26.367,-31.250,-21.973,-35.645,-68.848
1689186026.236,-44.922,-26.367,-28.320,-43.457,-138.184
1689186026.240,-41.504,-20.508,-28.809,-34.668,-116.699
1689186026.244,-23.926,-14.160,-21.973,-23.438,82.520
1689186026.248,-13.672,-14.160,-18.555,-20.508,237.793
1689186026.252,-13.184,-19.043,-23.438,-22.461,45.410
1689186026.256,-43.457,-18.066,-32.227,-22.949,-116.211
1689186026.259,-48.828,-16.602,-23.438,-27.832,63.477
1689186026.263,-24.414,-25.879,-24.902,-35.156,349.609
1689186026.267,-29.297,-21.484,-33.203,-19.043,106.934
1689186026.271,-41.992,-14.648,-27.832,-16.602,-197.266
1689186026.275,-57.129,-18.066,-28.320,-39.551,-189.453
1689186026.277,-27.344,-20.508,-30.273,-35.645,-203.613
1689186026.281,-0.977,-19.043,-21.973,-19.531,-169.922
1689186026.285,-23.926,-16.602,-18.066,-9.277,-112.793
1689186026.289,-42.969,-17.090,-26.855,-12.695,-105.469
1689186026.293,-51.758,-11.719,-49.316,-21.973,-151.367
1689186026.297,-31.250,-0.977,-51.270,-20.996,-103.516
1689186026.301,-11.719,0.977,-28.809,-24.414,-19.531
1689186026.304,-4.883,1.953,-16.113,-29.297,286.133
1689186026.308,-35.156,-2.930,-13.184,-37.109,336.426
1689186026.312,-47.852,-7.812,-18.555,-45.898,-137.695
1689186026.316,-24.414,-2.441,-26.367,-41.992,-178.711
1689186026.320,-20.020,1.953,-28.320,-21.973,-90.332
1689186026.322,-20.996,2.930,-35.156,-15.625,-125.977
1689186026.326,-38.086,5.859,-44.922,-33.691,-202.148
1689186026.330,-66.895,9.277,-35.645,-50.781,-136.719
1689186026.334,-56.641,0.977,-22.461,-48.340,56.641
1689186026.338,-23.926,-4.395,-21.973,-32.715,-14.160
1689186026.342,-10.254,-4.883,-23.438,-22.461,-39.062
1689186026.346,-29.297,-6.836,-33.691,-26.367,138.184
1689186026.349,-43.945,-13.672,-38.574,-42.480,262.695
1689186026.353,-41.992,-18.555,-26.367,-48.828,-79.102
1689186026.357,-31.738,-18.555,-30.273,-23.438,-186.035
1689186026.361,-30.762,-15.625,-35.645,-10.254,9.277
1689186026.365,-42.480,-10.254,-29.297,-31.738,-64.941
1689186026.369,-52.734,-10.254,-24.902,-49.316,-213.867
1689186026.373,-36.621,-17.578,-28.809,-30.273,-241.211
1689186026.377,-16.113,-22.461,-31.250,-16.602,-80.566
1689186026.381,-27.344,-22.949,-23.926,-9.766,-60.547
1689186026.385,-48.340,-22.949,-23.438,-12.207,-199.219
1689186026.389,-71.777,-22.461,-29.297,-43.457,-130.859
1689186026.393,-59.082,-22.461,-31.738,-38.574,242.676
1689186026.396,-18.066,-23.926,-38.086,-32.227,247.070
1689186026.400,23.438,-24.414,-32.715,-7.324,-137.207
1689186026.404,27.832,-22.461,-20.996,24.414,-87.891
1689186026.408,-39.551,-26.855,-17.578,-13.184,-34.668
1689186026.412,-74.219,-41.016,-14.648,-40.039,-56.641
1689186026.413,-41.992,-43.457,-20.020,-28.320,-65.918
1689186026.417,-21.484,-39.062,-30.273,-25.879,-3.418
1689186026.421,-21.484,-36.621,-34.180,-32.715,157.715
1689186026.425,-32.227,-37.109,-31.250,-23.438,6.836
1689186026.429,-49.316,-41.504,-32.227,-29.785,-198.242
1689186026.433,-31.738,-43.945,-36.621,-35.156,-17.578
1689186026.437,-3.418,-43.457,-34.668,-11.719,428.223
1689186026.440,-17.578,-45.898,-37.598,-22.949,238.281
1689186026.444,-22.461,-43.945,-43.457,-31.250,-160.156
1689186026.448,-29.297,-41.992,-45.410,-24.902,-101.562
1689186026.452,-38.086,-45.898,-42.969,-22.949,-103.027
1689186026.456,-11.719,-48.828,-46.387,-18.555,-167.969
1689186026.472,-15.625,-41.992,-47.852,-25.391,-96.191
1689186026.476,-32.227,-31.250,-23.438,-14.648,-66.895
1689186026.480,-35.645,-28.809,-12.695,-15.625,-31.738
1689186026.484,-31.738,-32.227,-18.555,-26.855,-55.664
1689186026.488,-9.766,-34.180,-12.695,-18.066,-137.695
1689186026.492,25.391,-29.297,-16.113,-23.438,224.121
1689186026.496,-19.043,-24.414,-24.414,-31.250,261.230
1689186026.499,-72.266,-23.926,-27.344,-46.387,-166.016
1689186026.503,-36.621,-29.297,-32.715,-46.875,-206.543
1689186026.507,-16.602,-33.203,-37.109,-41.504,-60.059
1689186026.511,-26.855,-35.645,-28.809,-33.203,-50.781
1689186026.515,-29.785,-32.715,-24.902,-20.020,-148.926
1689186026.517,-35.645,-21.484,-23.438,-16.602,-122.559
1689186026.521,-39.551,-22.949,-27.832,-21.973,-85.449
1689186026.525,-20.020,-36.621,-30.762,-9.277,-10.254
1689186026.529,-3.906,-44.922,-23.438,-9.277,28.809
1689186026.533,-25.879,-43.457,-35.645,-18.066,83.496
1689186026.537,-51.758,-38.086,-47.852,-30.762,338.379
1689186026.541,-53.223,-38.086,-29.785,-57.129,175.293
1689186026.544,-41.504,-37.109,-20.996,-30.762,-110.352
1689186026.548,-25.879,-36.621,-29.785,-11.230,32.715
1689186026.552,-27.832,-35.156,-39.062,-21.484,147.949
1689186026.556,-41.992,-33.691,-22.461,-36.621,-147.461
1689186026.560,-42.480,-33.203,-12.695,-53.223,-244.141
1689186026.562,-15.137,-34.180,-29.785,-40.527,-167.969
1689186026.566,0.488,-31.250,-36.621,-21.973,-121.094
1689186026.570,14.160,-20.508,-28.320,-0.488,-99.609
1689186026.574,-16.113,-27.344,-19.043,-11.230,-125.977
1689186026.578,-62.500,-43.945,-15.625,-36.621,-64.453
1689186026.582,-36.133,-41.992,-18.066,-9.766,57.129
1689186026.586,2.441,-43.945,-5.859,28.809,15.137
1689186026.589,5.859,-53.711,-3.906,30.762,-79.102
1689186026.593,-10.254,-43.945,-22.461,26.855,156.250
1689186026.597,-24.414,-38.574,-19.043,3.906,196.777
1689186026.601,-15.137,-55.176,-7.324,-5.859,-156.250
1689186026.605,26.855,-51.270,-15.137,21.973,-145.020
1689186026.622,41.016,-33.691,-20.996,28.809,-75.195
1689186026.626,6.836,-43.457,-15.137,10.254,-170.410
1689186026.630,-8.789,-52.246,-7.812,15.625,-137.207
1689186026.634,2.441,-45.410,-11.719,30.273,62.988
1689186026.638,12.207,-44.922,-24.414,13.184,128.418
1689186026.642,5.859,-44.434,-23.438,6.836,67.871
1689186026.646,-23.438,-40.039,-20.508,4.883,5.371
1689186026.649,-46.875,-40.527,-20.020,-5.859,49.805
1689186026.653,-29.785,-43.945,-19.043,-5.859,152.344
1689186026.657,-1.465,-39.551,-18.066,12.695,-21.973
1689186026.661,-3.906,-38.086,-23.926,0.000,-34.180
1689186026.665,-21.973,-36.133,-27.344,-16.113,6.348
1689186026.652,-33.203,-41.992,-29.297,-15.625,-113.281
1689186026.656,-20.508,-41.992,-30.273,-25.879,-276.367
1689186026.660,-0.488,-41.992,-12.207,-19.043,-260.254
1689186026.664,6.348,-43.457,-6.836,7.812,-123.047
1689186026.668,-10.254,-38.574,-29.785,7.324,-70.312
1689186026.672,-37.598,-41.016,-36.133,-17.090,-118.164
1689186026.676,-45.898,-42.480,-22.461,-18.066,-65.918
1689186026.679,-27.344,-42.480,-19.043,-15.625,75.195
1689186026.683,-4.395,-43.457,-24.414,-20.996,0.000
1689186026.687,-9.277,-41.016,-36.621,-16.113,-189.453
1689186026.691,-43.945,-43.457,-30.273,-15.137,-184.082
1689186026.695,-36.133,-56.152,-20.508,-1.465,101.074
1689186026.698,2.441,-50.781,-27.832,-5.371,117.188
1689186026.702,-0.488,-30.762,-30.273,-27.344,-178.711
1689186026.706,-23.926,-24.414,-31.738,-28.320,-20.020
1689186026.710,-32.715,-18.066,-32.227,-24.902,312.012
1689186026.714,-32.227,-12.207,-19.043,-25.879,52.246
1689186026.718,-23.926,-17.090,-13.672,-9.766,-153.320
1689186026.722,5.859,-20.020,-24.902,0.000,108.398
1689186026.725,-8.301,-25.391,-36.621,-24.902,266.113
1689186026.729,-47.363,-35.645,-57.129,-47.852,-60.059
1689186026.733,-53.711,-36.621,-54.199,-38.574,-262.207
1689186026.737,-39.062,-31.250,-21.484,-35.156,-170.898
1689186026.741,-16.113,-28.809,-9.766,-30.273,-117.676
1689186026.744,-9.277,-24.414,-26.855,-11.719,-156.250
1689186026.748,-32.227,-20.020,-33.691,-23.926,-153.320
1689186026.752,-68.848,-31.250,-19.043,-46.387,-91.797
1689186026.756,-67.871,-40.039,-15.625,-51.270,-56.641
1689186026.760,-28.320,-33.203,-18.555,-41.016,-113.770
1689186026.764,-12.207,-29.785,-18.066,-32.227,-83.008
1689186026.768,-42.480,-35.645,-13.184,-33.203,260.254
1689186026.771,-83.496,-41.504,-15.625,-47.363,297.363
1689186026.775,-70.801,-39.062,-22.949,-36.133,-132.812
1689186026.779,-28.809,-34.180,-20.996,-19.531,-167.480
1689186026.783,-29.785,-30.762,-22.949,-34.668,-85.938
1689186026.787,-62.500,-35.156,-23.926,-46.387,-153.809
1689186026.788,-64.453,-41.992,-30.273,-58.105,-195.801
1689186026.792,-41.016,-37.598,-37.109,-46.875,-89.355
1689186026.796,-20.508,-35.156,-28.320,-33.203,69.336
1689186026.800,-20.996,-41.504,-22.461,-32.227,49.805
1689186026.804,-36.133,-41.992,-19.043,-41.016,-126.953
1689186026.808,-44.434,-39.062,-18.066,-45.410,-20.508
1689186026.812,-58.594,-34.668,-21.484,-36.621,461.914
1689186026.815,-51.270,-36.621,-20.996,-46.875,389.648
1689186026.819,-32.227,-37.598,-20.508,-42.480,-95.215
1689186026.823,-38.086,-30.762,-26.855,-37.598,-65.918
1689186026.827,-49.316,-18.555,-27.832,-43.457,-44.922
1689186026.831,-43.945,-20.996,-28.809,-39.062,-212.402
1689186026.834,-16.602,-33.691,-31.250,-29.785,-187.988
1689186026.838,-6.348,-33.203,-30.762,-22.949,-85.938
1689186026.842,-30.273,-29.785,-38.574,-35.645,-48.828
1689186026.846,-47.363,-26.367,-37.598,-58.105,-147.461
1689186026.850,-32.227,-30.273,-29.297,-57.129,-144.043
1689186026.854,-11.719,-33.203,-31.250,-46.387,6.836
1689186026.858,-1.953,-30.273,-24.902,-23.926,92.773
1689186026.861,-15.137,-33.691,-21.973,-20.020,65.430
1689186026.865,-29.785,-32.227,-27.832,-38.086,-52.246
1689186026.869,-38.086,-23.438,-26.367,-31.250,144.531
1689186026.873,-22.949,-20.996,-31.738,0.000,208.008
1689186026.877,-5.859,-24.902,-34.180,-4.883,-117.188
1689186026.892,-17.090,-25.879,-18.555,-18.066,-130.371
1689186026.896,-45.410,-23.926,-15.137,-33.203,-111.816
1689186026.900,-55.664,-26.367,-18.066,-40.527,-146.973
1689186026.904,-38.574,-32.227,-26.367,-34.180,-161.133
1689186026.908,-19.043,-33.203,-32.715,-31.738,-10.254
1689186026.912,-24.414,-29.785,-27.344,-32.227,200.195
1689186026.916,-35.645,-31.250,-22.949,-44.922,22.461
1689186026.919,-41.016,-27.344,-20.996,-46.387,-218.750
1689186026.923,-37.598,-23.438,-29.297,-27.344,-48.340
1689186026.927,-23.926,-28.809,-38.086,-14.648,157.227
1689186026.931,-28.809,-31.250,-36.621,-21.484,-60.059
1689186026.935,-32.715,-27.832,-20.996,-37.598,-178.711
1689186026.937,-31.738,-24.414,-17.090,-59.082,-82.031
1689186026.941,-24.414,-25.879,-22.949,-44.434,-71.777
1689186026.945,0.000,-30.762,-21.973,-20.996,-166.016
1689186026.949,-3.906,-38.574,-25.391,-8.789,-91.309
1689186026.953,-37.598,-35.156,-20.996,-31.250,-67.871
1689186026.957,-56.641,-23.438,-27.832,-56.152,0.000
1689186026.961,-47.363,-20.020,-35.156,-50.293,43.945
1689186026.964,-26.367,-22.461,-33.203,-26.367,-80.566
1689186026.968,-38.574,-26.855,-40.527,-6.348,166.992
1689186026.972,-52.734,-25.879,-42.480,-26.367,180.664
1689186026.976,-45.410,-21.973,-21.484,-36.133,-178.711
1689186026.980,-33.691,-23.926,-14.648,-33.203,-145.508
1689186026.982,-18.066,-28.320,-34.180,-36.621,-6.348
1689186026.986,-19.043,-25.879,-40.527,-38.086,-6.836
1689186026.990,-34.180,-29.785,-28.809,-48.340,-136.230
1689186026.994,-49.805,-29.785,-30.273,-55.176,-74.219
1689186026.998,-43.945,-27.832,-34.180,-46.875,147.949
1689186027.002,-28.320,-25.879,-32.227,-24.902,41.992
1689186027.006,-10.742,-23.438,-44.434,-10.742,-34.668
1689186027.009,-23.438,-18.555,-43.457,-18.066,122.070
1689186027.013,-48.828,-22.461,-29.785,-34.180,172.363
1689186027.017,-58.105,-40.527,-21.973,-50.781,-117.188
1689186027.021,-40.527,-41.992,-22.461,-49.805,-223.633
1689186027.025,-15.137,-32.227,-27.832,-20.020,-89.355
1689186027.027,-22.461,-28.809,-20.996,-21.973,-104.980
1689186027.031,-46.387,-35.156,-16.602,-42.480,-160.156
1689186027.035,-46.387,-35.645,-18.066,-42.969,-137.207
1689186027.039,-38.574,-29.297,-21.973,-25.391,-81.543
1689186027.043,-24.902,-23.926,-35.156,-13.184,-38.574
1689186027.047,-25.879,-27.344,-42.480,-15.137,22.461
1689186027.051,-41.016,-32.227,-27.832,-24.414,16.602
1689186027.054,-40.527,-26.367,-16.602,-29.785,162.109
1689186027.058,-20.020,-28.320,-22.461,-35.156,216.797
1689186027.062,-11.719,-37.598,-31.738,-37.598,-118.164
1689186027.066,-19.043,-37.598,-32.227,-27.344,-87.891
1689186027.070,-29.785,-30.762,-31.738,-31.738,-65.918
1689186027.072,-41.992,-24.414,-29.297,-38.086,-143.066
1689186027.076,-32.227,-29.297,-22.461,-30.273,-155.273
1689186027.080,-14.160,-41.016,-18.066,-22.949,53.223
1689186027.084,-16.602,-37.109,-23.438,-42.480,169.434
1689186027.088,-41.992,-25.391,-35.645,-46.875,-95.215
1689186027.092,-50.781,-28.809,-44.922,-42.969,-116.699
1689186027.096,-30.762,-34.668,-38.574,-37.598,87.891
1689186027.099,-18.066,-31.250,-34.668,-31.738,445.312
1689186027.103,-8.301,-20.508,-41.992,-23.438,204.590
1689186027.107,-11.230,-16.602,-38.574,-17.090,-243.652
1689186027.111,-38.574,-19.043,-35.645,-41.016,-223.633
1689186027.115,-27.832,-22.949,-35.156,-36.621,-207.520
1689186027.119,-9.766,-22.949,-37.598,-8.789,-235.840
1689186027.123,-23.438,-26.855,-38.574,-16.113,-170.898
1689186027.127,-41.504,-32.227,-33.691,-39.551,-105.957
1689186027.131,-63.965,-26.367,-29.785,-62.012,-137.207
1689186027.135,-58.594,-26.855,-22.461,-62.988,-157.715
1689186027.139,-34.180,-29.297,-21.484,-36.621,-61.035
1689186027.143,-28.320,-26.855,-25.391,-17.578,295.410
1689186027.146,-39.062,-28.320,-32.715,-27.832,250.000
1689186027.150,-45.410,-37.598,-34.668,-46.387,-160.156
1689186027.154,-22.949,-34.180,-28.320,-50.781,-164.551
1689186027.158,0.977,-15.625,-34.668,-32.715,-51.270
1689186027.162,-26.367,-15.137,-40.527,-35.156,-62.988
1689186027.162,-65.918,-24.902,-37.109,-63.477,-130.371
1689186027.166,-83.008,-27.832,-34.180,-83.496,-128.418
1689186027.170,-91.797,-35.645,-41.504,-91.797,-71.289
1689186027.174,-79.590,-36.133,-49.805,-79.102,-31.250
1689186027.178,-60.059,-31.250,-40.039,-55.176,-64.453
1689186027.182,-62.012,-34.668,-32.715,-65.918,41.504
1689186027.186,-85.938,-40.527,-32.715,-78.125,447.754
1689186027.189,-82.520,-31.250,-36.133,-62.500,228.027
1689186027.193,-55.176,-28.809,-34.180,-38.086,-204.102
1689186027.197,-37.598,-31.738,-37.109,-35.156,-79.102
1689186027.201,-39.062,-30.762,-34.180,-53.711,30.762
1689186027.205,-47.852,-32.715,-32.227,-59.082,-90.332
1689186027.210,-43.457,-29.297,-32.715,-46.875,-236.328
1689186027.214,-24.414,-27.832,-18.066,-34.180,-63.965
1689186027.218,-8.789,-32.715,-20.508,-34.668,31.738
1689186027.222,-28.320,-29.785,-31.250,-37.109,-149.902
1689186027.226,-39.062,-30.273,-32.715,-28.809,-211.426
1689186027.230,-38.574,-35.645,-32.227,-46.875,-115.234
1689186027.234,-40.039,-34.180,-26.855,-52.246,-19.043
1689186027.237,-27.832,-30.762,-26.367,-39.062,-54.199
1689186027.241,-39.551,-33.691,-31.738,-29.297,-98.633
1689186027.245,-46.875,-32.715,-32.227,-30.762,119.629
1689186027.249,-45.898,-27.832,-36.621,-58.594,78.613
1689186027.253,-47.852,-34.180,-29.297,-42.480,-150.391
1689186027.267,-40.527,-37.109,-20.020,-11.230,-58.105
1689186027.271,-31.250,-27.832,-24.902,-17.578,57.129
1689186027.275,-30.273,-23.926,-33.203,-41.016,-16.602
1689186027.279,-45.898,-25.879,-30.762,-47.852,-166.992
1689186027.283,-41.016,-26.855,-27.832,-33.691,-55.664
1689186027.287,-21.484,-23.926,-29.785,-38.574,402.344
1689186027.291,-12.207,-22.461,-28.809,-25.879,233.398
1689186027.294,-18.066,-22.461,-41.504,-25.879,-187.012
1689186027.298,-36.133,-27.344,-39.062,-33.691,-84.473
1689186027.302,-39.062,-31.250,-24.414,-21.973,-6.836
1689186027.306,-23.926,-28.809,-23.438,-14.648,-192.383
1689186027.310,-17.578,-28.809,-26.367,-20.996,-184.082
1689186027.312,-32.227,-31.250,-26.855,-27.832,-109.375
1689186027.316,-54.199,-31.738,-28.809,-44.922,-129.395
1689186027.320,-32.715,-31.738,-28.320,-49.805,-186.523
1689186027.324,-15.625,-30.762,-37.109,-28.320,-80.078
1689186027.328,-33.203,-22.461,-42.480,-18.555,119.141
1689186027.332,-40.039,-20.508,-32.715,-28.320,65.430
1689186027.336,-59.082,-24.902,-29.297,-40.039,-6.348
1689186027.339,-52.246,-23.926,-27.832,-34.180,-86.914
1689186027.343,-19.531,-30.273,-27.832,-21.973,138.672
1689186027.347,-3.906,-35.645,-37.598,-13.184,192.383
1689186027.351,-8.789,-25.879,-44.922,-29.297,-161.133
1689186027.355,-33.203,-24.902,-40.039,-49.805,-151.367
1689186027.357,-41.992,-26.855,-29.297,-44.434,-140.137
1689186027.361,-32.715,-29.785,-22.949,-32.715,-165.039
1689186027.365,-26.855,-29.785,-27.832,-19.043,-79.590
1689186027.369,-31.738,-27.344,-30.762,-25.879,83.008
1689186027.373,-52.734,-31.250,-24.414,-44.922,134.766
1689186027.377,-58.105,-31.250,-24.902,-47.363,-54.688
1689186027.381,-2.930,-27.344,-35.645,-43.457,-126.953
1689186027.384,20.508,-33.691,-28.809,-22.949,155.273
1689186027.388,-28.809,-34.668,-26.367,-20.996,465.820
1689186027.392,-59.082,-29.297,-33.203,-41.016,76.172
1689186027.396,-60.059,-35.645,-28.320,-41.992,-253.906
1689186027.400,-31.250,-33.203,-26.855,-31.250,-134.766
1689186027.402,-7.324,-26.367,-24.902,-23.438,-125.977
1689186027.406,-15.137,-32.715,-21.973,-27.832,-158.691
1689186027.410,-46.875,-41.016,-22.461,-39.551,-127.441
1689186027.414,-61.035,-33.203,-31.738,-35.645,-83.496
1689186027.418,-35.156,-26.367,-37.598,-20.020,-102.539
1689186027.422,-13.672,-29.297,-38.574,-9.766,-45.898
1689186027.426,-25.879,-25.879,-31.738,-19.043,-15.137
1689186027.429,-40.527,-24.902,-26.855,-25.879,154.297
1689186027.433,-46.875,-22.949,-39.062,-44.434,172.363
1689186027.437,-31.738,-23.926,-35.156,-51.270,-152.344
1689186027.441,0.977,-26.855,-29.785,-26.367,-128.418
1689186027.445,5.371,-27.344,-31.250,-25.879,8.301
1689186027.447,-25.879,-33.691,-24.902,-40.527,-95.215
1689186027.451,-42.969,-33.203,-28.809,-41.504,-235.352
1689186027.455,-36.133,-26.367,-32.715,-44.434,-41.992
1689186027.459,-27.832,-24.414,-30.273,-24.902,132.812
1689186027.463,-15.137,-24.414,-32.715,-12.695,-30.273
1689186027.467,-24.414,-28.809,-39.062,-38.574,-103.516
1689186027.471,-50.781,-35.645,-44.922,-36.621,93.750
1689186027.474,-48.828,-37.598,-41.016,-27.832,354.980
1689186027.478,-31.250,-35.156,-29.785,-30.273,9.766
1689186027.482,-23.926,-40.039,-23.438,-34.180,-205.078
1689186027.486,-39.551,-40.527,-26.855,-49.316,-52.246
1689186027.490,-60.059,-35.156,-31.250,-45.898,-103.027
1689186027.494,-51.270,-37.109,-38.086,-24.902,-212.891
1689186027.498,-26.855,-34.180,-40.039,-33.203,-207.031
1689186027.502,-19.043,-34.180,-26.367,-41.016,-14.648
1689186027.506,-42.480,-47.852,-26.855,-30.273,25.879
1689186027.510,-59.570,-45.898,-32.715,-36.621,-153.809
1689186027.514,-55.664,-38.086,-21.973,-47.363,-141.113
1689186027.518,-40.039,-36.133,-20.020,-38.086,233.398
1689186027.521,-24.414,-27.832,-24.902,-28.320,219.727
1689186027.525,-24.414,-21.973,-33.203,-36.621,-174.805
1689186027.529,-49.316,-28.320,-41.016,-44.922,-164.551
1689186027.533,-61.523,-36.621,-41.504,-44.434,-124.023
1689186027.537,-33.691,-29.785,-39.551,-31.250,-123.535
1689186027.538,-24.902,-21.973,-31.250,-17.578,-96.680
1689186027.542,-37.109,-28.320,-31.738,-21.484,81.543
1689186027.546,-37.109,-29.297,-37.598,-51.758,185.547
1689186027.550,-43.945,-23.926,-42.969,-46.387,-19.531
1689186027.554,-39.062,-30.273,-47.852,-30.273,-193.848
1689186027.558,-20.508,-30.273,-41.504,-29.785,6.836
1689186027.562,-24.902,-24.902,-23.438,-34.668,571.777
1689186027.565,-49.316,-27.832,-15.625,-47.852,359.375
1689186027.569,-62.012,-26.367,-25.879,-52.246,-222.168
1689186027.573,-49.316,-32.227,-33.203,-51.758,-70.312
1689186027.577,-21.484,-37.109,-29.297,-23.926,0.977
1689186027.581,-20.996,-30.273,-24.902,-30.762,-194.824
1689186027.584,-54.199,-28.320,-29.785,-51.758,-199.219
1689186027.588,-70.312,-28.809,-31.250,-43.457,-166.992
1689186027.592,-43.945,-21.484,-30.762,-39.551,-167.480
1689186027.596,-9.766,-16.113,-38.574,-41.504,-120.117
1689186027.600,-24.414,-29.297,-41.992,-41.992,-74.219
1689186027.604,-62.012,-42.969,-34.180,-56.641,218.750
1689186027.608,-72.754,-47.852,-25.879,-55.664,249.512
1689186027.611,-59.570,-48.828,-22.461,-48.340,-144.531
1689186027.615,-36.133,-45.898,-24.902,-43.945,-151.367
1689186027.619,-32.715,-41.504,-25.879,-28.809,-19.531
1689186027.623,-56.152,-40.039,-26.367,-33.691,-116.699
1689186027.627,-56.641,-37.109,-26.367,-36.133,-228.516
1689186027.642,-33.691,-32.715,-26.855,-32.227,-87.402
1689186027.646,-12.695,-35.645,-23.438,-31.738,53.223
1689186027.650,-4.883,-38.574,-28.809,-22.461,39.062
1689186027.654,-20.996,-34.180,-34.668,-30.273,-45.898
1689186027.658,-51.758,-35.156,-31.250,-50.293,-61.035
1689186027.662,-52.246,-37.598,-29.297,-53.223,121.094
1689186027.666,-23.438,-35.156,-29.297,-32.715,24.414
1689186027.669,-15.625,-32.227,-27.832,-25.879,-128.418
1689186027.673,-27.832,-31.250,-17.090,-29.297,3.418
1689186027.677,-34.668,-28.809,-10.254,-22.949,212.891
1689186027.681,-29.297,-29.297,-15.137,-30.273,-31.250
1689186027.685,-20.020,-34.668,-17.578,-8.301,-220.703
1689186027.687,-9.277,-31.738,-21.484,-2.930,-78.125
1689186027.691,-14.160,-34.180,-27.344,-30.273,-37.598
1689186027.695,-38.086,-37.109,-26.367,-39.551,-128.418
1689186027.699,-44.434,-31.250,-29.785,-38.574,-123.047
1689186027.703,-31.738,-28.809,-35.645,-28.809,16.602
1689186027.707,-5.859,-30.273,-35.156,-15.625,128.906
1689186027.711,1.953,-25.879,-36.133,-23.926,94.727
1689186027.714,-31.738,-23.926,-40.527,-31.250,-75.684
1689186027.718,-38.574,-22.461,-29.297,-32.227,195.801
1689186027.722,-15.625,-21.484,-19.531,-27.344,340.332
1689186027.726,6.348,-26.367,-18.066,-9.277,-33.203
1689186027.730,-9.277,-24.414,-23.438,-18.066,-54.199
1689186027.733,-42.480,-22.949,-26.367,-41.992,-33.203
1689186027.737,-43.457,-21.484,-22.949,-40.527,-142.578
1689186027.741,-32.227,-22.461,-24.414,-26.367,-159.668
1689186027.745,-29.297,-29.785,-25.391,-15.625,20.508
1689186027.749,-36.621,-31.250,-25.391,-28.320,98.145
1689186027.753,-47.852,-32.227,-27.832,-51.758,-22.461
1689186027.757,-52.246,-32.715,-27.344,-52.246,-95.215
1689186027.760,-27.344,-26.367,-26.367,-42.969,-15.137
1689186027.764,-11.230,-27.832,-32.227,-27.832,128.906
1689186027.768,-26.855,-35.156,-34.668,-25.391,-71.777
1689186027.772,-43.457,-30.273,-36.621,-39.062,-270.508
1689186027.776,-50.293,-21.973,-47.852,-52.734,-179.199
1689186027.777,-38.574,-23.438,-40.039,-45.898,-143.066
1689186027.781,-10.742,-31.250,-18.555,-17.090,-224.609
1689186027.785,-13.672,-29.785,-18.066,-11.719,-187.012
1689186027.789,-36.621,-22.949,-28.809,-42.969,-102.051
1689186027.793,-29.297,-21.484,-34.668,-55.664,-161.133
1689186027.797,-29.785,-27.832,-29.297,-37.598,-169.434
1689186027.801,-33.691,-31.738,-23.438,-30.273,51.270
1689186027.804,-23.438,-34.180,-26.855,-18.555,146.484
1689186027.808,-33.203,-31.738,-29.785,-17.090,-20.020
1689186027.812,-46.387,-22.949,-27.832,-32.227,-215.820
1689186027.816,-45.898,-27.344,-28.320,-35.156,-168.457
1689186027.820,-26.367,-33.691,-31.250,-33.691,106.445
1689186027.823,-2.441,-24.902,-39.062,-27.344,64.941
1689186027.827,-12.207,-16.602,-45.410,-29.297,-78.613
1689186027.831,-54.199,-22.949,-20.996,-47.852,93.262
1689186027.835,-58.105,-32.227,-11.230,-27.832,238.770
1689186027.839,-12.207,-33.203,-19.531,10.742,16.113
1689186027.843,4.395,-28.320,-21.484,-10.254,-118.652
1689186027.847,-27.344,-30.273,-24.902,-30.762,107.910
1689186027.850,-65.430,-33.691,-27.832,-42.969,274.414
1689186027.854,-63.477,-34.668,-28.320,-71.289,-6.836
1689186027.858,-45.898,-35.645,-24.414,-57.617,-185.547
1689186027.862,-38.574,-29.297,-24.902,-29.297,-92.773
1689186027.866,-29.297,-23.926,-30.762,-31.250,-78.613
1689186027.882,-37.598,-31.738,-33.203,-28.809,-156.250
1689186027.886,-55.176,-34.180,-30.762,-18.555,-194.336
1689186027.890,-42.969,-28.809,-32.227,-36.133,-145.996
1689186027.894,-30.762,-32.715,-23.926,-52.246,-77.637
1689186027.898,-38.086,-33.203,-20.508,-43.457,-3.906
1689186027.902,-40.527,-29.785,-26.855,-45.898,-95.703
1689186027.906,-40.527,-32.227,-25.391,-40.527,175.781
1689186027.909,-36.621,-36.621,-34.668,-16.113,338.379
1689186027.913,-10.254,-33.203,-33.691,-10.254,-110.352
1689186027.917,-12.207,-24.414,-21.484,-16.113,-137.207
1689186027.921,-41.992,-27.344,-20.508,-20.996,-87.402
1689186027.925,-55.664,-39.062,-24.902,-41.016,-176.270
1689186027.912,-40.527,-36.621,-28.809,-51.758,-163.574
1689186027.916,-12.207,-28.320,-26.855,-26.367,13.184
1689186027.920,-18.066,-31.250,-22.461,-27.344,165.039
1689186027.924,-47.852,-32.227,-34.180,-47.363,-24.414
1689186027.928,-60.059,-27.344,-46.387,-50.781,-246.094
1689186027.932,-45.898,-29.785,-36.133,-44.922,-17.090
1689186027.936,-19.043,-29.297,-26.855,-19.043,262.207
1689186027.939,-18.066,-29.297,-27.832,-23.926,86.914
1689186027.943,-41.504,-32.227,-40.039,-53.711,-150.879
1689186027.947,-57.617,-31.250,-52.246,-58.105,-85.449
1689186027.951,-52.246,-29.297,-38.574,-40.039,221.191
1689186027.955,-26.367,-31.738,-25.879,-28.809,41.016
1689186027.959,-4.883,-33.203,-26.855,-34.668,-187.500
1689186027.963,-25.879,-33.203,-30.273,-41.504,-88.379
1689186027.967,-32.715,-33.203,-35.645,-37.109,-76.660
1689186027.971,-24.414,-28.320,-36.621,-28.809,-167.480
1689186027.975,-36.133,-27.832,-33.203,-20.508,-112.305
1689186027.979,-28.809,-28.809,-32.227,-37.109,75.195
1689186027.983,-40.039,-29.297,-33.691,-55.176,9.766
1689186027.986,-47.852,-24.414,-33.691,-55.176,-194.824
1689186027.990,-33.203,-20.996,-29.785,-52.246,-262.207
1689186027.994,-23.926,-29.785,-42.969,-30.762,200.195
1689186027.998,-15.625,-36.133,-54.199,-24.414,333.984
1689186028.002,-25.391,-38.086,-33.691,-34.180,-149.414
1689186028.017,-59.570,-35.645,-17.578,-37.109,-204.590
1689186028.021,-64.453,-30.762,-22.949,-41.504,-130.859
1689186028.025,-33.203,-28.809,-24.902,-45.410,-111.816
1689186028.029,-17.578,-28.320,-29.785,-40.039,-113.281
1689186028.033,-32.715,-28.320,-41.504,-48.828,-0.977
1689186028.037,-48.340,-28.809,-41.016,-53.223,251.465
1689186028.041,-46.387,-30.273,-32.715,-55.664,57.129
1689186028.044,-23.438,-28.809,-29.785,-40.039,-206.055
1689186028.048,-13.672,-27.344,-32.227,-14.160,7.324
1689186028.052,-21.973,-28.320,-27.832,-10.254,158.691
1689186028.056,-28.320,-29.785,-23.438,-11.230,-136.230
1689186028.060,-41.992,-39.062,-30.762,-32.227,-173.340
1689186028.062,-46.875,-39.551,-34.180,-44.922,48.828
1689186028.066,-25.391,-28.809,-37.109,-34.180,-8.301
1689186028.070,-18.555,-30.762,-39.551,-39.062,-161.133
1689186028.074,-49.316,-32.227,-30.762,-42.480,-201.172
1689186028.078,-67.871,-31.250,-25.391,-29.785,-156.250
1689186028.082,-47.363,-31.250,-29.297,-7.812,-37.598
1689186028.086,-26.367,-25.879,-25.879,16.602,9.277
1689186028.089,-14.160,-23.926,-20.508,-7.324,-111.816
1689186028.093,-31.738,-22.461,-19.531,-47.852,79.590
1689186028.097,-54.688,-30.762,-23.926,-48.340,155.762
1689186028.101,-46.875,-33.691,-25.879,-35.156,-148.926
1689186028.105,-37.109,-34.180,-21.973,-34.668,-46.387
1689186028.108,-33.691,-40.527,-20.508,-36.621,39.062
1689186028.112,-40.527,-36.133,-19.531,-35.156,-102.051
1689186028.116,-49.805,-32.227,-20.996,-40.039,-133.789
1689186028.120,-26.367,-32.227,-27.832,-23.438,9.277
1689186028.124,-11.230,-29.785,-35.645,-22.949,282.227
1689186028.128,-29.785,-27.832,-30.762,-39.062,215.820
1689186028.132,-47.363,-31.250,-27.344,-36.621,-65.918
1689186028.135,-58.105,-31.738,-30.762,-41.016,-49.316
1689186028.139,-49.805,-27.344,-32.227,-34.180,106.934
1689186028.143,-20.996,-27.344,-27.832,-3.418,-48.340
1689186028.147,-16.113,-35.645,-27.832,0.000,-151.367
1689186028.151,-32.227,-43.457,-32.715,-24.902,-116.699
1689186028.152,-35.156,-38.574,-26.855,-28.809,-186.035
1689186028.156,-40.527,-32.227,-18.066,-45.410,-253.418
1689186028.160,-22.949,-31.738,-11.719,-41.504,-169.922
1689186028.164,-9.277,-31.738,-14.648,-24.902,-67.871
1689186028.168,-32.227,-29.785,-18.555,-25.879,-3.906
1689186028.172,-46.875,-31.738,-25.879,-41.992,68.848
1689186028.176,-40.527,-39.551,-35.156,-54.199,-40.527
1689186028.179,-40.527,-41.016,-34.668,-44.922,196.289
1689186028.183,-23.926,-35.156,-24.902,-26.367,363.770
1689186028.187,-24.902,-32.227,-23.926,-29.297,-69.824
1689186028.191,-45.898,-30.762,-29.785,-33.691,-207.031
1689186028.195,-46.387,-26.855,-29.785,-37.598,-139.648
1689186028.197,-36.133,-36.133,-34.180,-36.621,-156.250
1689186028.201,-26.367,-42.969,-33.691,-25.879,-138.672
1689186028.205,-41.016,-36.621,-33.691,-36.621,20.996
1689186028.209,-56.641,-32.227,-34.668,-48.828,81.055
1689186028.213,-55.176,-26.367,-34.180,-41.992,-162.109
1689186028.217,-33.203,-25.879,-34.668,-21.973,-107.910
1689186028.221,-12.207,-26.367,-32.227,-23.438,136.719
1689186028.224,-29.785,-30.762,-37.598,-31.738,448.242
1689186028.228,-50.293,-36.133,-46.875,-40.039,211.426
1689186028.232,-52.246,-32.227,-39.062,-48.340,-269.043
1689186028.236,-47.852,-37.109,-23.926,-49.316,-200.684
1689186028.240,-30.762,-44.922,-27.344,-45.410,-105.469
1689186028.244,-20.508,-38.086,-29.297,-40.527,-110.352
1689186028.248,-28.809,-32.227,-29.785,-50.293,-160.645
1689186028.252,-49.805,-31.250,-36.621,-50.781,-143.555
1689186028.256,-52.246,-30.273,-41.504,-38.574,-112.305
1689186028.260,-26.367,-28.809,-36.621,-17.090,-102.051
1689186028.264,-11.230,-30.273,-34.180,-4.395,-55.664
1689186028.268,-26.855,-31.250,-31.738,-12.695,202.637
1689186028.271,-46.875,-38.086,-25.879,-38.574,143.555
1689186028.275,-35.156,-37.109,-27.832,-49.805,-234.375
1689186028.279,-4.395,-36.133,-31.250,-39.062,-125.488
1689186028.283,-2.930,-42.480,-31.738,-28.320,36.621
1689186028.287,-19.043,-37.109,-33.691,-14.648,-82.520
1689186028.287,-46.387,-33.203,-33.203,-31.250,-187.988
1689186028.291,-47.363,-29.297,-24.902,-33.691,-144.531
1689186028.295,-19.531,-26.855,-29.785,-16.602,28.320
1689186028.299,-24.902,-31.738,-35.156,-22.949,-7.324
1689186028.303,-45.898,-35.156,-23.438,-36.133,-163.086
1689186028.307,-52.246,-31.250,-17.090,-39.551,-7.324
1689186028.311,-45.898,-25.879,-19.531,-27.344,480.469
1689186028.314,-20.020,-26.855,-26.367,-32.227,299.316
1689186028.318,-10.254,-31.738,-29.785,-22.461,-153.320
1689186028.322,-30.762,-25.879,-29.785,-20.508,-127.441
1689186028.326,-48.828,-28.320,-34.180,-49.316,-127.441
1689186028.330,-36.133,-36.133,-30.273,-40.039,-191.895
1689186028.335,-9.277,-36.621,-21.484,-16.113,-153.809
1689186028.339,-8.789,-25.879,-21.484,-20.996,45.898
1689186028.343,-24.414,-17.090,-32.227,-34.668,-5.371
1689186028.347,-45.410,-21.484,-33.203,-39.062,-176.758
1689186028.351,-53.223,-26.855,-29.785,-49.316,-195.801
1689186028.355,-33.203,-31.738,-27.832,-39.062,-87.402
1689186028.359,-19.531,-36.621,-23.926,-28.320,36.133
1689186028.362,-20.996,-35.645,-26.367,-29.297,-32.715
1689186028.366,-32.227,-30.762,-35.156,-35.156,-146.484
1689186028.370,-44.434,-28.809,-37.109,-29.297,45.898
1689186028.374,-20.020,-27.832,-31.738,-11.230,112.793
1689186028.378,-2.441,-31.250,-31.738,-20.508,-70.801
1689186028.392,-26.855,-41.504,-28.809,-23.438,-29.785
1689186028.396,-48.828,-37.598,-27.344,-34.668,-12.207
1689186028.400,-46.387,-29.297,-32.227,-51.758,-79.590
1689186028.404,-36.133,-32.715,-34.180,-45.410,-130.371
1689186028.408,-17.578,-30.762,-34.180,-32.715,-44.434
1689186028.412,-11.719,-33.691,-30.762,-31.250,450.195
1689186028.416,-41.504,-40.527,-30.273,-42.969,439.941
1689186028.419,-60.059,-41.016,-29.785,-47.852,-179.199
1689186028.423,-41.992,-38.086,-22.949,-31.250,-187.012
1689186028.427,-18.066,-37.598,-18.555,-3.906,2.930
1689186028.431,-16.113,-38.086,-23.926,6.836,-126.465
1689186028.435,-32.715,-35.645,-29.785,-31.250,-163.574
1689186028.437,-42.480,-33.691,-28.320,-55.664,-132.812
1689186028.441,-30.762,-33.203,-29.297,-46.875,-129.883
1689186028.445,-10.254,-35.156,-39.062,-45.898,-129.395
1689186028.449,0.977,-32.227,-37.598,-26.367,-98.633
1689186028.453,-28.809,-28.809,-28.320,-34.668,-28.809
1689186028.457,-63.965,-31.738,-35.645,-56.641,-28.320
1689186028.461,-58.594,-31.738,-36.621,-50.293,-12.695
1689186028.464,-33.203,-31.250,-25.879,-33.203,-19.043
1689186028.468,-20.020,-34.668,-29.297,-21.973,191.895
1689186028.472,-30.273,-36.621,-32.227,-32.227,267.578
1689186028.476,-39.551,-33.203,-24.414,-33.203,-145.020
1689186028.480,-28.809,-28.320,-25.879,-26.855,-211.426
1689186028.482,-9.766,-30.273,-33.691,-18.066,-104.004
1689186028.486,-7.812,-34.180,-25.879,-19.043,-67.871
1689186028.490,-20.020,-31.250,-15.625,-27.832,-109.375
1689186028.494,-39.551,-29.785,-24.902,-53.711,-42.480
1689186028.498,-43.457,-25.391,-30.273,-57.617,106.934
1689186028.502,-20.996,-28.320,-34.668,-35.645,87.891
1689186028.506,-14.648,-30.273,-40.527,-25.879,6.836
1689186028.509,-23.438,-23.926,-32.715,-14.648,62.988
1689186028.513,-39.062,-24.414,-26.367,-13.672,343.750
1689186028.517,-42.969,-27.344,-24.414,-36.133,75.195
1689186028.521,-26.367,-30.273,-25.879,-25.391,-249.512
1689186028.525,-17.578,-28.320,-30.762,0.000,-118.652
1689186028.527,-34.180,-29.297,-31.250,-27.832,-126.465
1689186028.531,-54.688,-35.156,-40.039,-62.012,-237.305
1689186028.535,-49.805,-33.203,-42.480,-61.035,-230.957
1689186028.539,-22.949,-27.344,-37.109,-46.387,-147.461
1689186028.543,-4.395,-27.832,-27.832,-25.391,-33.203
1689186028.547,-21.484,-28.320,-20.508,-18.555,17.578
1689186028.551,-35.156,-25.391,-28.320,-27.344,-45.898
1689186028.554,-38.574,-27.344,-26.855,-31.250,118.164
1689186028.558,-28.809,-27.344,-22.949,-29.297,109.375
1689186028.562,-1.953,-22.461,-29.785,-10.742,-167.480
1689186028.566,-9.766,-23.438,-36.133,-6.348,-80.078
1689186028.570,-40.527,-24.414,-36.621,-15.137,-7.812
1689186028.572,-45.410,-23.926,-22.949,-19.043,-139.160
1689186028.576,-31.250,-33.203,-12.207,-20.020,-208.008
1689186028.580,-23.926,-41.992,-22.461,-24.902,-25.391
1689186028.584,-39.062,-33.691,-30.762,-27.344,180.664
1689186028.588,-56.152,-25.879,-31.250,-35.645,8.301
1689186028.592,-59.570,-30.762,-34.668,-54.688,-45.410
1689186028.596,-45.898,-28.320,-36.133,-52.246,90.332
1689186028.599,-31.738,-23.926,-29.785,-35.645,255.371
1689186028.603,-33.691,-30.273,-27.832,-34.180,43.945
1689186028.607,-35.645,-32.715,-25.879,-49.316,-220.215
1689186028.611,-42.969,-33.203,-20.996,-50.293,-148.926
1689186028.615,-29.785,-29.297,-30.762,-35.645,-125.977
1689186028.620,0.488,-23.926,-36.621,-18.555,-72.266
1689186028.624,-3.906,-26.367,-36.621,0.000,-40.039
1689186028.628,-27.832,-29.785,-31.738,-22.461,-13.672
1689186028.632,-47.363,-31.738,-21.484,-42.969,-70.312
1689186028.636,-52.734,-21.973,-23.438,-35.645,-178.223
1689186028.640,-29.785,-15.625,-25.391,-26.855,-51.758
1689186028.644,-13.672,-22.949,-30.273,-11.719,294.922
1689186028.647,-24.414,-26.855,-35.156,-23.438,237.305
1689186028.651,-49.316,-25.879,-26.855,-34.668,-187.500
1689186028.655,-51.270,-25.391,-24.902,-28.320,-204.590
1689186028.659,-26.367,-26.855,-25.391,-19.531,-96.680
1689186028.663,-9.766,-26.855,-26.855,-33.691,-82.520
1689186028.662,-25.879,-35.645,-27.832,-45.410,-129.395
1689186028.666,-47.363,-34.180,-20.996,-46.387,-135.254
1689186028.670,-46.875,-27.832,-23.926,-56.641,-46.875
1689186028.674,-30.762,-29.297,-28.809,-44.922,22.949
1689186028.678,-17.578,-30.273,-30.762,-20.020,-36.621
1689186028.682,-29.785,-32.715,-30.762,-19.531,102.051
1689186028.686,-48.340,-34.180,-25.391,-34.180,504.395
1689186028.689,-52.734,-31.738,-30.273,-29.785,360.352
1689186028.693,-33.203,-29.297,-37.598,-19.043,-111.816
1689186028.697,-3.906,-28.320,-26.855,-22.949,-129.395
1689186028.701,-10.254,-20.508,-15.137,-24.902,-124.512
1689186028.705,-42.969,-23.438,-15.137,-45.410,-177.734
1689186028.712,-54.199,-29.297,-12.695,-54.688,-220.703
1689186028.716,-38.574,-21.484,-24.414,-35.645,-206.543
1689186028.720,-15.137,-21.484,-33.203,-32.715,-128.906
1689186028.724,-15.137,-24.414,-22.461,-35.645,-173.340
1689186028.728,-29.785,-24.414,-25.391,-31.738,-203.125
1689186028.732,-40.527,-31.250,-27.832,-25.879,-63.477
1689186028.736,-29.297,-27.832,-28.320,-13.672,2.441
1689186028.739,-6.836,-19.531,-39.062,-14.160,-12.207
1689186028.743,-11.230,-23.926,-32.715,-37.109,2.930
1689186028.747,-28.320,-30.762,-19.043,-40.527,3.418
1689186028.751,-43.457,-27.832,-26.855,-37.598,-3.418
1689186028.755,-34.180,-23.438,-27.832,-42.480,-108.398
1689186028.767,-11.230,-19.043,-14.648,-20.508,-108.887
1689186028.771,-11.719,-22.949,-13.672,-14.160,-12.695
1689186028.775,-28.320,-26.367,-24.414,-34.668,-51.270
1689186028.779,-56.641,-28.320,-29.785,-49.805,-128.418
1689186028.783,-65.430,-30.273,-26.367,-49.805,-82.520
1689186028.787,-48.828,-32.227,-24.902,-52.246,361.328
1689186028.791,-43.945,-36.133,-31.250,-51.270,587.891
1689186028.794,-49.805,-31.738,-32.715,-50.293,129.395
1689186028.798,-58.105,-32.715,-33.691,-52.246,-102.539
1689186028.802,-39.062,-35.156,-32.227,-42.480,-47.852
1689186028.806,-14.160,-30.762,-27.344,-37.598,-221.191
1689186028.810,-27.832,-27.832,-29.297,-31.738,-220.215
1689186028.814,-48.340,-29.785,-28.320,-32.227,-155.273
1689186028.818,-48.828,-30.273,-25.391,-45.410,-150.391
1689186028.822,-33.203,-26.855,-22.461,-32.715,-199.707
1689186028.826,-18.066,-28.320,-18.555,-11.719,-140.137
1689186028.830,-11.230,-22.949,-18.555,-17.090,-37.109
1689186028.834,-26.367,-17.578,-39.062,-31.250,-0.488
1689186028.838,-47.363,-28.809,-37.109,-41.504,14.648
1689186028.841,-39.551,-33.203,-16.602,-37.598,-51.270
1689186028.845,-21.973,-29.785,-19.531,-12.695,142.090
1689186028.849,-13.184,-28.809,-25.879,-18.066,192.871
1689186028.853,-24.414,-28.320,-30.273,-48.828,-104.492
1689186028.857,-46.875,-26.855,-35.156,-54.199,-90.820
1689186028.857,-49.316,-35.645,-35.645,-42.969,-18.555
1689186028.861,-31.250,-37.598,-40.527,-29.297,-60.059
1689186028.865,-21.484,-31.250,-50.781,-19.531,-79.590
1689186028.869,-11.719,-33.203,-42.480,-26.855,-78.613
1689186028.873,-25.879,-32.715,-26.367,-35.645,-95.215
1689186028.877,-57.617,-29.785,-21.973,-40.039,-116.699
1689186028.881,-54.688,-32.715,-23.926,-42.480,-121.094
1689186028.884,-41.016,-30.762,-23.926,-22.949,-11.719
1689186028.888,-42.969,-33.203,-23.438,-14.648,327.637
1689186028.892,-42.480,-36.133,-22.949,-30.273,132.324
1689186028.896,-52.734,-21.484,-40.039,-53.223,-279.297
1689186028.900,-52.246,-18.066,-46.387,-57.617,-199.707
1689186028.919,-25.879,-21.484,-38.086,-51.758,-145.996
1689186028.923,-18.066,-20.996,-40.527,-42.969,-94.727
1689186028.927,-28.809,-13.672,-41.992,-44.434,-149.414
1689186028.931,-49.316,-15.625,-41.992,-64.941,-118.164
1689186028.935,-33.203,-28.320,-35.156,-56.641,-70.312
1689186028.939,-20.508,-23.438,-36.133,-52.246,-105.957
1689186028.943,-25.391,-21.484,-48.828,-47.852,-47.852
1689186028.946,-41.504,-24.902,-58.105,-36.621,206.543
1689186028.950,-59.570,-27.344,-43.945,-31.738,145.508
1689186028.954,-55.664,-26.367,-40.039,-37.109,-188.965
1689186028.958,-35.645,-20.508,-51.270,-50.293,-152.344
1689186028.962,-28.809,-17.090,-61.035,-45.898,-104.980
1689186028.947,-34.668,-20.996,-59.082,-48.340,-166.992
1689186028.951,-32.715,-24.902,-40.527,-46.387,-265.625
1689186028.955,-32.227,-19.531,-54.688,-32.715,-144.043
1689186028.959,-20.508,-17.578,-33.691,-20.020,92.285
1689186028.963,-16.113,-21.973,-5.371,-25.879,17.578
1689186028.967,-40.039,-22.461,-7.324,-36.133,-103.027
1689186028.971,-51.270,-23.926,-13.672,-43.457,92.285
1689186028.974,-46.875,-33.203,-17.578,-56.641,85.938
1689186028.978,-37.109,-38.086,-23.438,-53.223,-145.020
1689186028.982,-24.902,-29.785,-51.758,-29.785,-149.902
1689186028.986,-38.086,-30.762,-31.250,-30.273,12.695
1689186028.990,-61.035,-34.180,-0.977,-41.016,294.922
1689186028.994,-52.734,-33.203,-16.602,-48.340,71.289
1689186028.998,-23.926,-20.996,-22.461,-38.574,-169.922
1689186029.002,-8.789,-12.695,-27.832,-14.648,-62.988
1689186029.006,-13.672,-15.625,-42.969,-8.789,-122.070
1689186029.010,-28.809,-16.602,-42.969,-23.438,-225.586
1689186029.014,-35.645,-27.344,-25.391,-32.715,-275.879
1689186029.018,-33.203,-36.621,-8.789,-31.738,111.328
1689186029.021,-20.020,-36.621,-21.973,-31.738,277.344
1689186029.025,-18.555,-35.645,-35.156,-41.016,-103.516
1689186029.029,-41.016,-37.109,-24.414,-41.504,-159.180
1689186029.033,-29.785,-38.574,-22.949,-37.109,-89.355
1689186029.037,2.441,-30.273,-28.320,-35.156,-132.324
1689186029.052,-13.672,-24.414,-24.902,-35.156,-133.301
1689186029.056,-35.156,-25.391,-26.855,-45.410,-57.129
1689186029.060,-24.414,-21.484,-33.203,-25.391,-26.367
1689186029.064,-23.438,-22.949,-37.109,-10.254,-44.434
1689186029.068,-20.020,-30.762,-29.297,-14.648,-149.414
1689186029.072,-0.977,-27.832,-30.273,1.953,-18.555
1689186029.076,0.977,-23.438,-35.156,21.484,479.980
1689186029.079,-22.461,-25.879,-34.180,27.344,326.660
1689186029.083,-28.809,-27.344,-32.715,-1.465,-137.695
1689186029.087,1.465,-28.809,-25.391,-14.648,-50.293
1689186029.091,41.016,-27.832,-28.320,2.930,9.277
1689186029.095,31.250,-24.414,-47.363,3.418,-119.141
1689186029.084,-22.461,-29.297,-43.945,-2.930,-186.035
1689186029.088,-41.504,-32.715,-16.113,-20.508,-166.504
1689186029.092,-19.043,-28.320,-14.160,-28.809,-152.344
1689186029.096,-7.812,-28.809,-13.184,-17.578,-149.902
1689186029.100,-17.090,-31.738,-12.207,1.953,-42.969
1689186029.104,-20.996,-30.273,-40.039,-12.695,125.488
1689186029.108,-34.668,-27.832,-49.805,-17.090,86.426
1689186029.111,-25.391,-29.785,-37.109,-23.926,-70.801
1689186029.115,6.348,-30.762,-31.738,-31.250,-88.379
1689186029.119,-7.324,-37.109,-10.254,-13.184,257.812
1689186029.123,-39.551,-41.504,-6.836,-24.902,282.715
1689186029.127,-43.457,-32.715,-19.043,-46.387,-108.887
1689186029.142,-31.738,-27.344,-36.133,-45.898,-116.699
1689186029.146,-7.812,-26.855,-41.016,-18.555,6.348
1689186029.150,-3.418,-32.227,-29.785,0.000,37.598
1689186029.154,-22.461,-33.203,-26.367,-13.672,-48.340
1689186029.158,-37.598,-33.691,-35.645,-29.785,15.137
1689186029.162,-46.387,-41.016,-42.480,-34.668,377.930
1689186029.166,-39.062,-44.434,-41.016,-37.598,253.906
1689186029.169,-24.902,-40.527,-42.480,-26.855,-92.285
1689186029.173,-24.902,-40.527,-31.250,-18.066,-4.395
1689186029.177,-46.387,-47.852,-27.832,-43.457,91.797
1689186029.181,-44.434,-40.039,-33.691,-58.594,-95.703
1689186029.185,-26.855,-30.762,-38.574,-40.527,-135.254
1689186029.187,-13.672,-30.762,-44.922,-22.461,-66.406
1689186029.191,-19.043,-28.320,-41.016,-32.715,19.531
1689186029.195,-41.992,-23.438,-36.621,-55.176,-69.336
1689186029.199,-35.156,-22.949,-61.035,-49.805,-196.289
1689186029.203,-23.438,-31.738,-50.293,-23.926,-36.133
1689186029.207,-32.715,-40.039,-27.832,-19.043,80.566
1689186029.211,-25.879,-31.250,-41.504,-31.250,71.289
1689186029.214,-41.016,-31.738,-28.320,-50.293,-65.918
1689186029.218,-76.172,-39.062,-11.719,-57.129,47.363
1689186029.222,-71.289,-37.598,-12.695,-60.059,83.496
1689186029.226,-43.945,-36.133,-19.531,-56.152,-228.027
1689186029.230,-34.180,-34.668,-25.879,-35.645,-146.484
1689186029.232,-54.199,-29.785,-38.574,-41.992,-106.445
1689186029.236,-69.336,-25.391,-48.340,-62.012,-181.152
1689186029.240,-51.270,-25.879,-34.668,-43.945,-127.441
1689186029.244,-26.367,-28.320,-30.762,-20.020,49.316
1689186029.248,-35.156,-24.902,-38.086,-25.391,300.781
1689186029.252,-59.570,-24.902,-28.809,-58.105,191.406
1689186029.256,-54.199,-27.344,-27.344,-66.406,-141.113
1689186029.259,-44.434,-30.273,-36.133,-31.738,-83.984
1689186029.263,-33.691,-34.180,-35.645,-17.090,121.582
1689186029.267,-33.691,-29.297,-29.785,-33.691,-57.129
1689186029.271,-46.387,-23.926,-21.484,-39.551,-211.426
1689186029.275,-53.711,-21.973,-22.949,-55.664,-205.566
1689186029.277,-44.434,-26.855,-25.879,-69.336,-186.035
1689186029.281,-30.273,-34.668,-28.809,-49.805,-121.582
1689186029.285,-23.438,-26.855,-35.645,-24.902,-106.445
1689186029.289,-34.668,-23.926,-41.992,-37.598,-80.566
1689186029.293,-52.246,-41.992,-45.410,-60.547,-89.355
1689186029.297,-50.781,-38.086,-40.039,-59.082,-70.312
1689186029.301,-23.438,-30.762,-33.691,-38.574,-9.766
1689186029.304,-17.090,-36.621,-29.297,-23.926,330.566
1689186029.308,-26.367,-33.691,-24.414,-26.855,394.043
1689186029.312,-36.133,-28.320,-28.809,-43.457,-91.309
1689186029.316,-44.434,-28.320,-26.367,-51.270,-266.113
1689186029.320,-13.672,-29.785,-25.879,-34.668,-161.621
1689186029.322,-16.113,-24.902,-35.645,-3.906,-57.617
1689186029.326,-46.875,-28.809,-20.020,-3.906,-84.961
1689186029.330,-47.852,-33.203,-11.230,-27.832,77.148
1689186029.334,-48.828,-33.203,-22.461,-45.410,168.457
1689186029.338,-39.551,-37.598,-25.391,-42.969,-101.562
1689186029.342,-20.508,-39.062,-27.832,-12.207,-78.613
1689186029.346,-28.809,-33.691,-28.809,-18.066,134.766
1689186029.349,-47.852,-25.879,-35.156,-47.852,182.129
1689186029.353,-41.016,-28.809,-42.480,-60.547,-0.488
1689186029.357,-28.809,-37.598,-33.203,-47.852,-60.059
1689186029.361,-14.160,-29.297,-29.297,-20.996,66.895
1689186029.365,-16.602,-26.855,-33.691,-10.254,82.520
1689186029.368,-49.316,-30.273,-24.902,-33.203,-159.180
1689186029.372,-58.105,-20.508,-21.973,-53.223,-256.348
1689186029.376,-38.086,-17.090,-33.203,-42.480,-103.027
1689186029.380,-26.367,-21.484,-47.852,-25.879,-57.129
1689186029.384,-19.043,-27.344,-39.062,-23.926,-80.566
1689186029.388,-33.691,-29.785,-26.367,-32.715,-45.898
1689186029.392,-54.199,-33.203,-31.738,-40.039,217.285
1689186029.395,-34.668,-33.691,-26.855,-29.297,245.605
1689186029.399,-13.672,-28.320,-16.113,-2.441,-145.020
1689186029.403,-23.438,-31.250,-23.926,-14.648,-138.184
1689186029.407,-40.039,-35.645,-21.973,-52.246,-98.145
1689186029.411,-54.199,-31.250,-15.137,-60.547,-95.703
1689186029.413,-46.387,-26.855,-27.832,-45.410,-134.766
1689186029.417,-20.020,-31.738,-37.109,-27.344,-96.191
1689186029.421,-17.090,-35.156,-51.270,-17.090,179.688
1689186029.425,-35.156,-29.785,-47.852,-36.133,65.430
1689186029.429,-55.176,-23.438,-22.949,-72.266,-185.547
1689186029.433,-51.758,-28.809,-22.461,-75.684,-17.578
1689186029.437,-21.973,-34.180,-27.344,-40.527,398.926
1689186029.440,-0.488,-29.785,-30.273,-12.695,226.562
1689186029.444,-9.766,-33.691,-36.621,-23.926,-189.453
1689186029.448,-52.246,-38.574,-32.227,-44.434,-150.391
1689186029.452,-49.805,-30.762,-15.137,-34.180,-111.816
1689186029.456,-5.859,-29.297,-29.297,-8.301,-164.551
1689186029.460,4.395,-42.480,-52.246,1.465,-119.141
1689186029.464,-28.809,-31.738,-71.289,-23.926,-72.266
1689186029.468,-47.363,-23.926,-52.246,-34.668,-123.535
1689186029.472,-33.203,-32.715,12.695,-30.273,-188.477
1689186029.476,-14.648,-34.180,13.184,-24.414,-162.109
1689186029.480,0.000,-24.414,-8.789,-16.113,170.898
1689186029.484,-8.301,-16.602,-12.207,-16.113,284.180
1689186029.487,-35.645,-19.531,-27.344,-28.809,-77.148
1689186029.491,-47.852,-27.832,-40.039,-47.363,-199.707
1689186029.495,-30.273,-26.367,-33.203,-35.156,-46.875
1689186029.499,-19.531,-23.926,-34.180,-23.438,17.090
1689186029.503,-26.367,-25.391,-51.758,-40.527,-83.496
1689186029.517,-46.875,-27.832,-54.199,-47.852,-99.609
1689186029.521,-53.223,-30.273,-31.250,-45.410,-98.145
1689186029.525,-23.438,-33.203,-24.414,-46.387,-45.410
1689186029.529,-12.695,-38.086,-28.809,-25.879,-19.043
1689186029.533,-19.531,-32.715,-36.621,-19.531,42.480
1689186029.537,-30.273,-20.508,-34.668,-24.902,393.555
1689186029.541,-55.176,-32.227,-24.414,-35.645,312.012
1689186029.544,-55.664,-43.457,-20.508,-49.805,-141.602
1689186029.548,-32.715,-39.551,-23.438,-28.320,-104.492
1689186029.552,-25.391,-34.180,-28.809,-19.531,2.441
1689186029.556,-41.016,-25.879,-27.832,-39.551,-187.012
1689186029.560,-47.852,-37.109,-24.414,-54.199,-220.703
1689186029.562,-33.691,-40.527,-27.344,-36.621,-145.996
1689186029.566,-26.367,-35.645,-35.156,-11.230,-91.797
1689186029.570,-26.367,-34.668,-36.133,-16.113,-102.051
1689186029.574,-41.016,-25.879,-27.344,-37.109,-117.188
1689186029.578,-41.016,-20.020,-20.996,-43.457,-129.395
1689186029.582,-19.531,-26.367,-26.855,-26.367,-103.027
1689186029.586,-21.973,-34.180,-30.273,-12.695,-56.641
1689186029.589,-35.645,-38.574,-21.973,-27.344,3.906
1689186029.593,-38.086,-39.551,-29.297,-41.504,246.094
1689186029.597,-40.039,-31.738,-34.668,-35.645,283.203
1689186029.601,-40.527,-28.809,-18.555,-37.598,-115.234
1689186029.605,-27.344,-33.691,-23.438,-26.855,-208.008
1689186029.607,-15.137,-29.785,-39.062,-12.207,-99.121
1689186029.611,-19.531,-26.855,-39.062,-25.879,-146.484
1689186029.615,-41.504,-31.738,-37.598,-45.410,-105.469
1689186029.619,-52.246,-32.715,-30.762,-41.992,41.504
1689186029.623,-28.809,-26.367,-18.555,-28.320,115.723
1689186029.627,-20.996,-29.297,-12.695,-31.738,70.312
1689186029.631,-31.738,-32.227,-15.625,-24.414,-19.531
1689186029.634,-28.320,-27.832,-36.621,-26.855,6.836
1689186029.638,-28.320,-29.297,-41.504,-57.617,175.293
1689186029.642,-23.926,-29.297,-26.855,-59.570,46.387
1689186029.646,-25.391,-26.855,-26.855,-33.691,-131.836
1689186029.650,-49.316,-31.250,-23.926,-28.320,-30.273
1689186029.652,-60.547,-33.691,-24.902,-42.969,-41.504
1689186029.656,-39.551,-27.344,-36.133,-34.668,-199.707
1689186029.660,-21.973,-24.902,-40.039,-20.020,-175.781
1689186029.664,-15.137,-30.762,-38.574,-31.738,-105.469
1689186029.668,-39.062,-38.086,-37.109,-47.852,-80.566
1689186029.672,-48.340,-32.715,-30.273,-49.316,-14.648
1689186029.676,-41.992,-25.879,-27.344,-35.156,-26.855
1689186029.679,-27.344,-27.832,-27.832,-20.996,149.414
1689186029.683,-15.625,-31.250,-22.461,-15.137,241.211
1689186029.687,-23.438,-26.855,-25.879,-26.855,-93.262
1689186029.691,-35.645,-23.438,-34.180,-33.203,-170.898
1689186029.695,-33.203,-28.320,-33.691,-21.484,-118.164
1689186029.697,-12.207,-40.039,-33.691,-22.461,-69.824
1689186029.701,-20.996,-45.898,-24.902,-15.137,-102.539
1689186029.705,-38.086,-36.133,-14.648,-15.625,-1.465
1689186029.709,-59.082,-38.574,-23.438,-45.410,233.398
1689186029.713,-75.684,-49.316,-34.668,-50.293,17.090
1689186029.717,-44.922,-40.039,-34.180,-44.434,-190.918
1689186029.721,-23.438,-29.297,-29.297,-43.945,22.949
1689186029.724,-31.250,-23.926,-25.879,-39.551,200.684
1689186029.728,-44.922,-20.996,-34.180,-52.734,-49.805
1689186029.732,-51.270,-22.461,-46.387,-40.527,-240.723
1689186029.736,-38.086,-21.484,-41.504,-20.508,-140.137
1689186029.740,-16.113,-20.996,-31.250,-20.020,-95.215
1689186029.760,-4.883,-32.227,-33.691,-20.508,-106.445
1689186029.764,-21.484,-39.551,-40.527,-43.945,-129.883
1689186029.768,-52.734,-38.086,-38.086,-59.082,-102.051
1689186029.772,-59.082,-38.086,-40.039,-64.941,-88.867
1689186029.776,-41.992,-30.762,-39.551,-49.316,-93.750
1689186029.780,-18.555,-31.250,-21.973,-29.297,0.000
1689186029.784,-27.344,-29.297,-17.090,-31.738,281.738
1689186029.787,-50.293,-24.414,-26.855,-31.250,312.988
1689186029.791,-32.227,-28.320,-31.738,-35.156,-139.648
1689186029.795,-21.973,-30.762,-34.668,-30.273,-207.031
1689186029.799,-20.020,-28.320,-37.598,-22.461,-75.195
1689186029.803,-38.086,-27.832,-37.598,-12.695,-126.953
1689186029.787,-57.129,-25.391,-29.297,-26.367,-233.398
1689186029.791,-48.340,-26.367,-22.461,-45.410,-154.785
1689186029.795,-23.438,-29.785,-18.555,-29.297,37.598
1689186029.799,-3.906,-32.715,-17.090,-27.832,-15.625
1689186029.803,-15.137,-32.715,-27.832,-48.340,-85.449
1689186029.807,-30.273,-27.344,-29.297,-44.922,20.996
1689186029.811,-38.574,-27.344,-25.391,-40.527,83.008
1689186029.814,-35.156,-31.250,-24.902,-45.410,3.418
1689186029.818,-17.578,-27.344,-27.344,-40.527,-103.027
1689186029.822,-36.133,-28.809,-40.527,-23.926,-2.930
1689186029.826,-68.848,-29.297,-35.156,-29.785,358.887
1689186029.830,-70.801,-24.902,-21.484,-50.781,255.859
1689186029.834,-41.504,-24.414,-31.738,-40.039,-122.070
1689186029.838,-25.879,-26.367,-33.691,-32.227,-114.746
1689186029.842,-44.434,-31.250,-27.832,-30.273,-82.520
1689186029.846,-48.828,-33.203,-38.574,-36.133,-182.617
1689186029.850,-41.992,-32.715,-38.574,-34.180,-235.352
1689186029.854,-34.668,-30.762,-17.578,-7.324,-41.992
1689186029.858,-8.301,-31.738,-16.113,-11.719,43.945
1689186029.861,-14.648,-28.809,-25.879,-28.320,0.000
1689186029.865,-61.523,-26.367,-30.273,-41.992,-76.172
1689186029.869,-58.105,-29.297,-33.203,-57.129,77.637
1689186029.873,-31.738,-31.738,-23.438,-38.086,176.758
1689186029.877,-17.578,-31.250,-17.578,-19.043,-110.352
1689186029.892,-14.648,-22.949,-24.902,-32.715,-84.961
1689186029.896,-26.855,-15.137,-48.828,-34.668,-81.543
1689186029.900,-46.875,-21.484,-45.410,-39.551,-104.492
1689186029.904,-52.246,-27.832,-16.113,-50.781,-149.902
1689186029.908,-33.203,-27.832,-17.090,-32.715,-82.520
1689186029.912,-24.414,-20.508,-18.555,-11.719,272.949
1689186029.916,-24.414,-18.066,-30.762,-10.742,83.008
1689186029.919,-35.645,-24.902,-33.203,-20.508,-270.996
1689186029.923,-41.016,-27.832,-26.367,-33.691,-55.664
1689186029.927,-35.156,-28.809,-30.762,-30.273,161.621
1689186029.931,-38.086,-23.926,-29.297,-37.109,-18.066
1689186029.935,-48.828,-20.020,-46.875,-36.133,-182.617
1689186029.937,-59.570,-24.414,-42.480,-45.410,-127.930
1689186029.941,-35.645,-23.926,-14.160,-53.223,-98.145
1689186029.945,-15.137,-22.949,-14.160,-31.738,-171.387
1689186029.949,-21.973,-29.297,-19.531,-25.391,-159.180
1689186029.953,-38.086,-34.180,-29.785,-37.598,27.344
1689186029.957,-41.504,-30.273,-39.551,-40.527,5.859
1689186029.961,-27.832,-20.508,-40.039,-31.250,-109.863
1689186029.964,-16.602,-19.531,-24.414,-14.160,-130.371
1689186029.968,-20.020,-26.367,-13.184,-13.184,168.457
1689186029.972,-24.902,-26.367,-16.602,-16.602,267.578
1689186029.976,-30.273,-23.438,-42.969,-20.996,-140.625
1689186029.980,-34.668,-32.227,-57.617,-38.574,-156.250
1689186029.983,-22.461,-39.062,-26.855,-35.645,17.090
1689186029.987,-22.949,-31.250,-11.230,-34.180,-41.016
1689186029.991,-39.551,-27.832,-22.461,-32.227,-103.516
1689186029.995,-50.293,-33.203,-33.203,-41.992,-13.184
1689186029.999,-44.434,-29.785,-34.180,-49.316,185.059
1689186030.003,-21.484,-20.996,-31.250,-15.625,187.500
1689186030.007,-12.695,-22.949,-45.898,-1.465,-45.898
1689186030.010,-52.734,-35.645,-34.668,-44.922,-38.086
1689186030.014,-86.426,-41.992,-1.465,-86.914,179.199
1689186030.018,-75.195,-37.598,-4.395,-84.473,-18.555
1689186030.022,-59.570,-38.574,-33.691,-82.520,-204.102
1689186030.026,-75.684,-43.457,-68.848,-86.426,-83.008
1689186030.027,-87.402,-32.227,-55.664,-92.285,-139.648
1689186030.031,-117.188,-26.855,-27.832,-125.977,-217.773
1689186030.035,-147.949,-50.781,-27.832,-145.508,-147.949
1689186030.039,-132.812,-59.082,-27.832,-134.277,22.461
1689186030.043,-121.094,-59.082,-50.781,-127.930,54.199
1689186030.047,-132.324,-69.336,-57.617,-126.465,55.176
1689186030.051,-139.648,-52.734,-9.277,-131.836,9.277
1689186030.054,-135.742,-16.602,1.953,-156.250,144.043
1689186030.058,-121.094,7.324,-27.344,-142.090,143.555
1689186030.062,-113.281,-5.859,-49.316,-110.840,-150.391
1689186030.066,-92.285,-9.277,-37.598,-104.004,-111.816
1689186030.070,-120.605,-15.137,-2.441,-118.652,-123.535
1689186030.072,-142.578,-26.855,-8.301,-104.980,-218.262
1689186030.076,-108.398,-34.668,-11.719,-97.168,-247.070
1689186030.080,-91.309,-42.480,-4.395,-103.516,-41.504
1689186030.084,-74.707,-43.457,-20.996,-90.332,193.848
1689186030.088,-90.820,-48.340,-26.855,-112.305,-14.648
1689186030.092,-91.309,-48.340,-19.043,-102.539,-135.254
1689186030.096,-68.359,-46.387,-19.531,-75.684,49.805
1689186030.099,-50.293,-46.387,-18.555,-43.945,434.570
1689186030.103,-34.668,-45.410,-14.648,-37.109,231.445
1689186030.107,-46.875,-43.457,-18.066,-55.176,-202.637
1689186030.111,-62.988,-39.551,-25.391,-43.945,-177.246
1689186030.115,-69.824,-37.598,-31.250,-46.387,-162.598
1689186030.119,-54.688,-40.039,-23.926,-58.105,-157.227
1689186030.123,-31.250,-43.945,-17.578,-56.152,-106.445
1689186030.127,-37.109,-37.109,-22.949,-52.734,-59.082
1689186030.131,-55.664,-35.156,-20.996,-46.387,-101.562
1689186030.135,-55.176,-45.410,-21.484,-38.086,-129.395
1689186030.139,-53.223,-50.293,-52.734,-41.016,-29.785
1689186030.143,-23.926,-30.273,-35.645,-32.227,309.082
1689186030.146,-11.230,-8.301,18.555,-26.367,320.801
1689186030.150,-48.828,-11.230,5.859,-48.828,-142.090
1689186030.154,-44.434,-17.090,-19.531,-47.852,-271.973
1689186030.158,-43.945,-32.715,-7.812,-45.410,-102.051
1689186030.162,-66.406,-33.203,8.301,-70.801,-62.988
1689186030.162,-77.148,-20.996,19.043,-86.426,-151.367
1689186030.166,-106.934,-20.996,32.227,-99.609,-117.188
1689186030.170,-157.227,-26.367,45.410,-143.066,-22.949
1689186030.174,-176.758,-30.762,62.500,-165.039,-56.152
1689186030.178,-188.477,-19.043,74.219,-168.457,-120.117
1689186030.182,-221.680,-10.742,87.891,-191.895,-4.395
1689186030.186,-268.066,-18.066,92.285,-250.000,415.527
1689186030.189,-284.668,-17.090,97.656,-286.133,293.945
1689186030.193,-296.875,-22.949,93.750,-287.598,-192.871
1689186030.197,-291.016,-20.020,87.402,-299.316,-117.188
1689186030.201,-281.250,-15.137,86.914,-298.828,-0.488
1689186030.205,-294.434,-14.648,80.566,-286.621,-116.211
1689186030.209,-303.223,-16.113,67.383,-304.688,-272.461
1689186030.213,-290.039,-23.926,58.594,-291.504,-117.676
1689186030.217,-243.164,-28.809,65.430,-258.789,14.160
1689186030.221,-229.492,-43.457,63.477,-242.188,-73.242
1689186030.225,-236.816,-40.527,59.082,-216.797,-96.191
1689186030.229,-238.770,-39.551,35.645,-228.027,66.895
1689186030.233,-221.191,-48.340,26.367,-232.422,20.996
1689186030.236,-182.617,-48.828,48.828,-198.242,-146.973
1689186030.240,-163.086,-49.805,38.574,-180.664,-102.051
1689186030.244,-178.711,-50.293,27.344,-188.477,28.809
1689186030.248,-189.453,-47.363,44.434,-177.246,-41.504
1689186030.252,-165.039,-45.898,42.480,-152.832,-241.211
1689186030.267,-137.695,-52.246,35.156,-141.602,-30.273
1689186030.271,-125.977,-50.781,21.973,-143.555,156.250
1689186030.275,-137.207,-56.152,13.184,-148.926,61.035
1689186030.279,-143.066,-70.801,6.348,-128.418,-107.422
1689186030.283,-115.723,-63.965,3.418,-117.188,-127.930
1689186030.287,-95.215,-47.363,5.371,-120.605,294.434
1689186030.291,-91.797,-46.387,-2.441,-114.746,216.309
1689186030.294,-91.309,-59.570,4.395,-116.699,-170.410
1689186030.298,-90.820,-54.688,-8.789,-104.980,-103.516
1689186030.302,-72.266,-36.133,-35.645,-87.402,48.340
1689186030.306,-55.176,-40.039,-26.855,-100.098,-53.223
1689186030.310,-55.176,-42.480,-29.785,-101.074,-69.336
1689186030.312,-57.617,-31.738,-38.574,-78.613,-19.043
1689186030.316,-55.176,-24.902,-17.090,-70.801,-62.500
1689186030.320,-26.855,-23.438,-26.855,-40.039,-112.793
1689186030.324,14.160,-31.738,-41.992,-6.348,-82.031
1689186030.328,37.598,-39.062,-50.781,9.277,73.730
1689186030.332,41.016,-21.484,-62.500,17.578,131.836
1689186030.336,21.973,-10.742,-56.152,12.695,-12.695
1689186030.339,20.996,-17.090,-57.129,26.855,-220.703
1689186030.343,57.617,-15.625,-79.102,41.992,86.426
1689186030.347,86.914,-11.719,-97.656,57.129,250.977
1689186030.351,88.867,-9.766,-108.887,74.219,-126.465
1689186030.355,87.891,-10.742,-113.281,73.730,-179.688
1689186030.357,92.773,-8.789,-111.328,78.125,-155.273
1689186030.361,100.098,-7.324,-106.445,97.656,-149.414
1689186030.365,125.977,-2.930,-110.352,107.422,-35.645
1689186030.369,134.277,9.766,-125.000,94.238,64.941
1689186030.373,110.840,12.695,-125.000,79.590,91.797
1689186030.377,93.750,12.207,-124.512,71.289,-25.879
1689186030.381,119.629,17.578,-143.555,97.656,-166.504
1689186030.384,158.691,21.973,-163.574,140.137,39.062
1689186030.388,157.227,19.043,-131.348,135.742,412.598
1689186030.392,115.234,14.160,-80.566,94.727,124.023
1689186030.396,91.309,6.836,-80.566,83.496,-264.648
1689186030.400,104.980,0.488,-84.473,107.910,-146.973
1689186030.402,123.535,2.441,-86.426,114.746,-80.078
1689186030.406,113.281,4.395,-104.492,115.234,-143.066
1689186030.410,83.984,2.930,-110.840,106.934,-190.430
1689186030.414,70.801,-9.766,-91.797,90.820,-185.059
1689186030.418,83.984,-19.531,-75.684,99.121,-175.293
1689186030.422,98.633,-21.973,-72.754,101.074,-51.270
1689186030.426,105.957,-19.043,-67.871,86.914,63.477
1689186030.429,102.051,-15.625,-61.035,80.566,275.391
1689186030.433,86.914,-17.578,-71.777,81.543,290.039
1689186030.437,84.961,-15.625,-87.891,87.891,-124.512
1689186030.441,100.586,-23.438,-71.777,112.305,-113.281
1689186030.445,97.168,-29.297,-65.430,123.535,48.340
1689186030.447,77.637,-28.809,-56.152,97.656,-39.062
1689186030.451,55.176,-26.855,-45.898,62.500,-191.895
1689186030.455,50.781,-29.297,-43.945,63.965,-37.109
1689186030.459,66.406,-39.551,-43.945,74.219,214.355
1689186030.463,91.309,-37.598,-41.992,68.848,5.371
1689186030.467,93.262,-30.762,-34.180,70.312,-142.090
1689186030.471,55.176,-29.297,-42.480,58.594,19.531
1689186030.474,41.016,-30.762,-48.828,60.059,207.031
1689186030.478,65.918,-35.645,-48.828,81.055,-45.898
1689186030.482,75.195,-42.480,-56.152,93.750,-246.582
1689186030.486,49.805,-43.945,-57.129,77.148,3.906
1689186030.490,35.156,-35.645,-50.781,47.363,-4.883
1689186030.493,27.832,-33.203,-50.293,30.273,-279.297
1689186030.497,37.598,-37.598,-53.223,47.852,-235.352
1689186030.501,59.570,-37.109,-44.922,70.801,-26.855
1689186030.505,60.547,-39.062,-41.016,69.336,4.883
1689186030.509,30.273,-38.086,-39.062,63.477,-65.430
1689186030.513,13.184,-33.203,-31.250,48.340,-87.402
1689186030.517,27.344,-33.203,-29.785,48.340,156.738
1689186030.520,45.410,-31.250,-31.250,58.105,270.020
1689186030.524,41.504,-30.762,-32.227,58.594,-77.637
1689186030.528,27.832,-28.320,-37.109,48.340,-203.125
1689186030.532,23.926,-27.832,-56.641,37.598,-144.531
1689186030.536,34.180,-36.621,-57.129,33.691,-135.742
1689186030.538,50.293,-38.086,-31.250,46.387,-136.230
1689186030.542,39.551,-33.691,-14.160,51.758,12.695
1689186030.546,8.301,-35.156,-26.367,28.809,175.781
1689186030.550,-12.207,-36.621,-37.109,4.883,30.273
1689186030.554,-5.371,-36.133,-32.227,19.531,-188.965
1689186030.558,13.672,-35.645,-40.039,51.758,-14.160
1689186030.562,15.137,-31.738,-29.785,30.273,439.453
1689186030.565,-3.418,-28.320,-14.648,1.953,167.480
1689186030.569,-13.672,-25.879,-19.531,2.930,-299.316
1689186030.573,5.371,-28.320,-32.227,11.230,-168.457
1689186030.577,30.762,-26.855,-40.527,20.508,-78.125
1689186030.581,22.949,-25.879,-34.180,21.484,-142.578
1689186030.584,-6.348,-29.297,-25.391,15.625,-172.852
1689186030.588,-19.531,-32.227,-11.230,9.277,-188.477
1689186030.592,-4.395,-32.715,-16.602,23.438,-173.828
1689186030.596,9.277,-36.133,-27.832,25.879,-57.129
1689186030.600,15.625,-38.086,-39.062,15.625,-65.918
1689186030.604,10.254,-33.203,-42.969,22.949,174.805
1689186030.608,-6.836,-32.227,-16.602,-4.883,317.383
1689186030.611,-0.488,-29.785,-11.230,-29.297,-172.363
1689186030.615,11.230,-30.273,-27.832,-17.578,-241.699
1689186030.619,3.418,-27.344,-24.414,-20.508,15.137
1689186030.623,-21.484,-22.949,-14.160,-20.508,-65.430
1689186030.627,-42.969,-28.809,-20.020,-12.695,-224.609
1689186030.642,-30.762,-30.762,-17.578,-4.883,-118.652
1689186030.646,-2.930,-30.273,-32.227,6.348,-38.086
1689186030.650,1.953,-32.715,-51.270,6.348,3.906
1689186030.654,-9.277,-29.785,-25.879,-9.277,-59.082
1689186030.658,-37.109,-28.320,-13.184,-28.809,4.395
1689186030.662,-41.992,-31.250,-21.973,-35.156,221.680
1689186030.666,-12.695,-33.691,-28.320,-22.949,97.656
1689186030.669,4.395,-40.039,-29.297,8.301,-26.367
1689186030.673,-4.883,-41.016,-26.367,17.578,43.457
1689186030.677,-31.738,-36.133,-33.203,-4.395,237.305
1689186030.681,-35.156,-20.508,-65.918,-13.184,-27.344
1689186030.685,-16.602,-10.254,-70.801,-5.859,-286.621
1689186030.702,-13.184,-25.391,-30.273,-8.789,-113.281
1689186030.706,-21.484,-42.480,-9.766,-18.555,-42.969
1689186030.710,-32.227,-45.898,-11.719,-32.227,-178.711
1689186030.714,-32.227,-45.410,-12.207,-29.785,-211.426
1689186030.718,-26.367,-41.016,-20.996,-27.832,-102.051
1689186030.722,-19.531,-35.156,-31.250,-30.762,38.574
1689186030.726,-8.789,-31.738,-35.156,-16.113,107.422
1689186030.729,-10.254,-28.809,-29.785,-16.602,-125.000
1689186030.733,-22.461,-29.297,-23.438,-3.906,126.465
1689186030.737,-20.508,-29.297,-42.969,1.465,375.000
1689186030.741,-4.395,-26.367,-59.570,-2.930,-81.543
1689186030.745,1.465,-26.855,-52.246,3.906,-127.930
1689186030.732,-20.996,-29.297,-28.809,-17.090,-68.848
1689186030.736,-34.668,-35.156,-9.766,-45.410,-150.391
1689186030.740,-27.832,-40.527,-8.301,-31.738,-183.105
1689186030.744,-13.672,-43.457,-18.066,-14.160,-72.754
1689186030.748,9.277,-41.504,-30.762,-14.648,88.379
1689186030.752,-17.090,-35.645,-31.738,-24.414,25.879
1689186030.756,-50.293,-30.273,-25.391,-36.621,-66.406
1689186030.759,-37.109,-25.879,-25.879,-34.180,-56.152
1689186030.763,-18.066,-32.715,-32.715,-26.367,-41.016
1689186030.767,-8.301,-32.715,-36.133,-19.531,-83.008
1689186030.771,-10.742,-22.461,-45.898,-21.484,-144.043
1689186030.775,-25.391,-26.367,-32.715,-19.043,18.555
1689186030.777,-55.664,-42.969,-9.766,-27.832,309.570
1689186030.781,-47.363,-40.527,-19.531,-34.668,33.691
1689186030.785,-28.809,-36.621,-20.508,-27.344,-165.039
1689186030.789,-60.547,-43.945,-20.508,-43.457,-67.871
1689186030.793,-86.914,-45.410,-22.949,-54.199,-106.445
1689186030.797,-83.008,-53.711,-16.113,-60.547,-41.992
1689186030.801,-54.688,-52.734,-17.090,-50.293,-57.129
1689186030.804,-56.152,-49.316,-21.484,-43.945,146.973
1689186030.808,-86.426,-49.316,-32.715,-73.242,256.348
1689186030.812,-105.469,-47.363,-34.180,-85.449,-154.785
1689186030.816,-107.422,-54.199,-16.113,-87.891,-260.254
1689186030.820,-77.637,-54.688,-10.742,-80.566,-113.770
1689186030.823,-42.480,-45.898,-15.137,-57.617,-85.938
1689186030.827,-53.223,-41.504,-22.949,-60.059,-75.684
1689186030.831,-75.195,-37.598,-31.738,-63.477,-17.090
1689186030.835,-61.035,-31.250,-23.926,-48.340,168.457
1689186030.839,-36.621,-27.344,-14.648,-32.227,117.188
1689186030.843,-20.020,-28.809,-20.996,-19.531,-106.445
1689186030.847,-28.809,-32.227,-22.949,-22.461,3.906
1689186030.850,-45.898,-33.691,-19.531,-27.344,182.129
1689186030.854,-41.504,-35.156,-23.438,-38.574,-87.891
1689186030.858,-14.160,-35.156,-26.367,-36.621,-292.480
1689186030.862,-4.883,-35.156,-20.996,-23.438,-76.660
1689186030.866,-13.184,-39.062,-16.113,-39.062,-45.898
1689186030.869,-32.715,-39.062,-28.320,-59.570,-156.738
1689186030.873,-52.734,-26.855,-37.598,-62.012,-164.551
1689186030.877,-42.480,-27.832,-31.738,-45.410,-63.965
1689186030.881,-24.902,-33.203,-22.461,-35.645,39.551
1689186030.885,-22.461,-32.715,-22.461,-30.762,27.832
1689186030.889,-35.645,-34.180,-42.969,-35.645,-66.406
1689186030.893,-58.105,-36.133,-47.852,-60.547,96.191
1689186030.896,-55.176,-30.762,-34.180,-51.758,243.164
1689186030.900,-26.855,-21.484,-30.273,-38.086,-63.477
1689186030.904,-16.602,-25.879,-25.391,-28.320,-182.129
1689186030.908,-27.344,-32.227,-31.738,-29.297,-148.926
1689186030.912,-39.551,-33.203,-35.156,-34.668,-170.898
1689186030.912,-33.203,-36.133,-22.461,-19.043,-205.078
1689186030.916,-23.926,-34.668,-21.973,-17.578,-149.414
1689186030.920,-28.320,-26.855,-28.809,-28.809,30.273
1689186030.924,-34.668,-28.320,-25.879,-42.480,-12.207
1689186030.928,-39.551,-32.715,-20.508,-36.133,-165.039
1689186030.932,-29.297,-32.227,-30.762,-29.785,-46.387
1689186030.936,-10.254,-33.203,-35.645,-16.602,405.762
1689186030.939,-6.348,-31.738,-25.391,-9.277,401.855
1689186030.943,-34.180,-38.086,-20.020,-23.438,-94.238
1689186030.947,-53.711,-39.551,-26.855,-33.203,-102.539
1689186030.951,-46.387,-33.691,-29.785,-34.180,-18.555
1689186030.955,-32.227,-41.016,-27.832,-32.715,-157.715
1689186030.959,-16.602,-42.969,-26.367,-30.762,-136.230
1689186030.963,-23.438,-36.621,-20.996,-32.227,-65.918
1689186030.967,-44.922,-26.855,-19.531,-28.320,-141.113
1689186030.971,-34.668,-18.066,-21.973,-19.043,-182.129
1689186030.975,-18.555,-21.484,-24.414,-15.137,-108.398
1689186030.979,-22.461,-25.391,-23.926,-20.996,104.980
1689186030.983,-29.297,-28.809,-24.902,-33.691,154.785
1689186030.986,-31.738,-32.715,-26.367,-35.645,-69.824
1689186030.990,-43.457,-29.297,-24.902,-36.621,-233.887
1689186030.994,-30.762,-29.297,-19.531,-25.879,93.750
1689186030.998,-17.578,-36.621,-21.484,-8.789,253.418
1689186031.002,-34.668,-38.086,-26.855,-18.066,-110.840
1689186031.017,-49.805,-39.551,-23.926,-31.738,-189.941
1689186031.021,-48.828,-55.664,-19.531,-30.273,-152.344
1689186031.025,-26.855,-55.664,-20.020,1.465,-109.863
1689186031.029,1.465,-20.508,-28.809,13.184,-111.328
1689186031.033,-12.207,-2.930,-39.062,-23.438,-45.410
1689186031.037,-35.645,-13.672,-40.039,-42.480,319.336
1689186031.041,-41.504,-10.742,-44.434,-49.805,180.664
1689186031.044,-21.484,3.906,-56.641,-39.551,-197.266
1689186031.048,3.906,8.789,-64.941,-24.414,-92.773
1689186031.052,-0.977,7.324,-67.871,-32.715,70.801
1689186031.056,-24.902,6.836,-68.359,-38.574,-136.230
1689186031.060,-45.898,3.906,-70.312,-51.270,-195.312
1689186031.062,-37.109,1.465,-71.289,-54.199,-64.941
1689186031.066,-21.484,-0.488,-62.988,-42.969,-53.711
1689186031.070,-15.625,-7.324,-48.828,-38.086,-108.887
1689186031.074,-23.926,-7.812,-47.852,-46.387,-150.391
1689186031.078,-36.133,-5.859,-51.270,-57.617,-56.152
1689186031.082,-16.602,-7.324,-51.270,-49.805,30.273
1689186031.086,0.977,-11.230,-56.152,-38.574,-30.273
1689186031.089,-6.348,-15.137,-56.152,-21.973,-88.867
1689186031.093,-13.672,-14.648,-56.152,-2.930,164.551
1689186031.097,-24.902,-11.719,-49.805,-24.902,215.332
1689186031.101,-31.738,-15.625,-39.551,-46.387,-139.160
1689186031.105,-0.488,-17.578,-36.621,-26.855,-133.301
1689186031.108,12.695,-12.207,-31.738,-10.254,-76.172
1689186031.112,-18.066,-16.602,-28.320,-10.742,-124.512
1689186031.116,-28.809,-21.973,-29.297,-36.133,-114.746
1689186031.120,-23.926,-21.484,-32.227,-41.504,-25.391
1689186031.124,-25.391,-19.531,-40.039,-31.738,230.469
1689186031.128,-31.738,-24.902,-45.410,-40.039,266.113
1689186031.132,-33.203,-27.344,-44.434,-42.969,-3.906
1689186031.135,-38.574,-20.996,-42.480,-41.504,-55.176
1689186031.139,-41.016,-17.578,-37.598,-38.086,109.375
1689186031.143,-27.344,-23.926,-47.852,-28.809,-51.758
1689186031.147,-8.789,-39.062,-37.598,-15.625,-188.477
1689186031.151,-12.207,-38.086,-19.531,-13.184,-75.684
1689186031.152,-42.480,-27.344,-21.973,-28.809,-120.117
1689186031.156,-42.969,-21.484,-28.809,-34.180,-163.574
1689186031.160,-14.648,-20.020,-41.016,-20.508,-137.695
1689186031.164,-0.488,-19.531,-49.316,-13.672,-28.809
1689186031.168,-18.555,-27.832,-33.691,-25.391,77.637
1689186031.172,-36.133,-30.762,-14.160,-38.574,-19.531
1689186031.176,-33.691,-25.879,-18.555,-37.109,-100.098
1689186031.179,-20.508,-27.832,-25.879,-26.855,115.723
1689186031.183,-9.277,-32.715,-22.461,-29.297,230.957
1689186031.187,-8.789,-32.715,-18.555,-29.785,-75.684
1689186031.191,-33.691,-29.297,-25.879,-41.504,-177.734
1689186031.195,-52.246,-24.414,-28.809,-43.945,-166.016
1689186031.212,-20.020,-16.602,-28.320,-18.555,-188.965
1689186031.216,-2.930,-18.555,-33.691,-9.277,-130.859
1689186031.220,-29.297,-26.855,-28.320,-6.348,-28.320
1689186031.224,-45.898,-27.832,-26.367,-24.414,37.598
1689186031.228,-46.875,-31.250,-30.273,-52.246,-112.793
1689186031.232,-41.992,-34.668,-35.156,-51.758,-99.609
1689186031.236,-14.160,-34.668,-32.227,-28.809,65.918
1689186031.239,-17.578,-38.574,-34.180,-15.137,427.734
1689186031.243,-40.527,-31.738,-44.434,-32.715,300.781
1689186031.247,-35.645,-24.902,-36.621,-37.598,-174.805
1689186031.251,-10.742,-35.156,-29.785,-28.320,-109.375
1689186031.255,-10.742,-40.039,-24.902,-13.184,-75.195
1689186031.244,-32.227,-30.762,-19.531,-7.324,-106.934
1689186031.248,-47.852,-31.250,-33.691,-37.109,-105.957
1689186031.252,-64.453,-34.668,-39.062,-49.316,-122.070
1689186031.256,-48.340,-30.762,-25.879,-36.621,-143.066
1689186031.260,-26.855,-31.250,-32.715,-28.809,-154.297
1689186031.264,-32.715,-41.016,-29.297,-22.461,-12.207
1689186031.268,-35.645,-37.109,-6.836,-22.461,76.172
1689186031.271,-52.246,-17.090,-15.137,-54.688,-12.207
1689186031.275,-52.246,-12.207,-37.109,-84.473,-95.215
1689186031.279,-22.461,-19.043,-35.645,-60.059,-132.324
1689186031.283,-19.043,-21.973,-38.086,-42.969,256.348
1689186031.287,-49.316,-19.531,-44.434,-71.777,359.375
1689186031.287,-83.008,-15.137,-46.875,-103.027,-185.059
1689186031.291,-83.496,-13.184,-50.781,-96.680,-272.461
1689186031.295,-69.824,-21.973,-45.898,-73.242,-97.168
1689186031.299,-68.848,-20.020,-42.480,-79.590,-67.383
1689186031.303,-76.172,-12.207,-41.504,-83.496,-153.809
1689186031.307,-92.773,-18.066,-45.898,-86.426,-32.227
1689186031.311,-91.309,-22.461,-48.828,-88.379,375.000
1689186031.314,-57.129,-28.809,-39.551,-72.266,269.531
1689186031.318,-33.203,-30.273,-36.133,-58.594,-151.367
1689186031.322,-54.199,-25.879,-32.715,-57.129,-104.980
1689186031.326,-81.543,-16.602,-28.320,-62.988,-112.793
1689186031.330,-76.660,-10.742,-30.762,-61.035,-230.957
1689186031.335,-64.453,-10.742,-34.668,-56.641,-187.988
1689186031.339,-48.340,-14.648,-38.574,-42.969,-5.859
1689186031.343,-44.922,-16.113,-39.062,-51.758,2.930
1689186031.347,-62.500,-17.578,-30.762,-73.730,-181.152
1689186031.351,-67.871,-24.414,-28.809,-68.359,-215.332
1689186031.355,-41.016,-26.855,-27.832,-51.270,-28.320
1689186031.359,-18.555,-26.367,-27.832,-35.156,83.496
1689186031.362,-39.062,-35.645,-40.039,-32.715,-53.711
1689186031.366,-64.941,-43.457,-39.062,-41.992,-196.777
1689186031.370,-70.312,-33.691,-23.926,-57.617,-21.973
1689186031.374,-51.758,-25.391,-21.973,-60.059,54.688
1689186031.378,-26.367,-26.855,-30.762,-47.363,-128.906
1689186031.393,-22.461,-26.367,-33.691,-31.250,-83.984
1689186031.397,-45.898,-24.902,-29.785,-40.039,-88.379
1689186031.401,-57.129,-27.832,-34.668,-56.641,-57.129
1689186031.405,-38.574,-30.762,-43.457,-53.223,-14.160
1689186031.409,-24.414,-28.320,-33.691,-39.551,-22.949
1689186031.413,-31.250,-27.344,-26.367,-33.691,427.246
1689186031.417,-40.527,-27.344,-23.926,-34.668,423.340
1689186031.420,-42.480,-23.926,-25.391,-38.086,-174.805
1689186031.424,-31.738,-21.973,-24.902,-40.039,-166.016
1689186031.428,-7.812,-18.066,-31.250,-38.574,-19.043
1689186031.432,-3.418,-17.578,-40.039,-49.316,-132.812
1689186031.436,-17.090,-21.973,-31.738,-56.641,-175.781
1689186031.437,-37.598,-30.273,-34.180,-58.594,-167.969
1689186031.441,-48.340,-29.297,-36.621,-42.969,-133.789
1689186031.445,-15.137,-19.043,-33.691,-25.879,-142.090
1689186031.449,-10.254,-20.996,-24.902,-38.086,-155.273
1689186031.453,-45.898,-24.902,-12.207,-44.434,-60.547
1689186031.457,-59.570,-27.344,-18.066,-41.504,28.320
1689186031.461,-41.992,-39.062,-20.996,-34.180,57.617
1689186031.464,-34.668,-33.691,-20.508,-32.715,-49.316
1689186031.468,-38.574,-19.531,-22.949,-41.504,155.762
1689186031.472,-40.039,-16.113,-30.273,-51.270,310.059
1689186031.476,-44.922,-17.090,-38.574,-61.035,-80.566
1689186031.480,-46.387,-21.484,-37.109,-68.848,-129.395
1689186031.482,-45.410,-21.484,-34.180,-65.430,45.410
1689186031.486,-36.621,-21.484,-32.227,-44.922,-13.184
1689186031.490,-51.270,-28.320,-34.668,-35.645,-46.875
1689186031.494,-68.359,-33.203,-34.668,-48.828,-1.465
1689186031.498,-63.965,-27.344,-30.273,-54.688,54.688
1689186031.502,-47.363,-20.996,-37.598,-56.641,49.805
1689186031.506,-26.367,-22.461,-41.016,-45.410,-41.016
1689186031.509,-27.832,-32.227,-34.180,-30.762,39.551
1689186031.513,-54.199,-37.109,-36.133,-40.527,296.387
1689186031.517,-62.500,-29.297,-41.992,-47.852,74.219
1689186031.521,-43.457,-22.949,-35.156,-45.410,-266.602
1689186031.525,-27.344,-26.855,-25.879,-34.180,-146.973
1689186031.529,-20.508,-25.391,-27.344,-29.785,-110.840
1689186031.533,-30.762,-23.438,-30.762,-40.527,-209.961
1689186031.537,-54.199,-36.621,-28.809,-33.203,-220.215
1689186031.541,-40.039,-39.551,-22.461,-33.691,-103.027
1689186031.545,-24.414,-28.320,-25.879,-54.199,-48.340
1689186031.549,-32.227,-23.438,-27.832,-36.133,-46.387
1689186031.553,-40.527,-21.973,-30.273,-35.156,-7.324
1689186031.556,-50.781,-20.508,-31.250,-59.570,205.078
1689186031.560,-37.598,-20.020,-32.227,-36.133,178.711
1689186031.564,-8.789,-23.926,-27.832,-20.508,-117.188
1689186031.568,-17.578,-25.391,-23.438,-31.250,-88.867
1689186031.572,-31.250,-25.879,-31.250,-45.898,17.090
1689186031.572,-47.363,-23.926,-37.109,-63.965,-80.566
1689186031.576,-40.527,-21.484,-32.715,-53.711,-207.520
1689186031.580,-17.578,-21.973,-28.809,-22.949,-127.930
1689186031.584,-8.789,-21.484,-28.809,-6.836,-21.973
1689186031.588,-19.043,-21.484,-32.227,-7.812,-117.188
1689186031.592,-43.945,-23.926,-34.180,-11.230,-187.500
1689186031.596,-41.504,-23.926,-25.391,-18.066,-44.922
1689186031.599,-28.320,-27.832,-20.508,-15.625,357.422
1689186031.603,-10.254,-24.414,-26.367,-22.949,252.930
1689186031.607,-21.484,-22.949,-40.039,-36.621,-154.785
1689186031.611,-41.016,-26.855,-44.922,-52.734,-147.461
1689186031.615,-55.176,-29.297,-27.344,-53.223,-147.461
1689186031.650,-47.852,-34.180,-23.438,-26.367,-132.324
1689186031.654,-28.809,-35.156,-42.480,-14.648,-90.332
1689186031.658,-37.109,-32.715,-36.133,-28.809,0.000
1689186031.662,-44.434,-29.785,-13.184,-40.039,-63.477
1689186031.666,-44.434,-31.250,-16.602,-34.180,-217.285
1689186031.670,-26.855,-28.320,-17.090,-21.973,-123.535
1689186031.674,-14.648,-25.391,-13.672,-30.273,187.012
1689186031.677,-29.297,-31.738,-17.090,-31.250,217.773
1689186031.681,-39.551,-32.227,-17.090,-33.691,-168.457
1689186031.685,-38.574,-26.367,-17.090,-47.852,-199.219
1689186031.689,-41.504,-27.344,-23.926,-44.922,-102.051
1689186031.693,-29.785,-31.738,-30.762,-25.879,-68.359
1689186031.662,-22.949,-31.738,-21.973,-9.766,-82.031
1689186031.666,-43.457,-32.715,-22.461,-27.832,-107.422
1689186031.670,-47.852,-31.250,-43.457,-50.293,-47.852
1689186031.674,-5.371,-19.043,-49.316,-20.508,48.828
1689186031.678,18.555,-24.902,-27.344,1.953,45.410
1689186031.682,-5.371,-41.992,-13.184,-8.789,173.340
1689186031.686,-44.922,-41.992,-15.625,-30.273,152.832
1689186031.689,-51.758,-34.668,-13.184,-41.992,-136.230
1689186031.693,-41.016,-41.992,-1.953,-27.832,-204.102
1689186031.697,-49.316,-53.223,4.395,-27.344,-58.105
1689186031.701,-57.617,-59.082,4.395,-39.062,56.641
1689186031.705,-71.777,-64.453,7.324,-37.598,-70.801
1689186031.709,-76.172,-71.777,15.137,-33.691,-193.359
1689186031.713,-76.660,-76.172,14.648,-35.645,-17.578
1689186031.717,-63.965,-76.660,8.301,-29.785,463.867
1689186031.721,-52.246,-77.637,7.324,-21.973,337.402
1689186031.725,-68.359,-76.172,9.766,-34.180,-108.887
1689186031.729,-81.543,-78.613,12.207,-46.387,-55.664
1689186031.733,-65.430,-75.195,8.301,-20.020,-12.695
1689186031.736,-41.016,-66.895,7.812,1.953,-34.668
1689186031.740,-36.621,-68.848,1.465,-15.625,-146.973
1689186031.744,-47.852,-68.359,-17.090,-32.227,19.531
1689186031.748,-73.242,-65.430,-11.719,-43.945,183.105
1689186031.752,-54.688,-58.105,2.930,-40.527,-164.551
1689186031.767,-17.090,-50.293,-2.441,-18.555,-179.199
1689186031.771,-23.926,-56.152,-7.324,-9.277,-61.035
1689186031.775,-48.828,-56.641,-5.371,-20.508,-61.035
1689186031.779,-55.176,-47.852,-7.324,-29.297,-187.012
1689186031.783,-45.898,-45.410,-8.789,-29.785,-134.277
1689186031.787,-21.484,-45.410,-10.742,-15.137,260.742
1689186031.791,-7.812,-46.387,-17.578,-8.301,217.773
1689186031.794,-23.438,-41.504,-16.113,-14.160,-108.887
1689186031.798,-33.691,-40.527,-11.719,-11.230,-47.852
1689186031.802,-17.578,-41.992,-20.508,-3.906,-25.391
1689186031.806,-1.465,-41.992,-27.344,-6.836,-183.594
1689186031.810,1.953,-41.992,-25.391,-17.578,-200.684
1689186031.812,-17.578,-35.645,-25.879,-30.273,19.531
1689186031.816,-54.199,-34.668,-20.020,-26.855,170.898
1689186031.820,-60.059,-36.133,-15.625,-20.020,-137.207
1689186031.824,-32.715,-38.574,-17.090,-18.555,-259.766
1689186031.828,-15.625,-40.527,-20.996,-7.324,-54.199
1689186031.832,-21.973,-40.039,-22.949,-7.324,-30.762
1689186031.836,-30.762,-31.738,-20.996,-24.414,-136.230
1689186031.839,-34.668,-26.855,-24.902,-34.668,-186.523
1689186031.843,-22.461,-30.762,-25.391,-22.949,42.480
1689186031.847,-16.113,-39.551,-26.367,-23.438,207.031
1689186031.851,-36.621,-42.969,-29.785,-31.250,-58.594
1689186031.855,-45.898,-41.504,-33.203,-28.320,-160.156
1689186031.857,-45.410,-44.922,-35.156,-38.574,-113.281
1689186031.861,-47.852,-39.062,-39.551,-37.598,-84.473
1689186031.865,-27.344,-35.645,-45.410,-28.809,-45.410
1689186031.869,-17.090,-36.133,-41.992,-20.508,51.758
1689186031.873,-36.133,-33.203,-31.738,-6.348,77.148
1689186031.877,-53.223,-28.809,-30.273,-28.809,-71.289
1689186031.881,-33.691,-28.809,-28.809,-39.062,-145.996
1689186031.884,-3.418,-24.902,-27.832,-26.367,-38.574
1689186031.888,-0.977,-19.043,-27.832,-29.785,190.430
1689186031.892,-33.203,-24.902,-24.414,-40.039,41.992
1689186031.896,-59.082,-30.273,-28.809,-44.434,-182.617
1689186031.900,-41.016,-32.227,-36.133,-32.715,-144.531
1689186031.903,-29.297,-38.086,-31.250,-21.973,-43.945
1689186031.907,-23.926,-35.156,-25.391,-19.043,-8.301
1689186031.911,-41.504,-30.762,-31.738,-27.344,-132.812
1689186031.915,-61.523,-33.691,-34.668,-44.434,-80.566
1689186031.919,-52.246,-36.133,-25.879,-46.875,-9.766
1689186031.923,-22.461,-33.203,-23.926,-32.715,-25.391
1689186031.927,-10.254,-27.832,-24.902,-26.367,-63.477
1689186031.930,-22.949,-27.344,-32.227,-28.320,113.770
1689186031.934,-38.574,-32.715,-38.086,-32.715,149.414
1689186031.938,-44.434,-36.621,-23.438,-25.879,-179.199
1689186031.942,-23.926,-33.691,-21.484,-25.391,-103.027
1689186031.946,-0.488,-33.691,-32.227,-30.762,0.000
1689186031.947,-13.184,-29.785,-33.203,-28.809,-129.395
1689186031.951,-35.645,-22.949,-23.926,-22.461,-208.008
1689186031.955,-40.527,-24.902,-21.973,-15.625,-94.727
1689186031.959,-36.133,-34.180,-22.461,-17.090,157.227
1689186031.963,-19.043,-36.621,-19.531,-15.625,121.582
1689186031.967,-18.066,-30.273,-24.902,-38.574,16.602
1689186031.971,-53.223,-28.320,-28.809,-61.035,25.391
1689186031.974,-63.477,-28.809,-29.297,-48.340,254.883
1689186031.978,-36.621,-35.156,-30.762,-37.109,141.113
1689186031.982,-15.625,-40.527,-32.227,-41.016,-206.543
1689186031.986,-16.113,-37.598,-31.738,-35.156,-147.461
1689186031.990,-34.180,-38.574,-27.832,-41.504,-190.430
1689186031.994,-48.828,-41.016,-29.297,-35.156,-254.395
1689186031.998,-31.250,-34.180,-33.691,-25.879,-195.312
1689186032.002,1.465,-26.367,-37.598,-23.438,30.273
1689186032.006,-7.812,-30.762,-32.227,-7.812,74.707
1689186032.010,-41.992,-37.109,-28.320,-17.090,-95.703
1689186032.014,-50.293,-38.574,-21.973,-34.180,-109.375
1689186032.018,-26.367,-39.551,-19.531,-29.297,177.734
1689186032.021,-4.395,-34.668,-29.297,-17.578,396.484
1689186032.025,3.418,-34.668,-29.785,-10.742,40.527
1689186032.029,-10.254,-33.203,-31.250,-33.203,-206.055
1689186032.033,-36.133,-30.762,-32.227,-61.035,-120.117
1689186032.037,-38.574,-33.203,-25.879,-33.691,-138.672
1689186032.037,-20.508,-33.691,-37.598,-4.883,-209.961
1689186032.041,-15.625,-29.297,-60.059,-12.695,-103.516
1689186032.045,-33.203,-30.762,-49.316,-29.785,14.648
1689186032.049,-47.852,-34.668,-19.043,-44.434,-60.547
1689186032.053,-37.598,-38.574,-14.160,-37.109,-121.582
1689186032.057,-21.484,-35.645,-25.879,-15.137,86.914
1689186032.061,-16.113,-30.762,-26.855,-18.066,421.387
1689186032.064,-30.273,-28.809,-25.879,-42.969,259.277
1689186032.068,-42.969,-21.973,-28.809,-41.504,-141.113
1689186032.072,-42.969,-20.020,-27.832,-22.949,-60.547
1689186032.076,-35.156,-20.508,-30.273,-27.344,-10.742
1689186032.080,-18.066,-23.926,-36.621,-27.344,-169.434
1689186032.084,-21.484,-24.902,-40.527,-26.855,-198.242
1689186032.088,-57.617,-29.785,-42.480,-50.781,-135.254
1689186032.092,-65.918,-35.156,-34.668,-51.758,-157.227
1689186032.096,-44.922,-37.109,-32.715,-42.969,-178.711
1689186032.100,-30.273,-35.645,-39.062,-34.668,-113.770
1689186032.104,-44.434,-35.156,-35.645,-43.457,16.113
1689186032.108,-56.152,-37.109,-26.367,-58.105,79.102
1689186032.111,-41.016,-34.180,-34.180,-45.410,-65.430
1689186032.115,-36.621,-29.297,-41.992,-31.250,-165.039
1689186032.119,-25.391,-28.320,-26.367,-28.320,128.418
1689186032.123,-34.180,-30.762,-17.090,-20.020,207.031
1689186032.127,-41.016,-41.016,-30.273,-27.832,-101.074
1689186032.142,-30.762,-39.062,-33.203,-39.551,-174.805
1689186032.146,-32.227,-31.250,-22.949,-28.320,-60.059
1689186032.150,-23.438,-38.574,-22.461,-24.414,57.617
1689186032.154,-27.832,-31.250,-21.973,-39.551,-8.789
1689186032.158,-51.758,-27.832,-27.344,-53.223,-103.516
1689186032.162,-51.270,-30.273,-29.297,-50.781,205.566
1689186032.166,-27.832,-20.020,-18.066,-38.086,203.125
1689186032.169,-20.508,-16.113,-11.719,-22.949,-112.305
1689186032.173,-22.461,-19.531,-20.508,-17.578,-66.406
1689186032.177,-39.062,-20.020,-38.086,-28.320,46.875
1689186032.181,-48.828,-26.367,-34.180,-51.270,-187.012
1689186032.185,-42.969,-33.203,-22.461,-49.805,-250.000
1689186032.187,-26.367,-32.227,-33.691,-18.555,-98.145
1689186032.191,-24.902,-32.227,-38.086,-8.301,-57.617
1689186032.195,-48.828,-40.039,-25.879,-26.367,-132.324
1689186032.199,-63.965,-48.828,-15.137,-36.621,-184.570
1689186032.203,-48.340,-40.039,-18.066,-31.738,-10.254
1689186032.207,-17.090,-18.555,-36.133,-24.414,113.770
1689186032.211,-25.391,-12.695,-39.551,-34.180,7.812
1689186032.214,-55.176,-19.043,-34.668,-61.523,-145.020
1689186032.218,-54.688,-17.090,-37.598,-67.383,59.082
1689186032.222,-47.363,-19.531,-31.250,-55.664,191.406
1689186032.226,-28.320,-25.879,-27.832,-42.480,-101.074
1689186032.230,-17.578,-27.832,-25.879,-34.668,-56.641
1689186032.232,-45.898,-26.855,-23.438,-41.504,2.441
1689186032.236,-56.152,-23.926,-24.902,-40.527,-121.094
1689186032.240,-37.109,-23.926,-21.973,-37.598,-160.156
1689186032.244,-10.742,-27.344,-20.020,-17.090,-21.973
1689186032.248,-14.160,-29.785,-25.391,-11.230,311.523
1689186032.252,-30.762,-27.832,-27.832,-26.855,250.977
1689186032.256,-31.250,-31.738,-21.973,-27.832,-138.184
1689186032.259,-31.738,-25.391,-36.133,-28.320,-107.910
1689186032.263,-13.672,-15.137,-35.645,-13.672,199.707
1689186032.267,-2.930,-21.484,-16.602,-11.230,73.730
1689186032.271,-36.133,-30.762,-24.902,-31.738,-116.211
1689186032.275,-53.223,-37.109,-23.926,-41.016,-93.750
1689186032.277,-40.039,-35.645,-19.531,-41.504,-115.723
1689186032.281,-30.762,-37.598,-21.973,-31.738,-157.715
1689186032.285,-17.578,-36.133,-25.879,-28.320,-118.652
1689186032.289,-26.367,-28.809,-34.180,-33.691,-13.672
1689186032.293,-41.504,-30.762,-43.945,-46.875,-87.891
1689186032.297,-40.039,-38.574,-35.645,-45.410,-134.277
1689186032.301,-32.715,-41.504,-23.926,-22.461,-86.426
1689186032.304,-20.996,-26.855,-32.227,-5.371,183.594
1689186032.308,-31.250,-22.949,-31.250,-11.719,310.547
1689186032.312,-43.457,-29.785,-23.926,-36.133,-80.078
1689186032.316,-42.969,-27.344,-24.414,-47.852,-243.652
1689186032.320,-32.715,-21.973,-26.855,-48.828,-118.164
1689186032.322,-4.395,-34.180,-22.949,-38.086,-70.801
1689186032.326,-3.418,-47.852,-18.555,-15.137,-155.762
1689186032.330,-36.621,-29.297,-36.133,-15.137,-137.695
1689186032.334,-50.781,-10.742,-47.363,-42.480,-21.484
1689186032.338,-32.227,-10.742,-44.922,-45.898,-53.711
1689186032.342,-3.906,-10.742,-47.363,-37.109,-53.711
1689186032.346,0.488,-1.953,-57.129,-34.180,115.234
1689186032.349,-21.484,1.953,-62.500,-42.969,184.082
1689186032.353,-48.340,-1.465,-67.871,-63.965,32.715
1689186032.357,-27.344,1.465,-69.824,-53.223,-137.695
1689186032.361,14.648,7.324,-67.871,-34.668,-64.941
1689186032.365,11.719,9.766,-73.730,-39.062,27.344
1689186032.368,-22.949,5.859,-73.730,-49.316,-202.148
1689186032.372,-32.715,-4.883,-73.730,-57.129,-207.031
1689186032.376,-26.367,-13.672,-71.777,-62.988,-102.051
1689186032.380,-9.766,-12.207,-59.082,-46.387,-90.332
1689186032.384,-4.395,-9.277,-53.711,-33.691,-95.703
1689186032.388,-35.645,-12.695,-57.129,-35.645,-88.867
1689186032.392,-53.711,-13.184,-52.734,-39.551,154.785
1689186032.395,-32.715,-3.906,-44.434,-43.457,227.539
1689186032.399,-4.883,0.488,-46.875,-41.504,-117.188
1689186032.403,2.930,-0.488,-47.363,-38.574,-116.699
1689186032.407,-20.508,-7.324,-40.527,-42.969,55.176
1689186032.411,-40.527,-13.672,-43.457,-47.363,4.395
1689186032.412,-24.414,-17.090,-51.270,-33.691,-157.227
1689186032.416,-7.812,-25.391,-48.828,-31.250,-128.418
1689186032.420,-19.043,-35.156,-41.016,-32.715,125.000
1689186032.424,-39.551,-40.527,-37.109,-38.086,59.082
1689186032.428,-38.574,-32.715,-30.762,-35.156,-187.988
1689186032.432,-31.738,-23.926,-25.391,-26.855,-13.672
1689186032.436,-18.066,-13.672,-36.621,-28.809,419.922
1689186032.439,-13.184,-10.742,-37.109,-18.555,251.953
1689186032.443,-22.461,-11.719,-30.273,-21.484,-216.309
1689186032.447,-26.855,-20.020,-38.086,-53.711,-193.359
1689186032.451,-35.645,-30.273,-45.898,-70.312,-136.719
1689186032.455,-26.367,-20.996,-40.039,-50.781,-153.809
1689186032.474,-9.766,-19.531,-29.785,-27.832,-145.020
1689186032.478,-29.297,-27.832,-24.414,-34.180,6.348
1689186032.482,-47.363,-27.344,-20.508,-41.504,-11.230
1689186032.486,-45.410,-30.762,-29.297,-43.457,-187.012
1689186032.490,-23.926,-36.621,-43.457,-42.969,-178.711
1689186032.494,-6.348,-31.738,-43.457,-25.879,62.500
1689186032.498,-25.879,-30.762,-38.086,-23.438,286.621
1689186032.501,-51.270,-34.180,-39.551,-32.715,20.996
1689186032.505,-48.340,-34.180,-36.621,-43.457,-255.371
1689186032.509,-39.062,-32.715,-28.809,-45.410,-57.617
1689186032.513,-35.156,-31.738,-16.113,-19.043,24.414
1689186032.517,-35.156,-33.203,-18.066,-20.508,-163.086
1689186032.517,-54.688,-43.457,-27.832,-44.434,-163.574
1689186032.521,-61.035,-47.363,-36.133,-51.758,-101.562
1689186032.525,-41.992,-29.297,-33.691,-50.293,-32.715
1689186032.529,-25.879,-26.855,-31.250,-31.250,67.871
1689186032.533,-28.320,-38.574,-32.227,-20.996,102.051
1689186032.537,-41.992,-33.203,-33.691,-32.227,110.352
1689186032.541,-55.176,-9.766,-45.410,-57.129,-74.707
1689186032.544,-43.457,-8.301,-50.293,-56.641,-249.512
1689186032.548,-18.066,-21.973,-35.645,-28.809,-125.488
1689186032.552,-20.020,-20.508,-31.738,-23.926,300.293
1689186032.556,-40.527,-15.625,-44.434,-49.316,266.113
1689186032.560,-30.273,-10.742,-41.504,-58.105,-179.688
1689186032.564,-20.508,-16.602,-27.344,-39.551,-208.008
1689186032.568,-19.531,-25.391,-29.297,-17.578,-148.438
1689186032.572,-11.230,-23.926,-31.738,-2.930,-157.227
1689186032.576,-26.855,-20.996,-28.320,-5.859,-184.570
1689186032.580,-48.828,-23.926,-27.344,-16.113,-161.621
1689186032.584,-41.016,-25.879,-28.809,-20.996,-57.129
1689186032.588,-16.113,-27.832,-34.668,-22.461,-38.086
1689186032.591,-5.859,-26.367,-37.109,-25.879,-77.637
1689186032.595,-18.555,-19.043,-38.574,-42.969,115.723
1689186032.599,-41.992,-26.367,-31.738,-52.246,269.531
1689186032.603,-43.945,-30.762,-26.367,-53.711,-75.684
1689186032.607,-15.625,-28.809,-25.391,-29.297,-162.598
1689186032.607,-9.766,-29.785,-21.973,1.953,-38.574
1689186032.611,-33.691,-23.438,-33.691,-11.719,-103.027
1689186032.615,-43.457,-13.672,-41.504,-36.133,-112.305
1689186032.619,-50.781,-14.648,-34.668,-36.621,-17.090
1689186032.623,-40.039,-30.762,-27.344,-30.273,17.090
1689186032.627,-18.555,-37.109,-22.461,-24.902,-39.551
1689186032.631,-33.203,-31.250,-27.344,-41.992,-1.465
1689186032.634,-39.551,-24.902,-32.715,-57.617,-19.043
1689186032.638,-28.320,-25.879,-28.809,-44.922,284.668
1689186032.642,-22.461,-19.043,-32.715,-34.180,432.129
1689186032.646,-2.930,-13.672,-42.480,-26.367,-35.645
1689186032.650,-6.836,-14.160,-24.902,-27.832,-67.871
1689186032.652,-32.715,-17.090,-21.484,-40.039,-18.555
1689186032.656,-30.762,-21.973,-35.645,-20.020,-232.910
1689186032.660,-14.160,-24.902,-36.621,-14.648,-255.859
1689186032.664,-4.883,-27.832,-32.715,-14.160,-111.328
1689186032.668,-14.648,-26.855,-28.320,-9.277,-29.297
1689186032.672,-33.691,-23.438,-28.320,-25.879,-5.859
1689186032.676,-30.273,-25.879,-24.902,-28.809,-63.965
1689186032.679,-19.043,-30.762,-26.367,-10.742,96.191
1689186032.683,-24.902,-30.762,-30.273,-1.953,178.223
1689186032.687,-15.625,-29.785,-27.832,-3.418,-86.426
1689186032.691,-25.391,-24.414,-24.902,-23.926,-165.039
1689186032.695,-48.340,-38.574,-17.578,-47.363,-106.934
1689186032.697,-27.344,-39.551,-20.020,-28.809,-93.750
1689186032.701,-17.090,-20.020,-33.691,-12.207,-127.930
1689186032.705,-33.691,-23.926,-33.691,-18.555,41.504
1689186032.709,-44.922,-27.832,-27.832,-34.180,347.656
1689186032.713,-47.852,-25.879,-23.926,-38.574,127.441
1689186032.717,-56.152,-35.645,-22.461,-22.949,-153.320
1689186032.721,-39.551,-52.246,-13.672,-7.812,26.367
1689186032.724,-31.250,-43.945,-9.766,-18.066,234.375
1689186032.728,-62.500,-28.320,-20.020,-38.086,-9.277
1689186032.732,-59.082,-34.668,-17.578,-41.016,-282.227
1689186032.736,-47.852,-38.574,-23.926,-35.156,-203.125
1689186032.740,-31.250,-31.250,-38.086,-31.250,-157.715
1689186032.745,-22.461,-31.250,-28.320,-23.438,-143.555
1689186032.749,-41.016,-37.109,-18.066,-18.066,-91.797
1689186032.753,-51.270,-33.691,-27.344,-25.879,103.027
1689186032.757,-36.133,-30.273,-27.832,-28.320,79.590
1689186032.761,-10.742,-45.898,-28.320,-16.113,-81.055
1689186032.765,-8.301,-51.270,-29.297,2.441,-62.012
1689186032.769,-23.438,-31.738,-24.902,1.465,217.773
1689186032.772,-39.551,-15.625,-24.902,-28.320,258.301
1689186032.776,-35.156,-8.301,-21.973,-36.621,-155.273
1689186032.780,-19.043,-11.230,-27.832,-29.297,-174.316
1689186032.784,-2.930,-20.020,-17.090,-27.832,-69.336
1689186032.788,-16.113,-34.668,-7.324,-26.367,-83.496
1689186032.787,-43.457,-31.250,-23.438,-36.621,-178.711
1689186032.791,-51.758,-23.438,-30.762,-36.621,-204.102
1689186032.795,-37.598,-24.902,-22.949,-20.508,-66.406
1689186032.799,-17.578,-29.297,-18.555,-23.926,-9.766
1689186032.803,-15.625,-25.391,-18.555,-44.922,-4.883
1689186032.807,-40.527,-19.043,-26.855,-47.363,57.129
1689186032.811,-49.805,-25.391,-29.297,-29.297,421.387
1689186032.814,-31.738,-23.438,-20.996,-25.879,445.801
1689186032.818,-20.508,-27.344,-16.602,-29.297,-65.430
1689186032.822,-20.996,-29.297,-16.602,-28.320,-170.410
1689186032.826,-27.344,-28.320,-22.461,-29.297,-239.258
1689186032.830,-25.879,-34.180,-30.762,-28.320,-372.070
1689186032.834,-28.320,-33.691,-36.621,-20.508,-312.500
1689186032.838,-21.973,-26.855,-25.879,-1.465,-153.320
1689186032.842,-9.766,-29.297,-23.438,-16.113,-114.258
1689186032.846,-27.832,-34.668,-26.367,-38.086,-202.148
1689186032.850,-41.504,-21.484,-18.066,-39.062,-259.277
1689186032.854,-32.227,-19.043,-21.973,-26.855,-53.223
1689186032.858,-6.836,-28.809,-29.297,-21.973,72.266
1689186032.861,-2.930,-28.809,-26.367,-27.832,0.000
1689186032.865,-25.879,-21.973,-24.902,-27.832,-138.184
1689186032.869,-29.785,-18.555,-27.832,-32.715,84.473
1689186032.873,-20.508,-18.555,-29.297,-21.484,236.328
1689186032.877,-13.672,-26.855,-26.855,-8.301,-144.531
1689186032.892,-15.625,-27.832,-23.438,-11.230,-120.605
1689186032.896,-35.156,-26.367,-24.414,-22.949,-91.309
1689186032.900,-46.387,-34.180,-29.785,-25.879,-145.996
1689186032.904,-20.508,-30.762,-39.062,-11.719,-123.047
1689186032.908,-0.488,-30.762,-38.086,-2.930,-68.848
1689186032.912,-19.531,-30.273,-30.273,-20.508,330.078
1689186032.916,-44.922,-27.832,-23.926,-52.246,220.215
1689186032.919,-40.039,-30.273,-27.344,-61.035,-252.441
1689186032.923,-29.297,-29.785,-26.367,-50.293,-145.508
1689186032.927,-14.160,-21.484,-20.996,-29.785,196.777
1689186032.931,-16.113,-20.996,-24.414,-9.766,55.176
1689186032.935,-33.691,-24.902,-30.273,-12.207,-154.785
1689186032.937,-53.223,-27.344,-39.551,-30.762,-98.633
1689186032.941,-59.570,-31.738,-36.133,-48.340,-84.473
1689186032.945,-31.738,-41.504,-26.367,-39.062,-193.359
1689186032.949,-10.742,-42.480,-25.879,-12.207,-134.277
1689186032.953,-26.855,-32.715,-28.809,-16.602,-28.320
1689186032.957,-47.852,-30.273,-31.738,-42.480,-1.465
1689186032.961,-47.852,-26.367,-37.109,-50.293,-8.789
1689186032.964,-18.555,-20.020,-38.086,-34.180,-126.953
1689186032.968,1.465,-22.949,-27.344,-13.672,102.539
1689186032.972,-17.090,-27.832,-18.555,-23.438,251.465
1689186032.976,-45.898,-29.785,-19.043,-44.922,-102.539
1689186032.980,-54.199,-31.738,-30.273,-43.945,-72.266
1689186032.982,-20.996,-32.227,-36.621,-30.762,92.773
1689186032.986,-2.441,-39.551,-28.320,-15.625,-39.062
1689186032.990,-19.531,-37.109,-26.855,-12.695,-30.273
1689186032.994,-44.922,-21.484,-38.574,-29.785,88.379
1689186032.998,-63.965,-12.695,-43.945,-50.293,52.246
1689186033.002,-48.340,-16.602,-41.504,-58.105,-10.254
1689186033.006,-18.066,-19.043,-41.504,-39.062,27.832
1689186033.009,-7.324,-9.277,-40.527,-29.785,89.355
1689186033.013,-23.926,-11.719,-40.039,-36.133,185.059
1689186033.017,-51.270,-20.508,-41.992,-51.758,-28.809
1689186033.021,-46.875,-23.926,-37.598,-53.711,-228.516
1689186033.025,-23.926,-31.250,-35.156,-38.574,-66.895
1689186033.028,-33.203,-32.227,-38.086,-37.109,17.578
1689186033.032,-49.316,-23.926,-41.016,-36.621,-69.824
1689186033.036,-45.898,-20.020,-35.156,-47.852,-98.145
1689186033.040,-31.250,-19.531,-32.227,-37.598,2.441
1689186033.044,-18.555,-20.996,-34.668,-26.367,23.926
1689186033.048,-21.973,-23.438,-30.273,-37.109,20.508
1689186033.052,-24.902,-20.996,-23.438,-32.227,-62.988
1689186033.055,-34.668,-19.531,-22.461,-41.504,22.949
1689186033.059,-42.480,-25.391,-22.949,-48.340,101.562
1689186033.063,-21.484,-36.133,-34.180,-30.762,-159.668
1689186033.067,-9.277,-27.344,-40.527,-16.602,-138.672
1689186033.071,-19.531,-15.625,-29.297,-23.926,-83.496
1689186033.072,-34.180,-13.184,-23.926,-33.203,-146.484
1689186033.076,-24.414,-19.043,-19.043,-45.410,-239.258
1689186033.080,-12.695,-32.227,-29.785,-52.246,-131.836
1689186033.084,-16.602,-22.461,-33.691,-43.457,173.828
1689186033.088,-28.320,-17.578,-20.020,-41.016,61.523
1689186033.092,-56.152,-25.391,-17.578,-48.340,-107.422
1689186033.096,-55.176,-28.320,-15.137,-44.434,-15.137
1689186033.099,-34.180,-36.133,-15.625,-23.926,329.102
1689186033.103,-22.461,-32.715,-16.113,-13.672,246.094
1689186033.107,-26.367,-25.879,-21.484,-27.832,-146.973
1689186033.111,-45.898,-24.902,-21.973,-37.598,-101.562
1689186033.115,-42.969,-23.438,-25.879,-38.086,-113.770
1689186033.119,-22.461,-22.949,-33.691,-39.551,-190.918
1689186033.123,-22.461,-23.926,-32.227,-38.574,-171.875
1689186033.127,-34.180,-27.832,-29.297,-37.598,-64.941
1689186033.131,-45.898,-35.645,-31.738,-56.641,-9.766
1689186033.135,-50.293,-34.180,-37.109,-70.801,-94.238
1689186033.139,-43.457,-32.715,-32.715,-53.711,-93.750
1689186033.143,-29.297,-39.551,-27.344,-24.414,188.965
1689186033.146,-37.109,-43.945,-26.855,-24.414,248.535
1689186033.150,-53.223,-45.410,-25.879,-40.527,-61.523
1689186033.154,-53.223,-40.527,-23.926,-53.223,-200.684
1689186033.158,-37.598,-31.738,-22.949,-46.387,94.727
1689186033.162,-24.902,-36.621,-25.391,-22.949,234.863
1689186033.162,-28.809,-40.039,-28.320,-22.949,-87.402
1689186033.166,-40.527,-34.668,-33.691,-41.992,-183.105
1689186033.170,-42.480,-30.762,-36.133,-48.340,-62.500
1689186033.174,-24.902,-25.391,-26.855,-31.250,-71.777
1689186033.178,-9.277,-20.996,-23.438,-3.906,-124.023
1689186033.182,-17.578,-26.367,-25.391,-5.371,-5.859
1689186033.186,-36.621,-33.203,-17.578,-29.785,387.207
1689186033.189,-35.156,-30.762,-18.555,-41.992,289.551
1689186033.193,-30.762,-24.414,-19.531,-36.133,-248.535
1689186033.197,-20.020,-23.926,-22.949,-14.648,-129.395
1689186033.201,-16.113,-32.227,-32.715,-15.625,-0.977
1689186033.205,-28.320,-34.668,-24.414,-26.367,-191.895
1689186033.209,-35.645,-31.250,-18.555,-33.691,-268.066
1689186033.213,-36.133,-32.227,-22.949,-43.457,-166.504
1689186033.217,-24.414,-43.945,-17.578,-29.785,-72.266
1689186033.221,-18.066,-41.992,-19.043,-20.996,-98.633
1689186033.225,-31.250,-30.273,-23.438,-44.434,-103.516
1689186033.229,-54.199,-27.832,-33.203,-57.617,-31.250
1689186033.233,-56.152,-27.344,-38.574,-36.621,73.242
1689186033.236,-30.762,-30.762,-26.367,-22.461,-11.230
1689186033.240,-22.461,-40.039,-27.832,-22.461,-97.168
1689186033.244,-38.086,-39.551,-25.879,-20.508,144.043
1689186033.248,-52.246,-33.203,-18.555,-33.203,116.211
1689186033.252,-53.711,-35.156,-34.668,-51.270,-174.316
1689186033.267,-25.879,-33.691,-48.828,-38.086,-92.773
1689186033.271,-25.391,-39.551,-40.039,-11.230,20.508
1689186033.275,-54.199,-44.434,-32.227,-19.531,-1.953
1689186033.279,-64.453,-32.227,-24.414,-41.504,-96.191
1689186033.283,-56.641,-29.785,-20.020,-41.016,-93.262
1689186033.287,-29.785,-27.344,-20.020,-30.273,323.730
1689186033.291,-20.020,-25.879,-21.973,-16.113,306.152
1689186033.294,-29.785,-29.297,-23.438,-21.484,-111.816
1689186033.298,-43.945,-28.809,-22.461,-43.945,-104.004
1689186033.302,-43.457,-24.414,-25.391,-44.434,12.695
1689186033.306,-16.113,-24.414,-25.391,-44.434,-132.324
1689186033.310,-3.906,-30.273,-25.391,-20.020,-189.453
1689186033.312,-19.043,-35.156,-29.297,-8.789,-91.797
1689186033.316,-45.898,-34.668,-26.367,-50.293,-142.090
1689186033.320,-53.223,-34.180,-31.738,-66.895,-196.777
1689186033.324,-31.250,-35.645,-29.785,-47.852,-173.340
1689186033.328,-21.973,-31.250,-22.949,-27.832,10.742
1689186033.332,-32.715,-29.785,-27.832,-31.250,184.082
1689186033.336,-50.781,-32.715,-20.508,-42.969,21.973
1689186033.339,-59.082,-39.062,-25.879,-49.316,-166.504
1689186033.343,-45.410,-39.551,-40.527,-42.480,75.195
1689186033.347,-31.738,-34.668,-29.297,-31.738,252.441
1689186033.351,-28.809,-38.086,-21.973,-29.297,-98.633
1689186033.355,-40.039,-37.109,-31.250,-35.156,-186.035
1689186033.357,-48.828,-31.738,-32.227,-35.156,-98.633
1689186033.361,-29.297,-29.785,-30.273,-26.855,-102.051
1689186033.365,-17.578,-26.855,-35.156,-20.020,-89.355
1689186033.369,-30.273,-24.902,-30.762,-11.719,-6.836
1689186033.373,-39.062,-20.508,-34.180,-11.719,101.562
1689186033.377,-42.480,-22.461,-36.621,-28.320,-10.742
1689186033.381,-46.875,-29.785,-23.926,-37.598,-140.137
1689186033.384,-25.879,-28.809,-18.555,-20.996,71.777
1689186033.388,-15.137,-29.297,-29.785,-12.207,347.168
1689186033.392,-36.133,-25.879,-33.203,-26.855,166.992
1689186033.396,-41.992,-17.090,-20.996,-43.945,-173.340
1689186033.400,-22.949,-16.602,-22.949,-43.457,-129.395
1689186033.402,-7.812,-26.367,-23.926,-27.832,-81.543
1689186033.406,-9.766,-26.367,-25.391,-8.301,-141.602
1689186033.410,-23.926,-18.555,-30.273,-18.066,-168.945
1689186033.414,-38.574,-16.602,-32.227,-40.039,-145.508
1689186033.418,-37.109,-22.949,-38.086,-40.039,-145.996
1689186033.422,-17.090,-30.273,-28.809,-20.508,-15.137
1689186033.426,-8.789,-26.855,-14.160,-8.789,79.102
1689186033.429,-30.273,-25.879,-20.508,-21.973,249.512
1689186033.433,-54.199,-23.438,-28.809,-32.227,322.266
1689186033.437,-55.176,-18.066,-24.902,-48.828,-92.285
1689186033.441,-36.133,-22.461,-23.438,-53.223,-200.195
1689186033.445,-20.020,-25.879,-17.090,-32.715,-64.941
1689186033.447,-14.648,-23.926,-18.555,-32.715,-69.336
1689186033.451,-19.531,-20.996,-35.156,-42.969,-204.590
1689186033.455,-23.438,-24.414,-31.250,-27.832,-175.293
1689186033.459,-40.039,-40.527,-14.160,-25.391,79.102
1689186033.463,-42.969,-46.387,-12.695,-26.855,15.137
1689186033.467,-44.922,-44.922,-18.066,-26.855,-65.430
1689186033.471,-46.387,-39.551,-20.508,-28.320,127.930
1689186033.474,-53.711,-38.574,-16.602,-40.527,86.914
1689186033.478,-50.781,-42.480,-18.555,-48.828,-181.152
1689186033.482,-20.996,-31.738,-29.297,-28.809,-202.148
1689186033.486,-23.438,-24.902,-25.391,-33.203,59.082
1689186033.490,-44.434,-28.809,-20.996,-53.711,247.559
1689186033.494,-51.270,-31.250,-24.902,-54.199,-71.777
1689186033.498,-42.969,-38.574,-27.344,-42.969,-244.629
1689186033.502,-20.996,-38.086,-18.066,-31.738,-101.074
1689186033.506,-18.066,-37.109,-16.602,-31.250,-100.098
1689186033.510,-50.293,-45.898,-26.855,-39.062,-184.570
1689186033.514,-65.430,-46.875,-23.926,-30.762,-152.344
1689186033.518,-54.199,-41.016,-17.090,-20.020,270.508
1689186033.521,-29.297,-43.457,-21.484,-21.973,375.977
1689186033.525,-28.320,-41.504,-31.738,-35.156,-72.754
1689186033.529,-47.363,-23.438,-28.320,-39.062,-183.594
1689186033.533,-45.410,-20.996,-20.020,-41.504,-162.109
1689186033.537,-41.504,-30.273,-16.602,-44.922,-170.898
1689186033.538,-28.809,-30.762,-15.137,-30.273,-89.355
1689186033.542,-21.973,-28.809,-32.227,-26.855,-20.508
1689186033.546,-47.363,-31.250,-45.898,-42.969,81.055
1689186033.550,-63.477,-35.645,-28.809,-61.035,11.230
1689186033.554,-50.781,-38.574,-16.113,-52.246,-150.391
1689186033.558,-34.180,-42.480,-17.578,-31.250,-68.848
1689186033.562,-29.297,-40.039,-24.414,-30.762,415.527
1689186033.565,-37.109,-35.156,-33.691,-31.250,396.973
1689186033.569,-53.711,-36.621,-39.062,-49.805,-153.320
1689186033.573,-47.852,-44.922,-28.320,-55.664,-148.438
1689186033.577,-21.973,-45.410,-19.043,-27.344,-72.754
1689186033.581,-14.160,-34.668,-19.043,-19.043,-148.926
1689186033.584,-25.879,-37.109,-16.113,-35.645,-154.297
1689186033.588,-38.574,-33.203,-23.438,-41.016,-54.688
1689186033.592,-38.086,-16.113,-24.414,-41.504,-50.293
1689186033.596,-22.461,-14.648,-21.484,-22.949,-65.918
1689186033.600,-0.488,-26.855,-21.484,8.789,-44.922
1689186033.604,-7.324,-22.461,-29.297,-9.766,261.230
1689186033.608,-42.969,-2.930,-41.992,-51.270,351.562
1689186033.611,-48.340,0.977,-41.016,-64.941,-166.016
1689186033.615,-19.043,-1.953,-39.551,-44.434,-287.598
1689186033.619,-3.418,-3.906,-40.039,-14.648,-68.359
1689186033.623,-9.766,-8.301,-38.086,-15.625,-66.895
1689186033.627,-37.598,-13.672,-37.109,-40.527,-199.219
1689186033.642,-55.664,-23.438,-33.203,-45.410,-217.773
1689186033.646,-35.645,-25.391,-27.832,-30.273,-166.992
1689186033.650,-8.789,-25.391,-34.180,-20.508,-2.930
1689186033.654,-9.277,-26.367,-37.598,-20.508,-14.160
1689186033.658,-29.297,-22.461,-35.645,-24.414,-103.516
1689186033.662,-35.156,-26.367,-31.738,-21.484,265.137
1689186033.666,-23.926,-29.297,-29.785,-9.277,197.266
1689186033.669,-0.977,-19.531,-33.203,3.418,-141.602
1689186033.673,-0.977,-17.090,-29.785,-2.441,-21.484
1689186033.677,-30.762,-27.832,-29.785,-26.855,20.508
1689186033.681,-33.691,-22.949,-33.691,-28.320,-156.250
1689186033.685,-18.555,-13.672,-31.250,-26.367,-282.227
1689186033.687,-13.672,-16.113,-29.785,-24.902,-83.008
1689186033.691,-21.973,-19.531,-23.926,-16.602,154.785
1689186033.695,-42.969,-27.344,-20.996,-23.926,-87.891
1689186033.699,-53.223,-29.785,-32.227,-31.738,-205.566
1689186033.703,-39.551,-22.949,-23.926,-34.668,-144.043
1689186033.707,-16.602,-20.508,-20.020,-23.438,-110.840
1689186033.711,-12.207,-27.832,-34.668,-13.184,-67.871
1689186033.714,-32.227,-33.203,-28.809,-20.020,-107.422
1689186033.718,-44.434,-27.832,-33.203,-32.227,104.980
1689186033.722,-35.645,-25.391,-32.227,-41.016,296.875
