timestamps,TP9,AF7,AF8,TP10,Right AUX
1689186702.119,-33.691,-24.902,-24.414,-7.324,-192.871
1689186702.123,-6.348,-24.414,-18.555,16.113,-229.004
1689186702.127,-14.160,-33.691,-21.484,-10.254,-144.531
1689186702.131,-31.250,-33.203,-21.973,-25.879,-22.949
1689186702.135,-48.340,-31.738,-21.973,-31.250,-86.426
1689186702.139,-59.570,-41.992,-25.879,-35.156,-63.477
1689186702.143,-37.109,-39.062,-31.250,-29.785,7.324
1689186702.146,-11.230,-31.250,-29.785,-3.906,138.184
1689186702.150,-27.344,-32.227,-30.762,-16.113,332.031
1689186702.154,-46.387,-30.762,-34.668,-48.340,-5.371
1689186702.158,-59.570,-30.762,-29.297,-45.410,-264.648
1689186702.162,-45.410,-29.785,-24.902,-29.297,-175.781
1689186702.164,-5.371,-28.809,-22.949,-13.672,-80.566
1689186702.168,-8.789,-27.344,-20.508,-6.348,-110.840
1689186702.172,-17.578,-21.484,-23.926,-14.648,-165.039
1689186702.176,-20.996,-29.297,-31.738,-32.227,-114.746
1689186702.180,-32.227,-34.668,-32.715,-34.180,-149.902
1689186702.184,-22.949,-32.715,-28.809,-18.555,-115.723
1689186702.188,-20.996,-33.203,-31.738,-10.254,104.492
1689186702.191,-46.387,-35.156,-32.227,-28.809,209.961
1689186702.195,-64.941,-30.762,-27.344,-50.293,35.156
1689186702.199,-42.969,-27.344,-27.832,-33.203,-181.152
1689186702.203,-17.090,-32.227,-25.879,-6.836,-64.453
1689186702.207,-24.414,-27.344,-22.949,-12.695,279.297
1689186702.209,-32.715,-22.461,-24.902,-26.855,8.789
1689186702.213,-47.852,-26.367,-28.809,-43.945,-308.594
1689186702.217,-50.293,-28.809,-29.785,-39.551,-188.477
1689186702.221,-29.297,-27.832,-24.414,-10.254,-108.398
1689186702.225,-13.672,-29.297,-22.461,-9.277,-73.242
1689186702.229,-33.203,-30.273,-28.320,-36.133,-84.473
1689186702.233,-54.688,-27.832,-32.715,-58.105,49.805
1689186702.236,-35.645,-23.438,-33.203,-37.598,132.812
1689186702.240,-11.719,-21.484,-40.527,-12.695,-62.988
1689186702.244,-7.812,-25.391,-39.062,-7.324,-96.191
1689186702.248,-26.367,-28.320,-30.762,-29.297,-98.145
1689186702.252,-40.527,-26.855,-23.438,-47.852,-160.645
1689186702.255,-39.062,-24.902,-22.949,-34.668,-222.656
1689186702.259,-24.902,-26.367,-29.785,-19.043,-147.461
1689186702.263,-14.648,-28.320,-34.668,-11.719,41.504
1689186702.267,-23.926,-25.879,-31.738,-18.555,10.742
1689186702.271,-52.734,-25.879,-31.738,-37.598,-165.039
1689186702.275,-43.457,-26.367,-32.715,-36.133,-94.238
1689186702.279,-3.418,-20.996,-28.320,-3.906,246.094
1689186702.282,2.930,-21.973,-30.762,2.930,123.047
1689186702.286,-26.367,-27.344,-31.738,-17.090,-79.590
1689186702.290,-54.688,-23.438,-28.809,-33.691,70.801
1689186702.294,-48.340,-25.391,-30.273,-41.504,62.012
1689186702.298,-35.156,-35.645,-25.391,-25.391,-119.629
1689186702.315,-10.742,-34.180,-21.484,-2.930,-145.996
1689186702.319,-7.812,-11.230,-36.621,-21.484,-97.168
1689186702.323,-47.363,-2.441,-44.434,-67.871,-166.992
1689186702.327,-67.871,-12.207,-40.039,-84.961,-121.094
1689186702.331,-52.246,-13.672,-45.410,-78.125,-99.121
1689186702.335,-38.574,-13.672,-48.828,-63.965,155.762
1689186702.339,-64.453,-11.719,-47.852,-70.801,418.945
1689186702.342,-84.473,-1.465,-51.758,-105.469,-8.301
1689186702.346,-90.332,1.465,-55.176,-127.930,-237.305
1689186702.350,-84.961,0.977,-55.664,-114.258,-175.293
1689186702.354,-83.008,-4.883,-54.199,-93.750,-132.812
1689186702.358,-105.957,-10.742,-53.711,-108.398,-90.332
1689186702.359,-114.746,-14.648,-54.688,-135.742,-112.793
1689186702.363,-113.281,-18.066,-50.781,-141.602,-127.930
1689186702.367,-110.840,-20.508,-46.875,-129.395,-98.633
1689186702.371,-98.145,-25.391,-49.805,-115.234,-83.984
1689186702.375,-84.961,-25.879,-46.875,-102.539,-31.738
1689186702.379,-94.238,-27.832,-47.363,-97.656,-4.395
1689186702.383,-105.957,-30.762,-45.898,-101.562,-26.855
1689186702.386,-74.219,-30.273,-42.480,-88.379,-44.922
1689186702.390,-37.598,-30.273,-40.039,-61.035,42.969
1689186702.394,-27.344,-28.809,-33.691,-50.293,395.996
1689186702.398,-33.691,-23.438,-34.180,-56.152,407.715
1689186702.402,-42.969,-27.344,-36.133,-67.871,-88.379
1689186702.404,-44.922,-35.156,-33.203,-63.477,-223.633
1689186702.408,-24.414,-25.391,-27.344,-21.973,-158.691
1689186702.412,-14.648,-18.555,-29.785,-6.348,-162.598
1689186702.416,-30.273,-21.973,-39.551,-39.062,-145.996
1689186702.420,-40.527,-31.738,-36.133,-55.176,-97.168
1689186702.424,-47.363,-34.180,-29.297,-54.199,-13.672
1689186702.428,-37.598,-23.926,-27.344,-46.875,51.270
1689186702.431,-32.227,-26.855,-30.762,-31.738,-78.125
1689186702.435,-45.410,-31.250,-33.691,-37.109,56.641
1689186702.439,-63.965,-31.250,-30.762,-54.688,248.047
1689186702.443,-49.805,-29.785,-27.832,-41.504,-146.484
1689186702.447,-25.391,-25.391,-29.785,-21.973,-222.168
1689186702.449,-21.973,-23.926,-26.855,-12.695,-41.504
1689186702.453,-29.297,-30.273,-26.855,-23.926,-99.609
1689186702.457,-46.875,-35.645,-31.738,-51.758,-232.910
1689186702.461,-46.875,-35.156,-36.133,-47.363,-235.840
1689186702.465,-31.250,-31.250,-36.133,-26.367,-115.234
1689186702.469,-10.742,-28.809,-27.832,-14.160,62.012
1689186702.473,-9.277,-28.809,-22.949,-17.090,73.242
1689186702.476,-40.527,-30.762,-25.879,-41.992,-70.312
1689186702.480,-45.410,-29.297,-34.180,-44.434,274.902
1689186702.484,-23.438,-27.832,-33.691,-23.438,319.336
1689186702.488,-17.578,-26.367,-28.320,-9.766,-137.207
1689186702.492,-22.949,-27.344,-29.785,-22.461,57.129
1689186702.494,-51.758,-33.203,-29.785,-47.363,137.207
1689186702.498,-63.965,-29.785,-28.320,-57.129,-196.777
1689186702.502,-42.969,-28.809,-26.367,-39.551,-235.352
1689186702.506,-27.832,-35.156,-26.855,-15.137,-42.969
1689186702.510,-19.531,-31.738,-32.227,-20.020,20.508
1689186702.514,-48.340,-30.762,-31.738,-53.711,-22.949
1689186702.518,-62.988,-33.691,-31.250,-58.105,-41.016
1689186702.521,-40.039,-31.250,-28.809,-28.320,-52.734
1689186702.525,-11.719,-34.180,-20.508,-4.883,-50.781
1689186702.529,-10.742,-39.062,-19.531,-4.883,-50.293
1689186702.533,-20.020,-39.062,-22.949,-21.484,-143.555
1689186702.537,-20.020,-31.738,-25.391,-27.344,25.391
1689186702.540,-21.484,-29.785,-26.367,-28.809,50.293
1689186702.544,-16.113,-33.691,-28.320,-16.602,-174.316
1689186702.548,1.953,-29.785,-34.180,-5.859,-37.109
1689186702.552,-16.602,-26.367,-39.062,-29.785,24.902
1689186702.556,-62.500,-30.273,-32.715,-45.898,-144.043
1689186702.560,-49.805,-25.391,-28.809,-41.992,-243.652
1689186702.564,-16.113,-26.855,-35.645,-34.180,-23.438
1689186702.567,-2.441,-32.227,-31.738,-9.277,276.855
1689186702.571,-15.625,-24.902,-24.414,-10.254,166.992
1689186702.575,-34.668,-21.484,-20.508,-38.086,-105.469
1689186702.579,-34.180,-22.949,-20.996,-42.969,-114.258
1689186702.583,-16.113,-19.043,-23.926,-13.184,38.086
1689186702.584,-7.324,-13.672,-21.973,3.418,-67.383
1689186702.588,-24.902,-19.043,-33.203,-32.227,-176.270
1689186702.592,-42.969,-25.879,-29.785,-58.594,-151.855
1689186702.596,-48.828,-26.367,-17.090,-41.016,-159.180
1689186702.600,-41.016,-25.879,-23.438,-12.207,-114.746
1689186702.604,-26.855,-27.832,-28.320,4.883,46.875
1689186702.608,-34.180,-31.250,-23.926,-2.930,287.109
1689186702.611,-45.898,-30.762,-27.344,-18.555,322.754
1689186702.615,-35.645,-21.973,-20.996,-29.785,-73.730
1689186702.619,-44.434,-24.902,-6.836,-26.367,-194.336
1689186702.623,-64.941,-34.668,-9.766,-14.648,-81.055
1689186702.627,-82.031,-26.367,-15.137,-37.109,-127.930
1689186702.629,-116.699,-17.090,-25.391,-89.844,-215.332
1689186702.633,-125.977,-17.090,-34.180,-127.930,-230.957
1689186702.637,-104.004,-13.672,-32.227,-125.488,-124.512
1689186702.641,-102.051,-14.648,-31.250,-100.586,-22.949
1689186702.645,-122.559,-19.531,-32.715,-98.145,-60.059
1689186702.649,-147.949,-14.648,-38.574,-145.508,-72.754
1689186702.653,-149.414,-11.719,-39.062,-158.203,146.484
1689186702.656,-134.277,-13.184,-33.691,-137.207,132.812
1689186702.660,-111.816,-18.555,-31.738,-114.746,3.418
1689186702.664,-106.934,-22.949,-33.203,-112.793,25.391
1689186702.668,-137.695,-28.809,-31.250,-124.023,237.305
1689186702.672,-138.672,-38.574,-29.297,-120.605,21.973
1689186702.689,-123.047,-41.504,-34.668,-116.211,-304.199
1689186702.693,-98.633,-35.645,-33.203,-102.051,-159.180
1689186702.697,-74.707,-34.180,-28.320,-90.820,-44.434
1689186702.701,-92.773,-40.039,-28.320,-99.121,-71.777
1689186702.705,-100.098,-41.504,-29.297,-98.145,-170.898
1689186702.709,-55.176,-34.180,-30.762,-68.848,2.441
1689186702.713,-24.902,-40.039,-29.297,-45.410,184.570
1689186702.716,-30.762,-43.457,-26.855,-21.973,53.223
1689186702.720,-27.344,-35.645,-35.156,-23.438,-153.809
1689186702.724,-39.551,-39.062,-29.297,-44.922,39.551
1689186702.728,-41.016,-42.480,-21.973,-41.016,169.434
1689186702.732,-4.883,-34.180,-31.738,-14.648,-82.031
1689186702.734,0.000,-30.273,-27.832,-9.766,-99.609
1689186702.738,-19.043,-31.738,-24.902,-31.738,-117.676
1689186702.742,-34.180,-32.227,-27.344,-42.480,-213.867
1689186702.746,-39.551,-29.297,-28.809,-43.457,-243.652
1689186702.750,-14.160,-34.180,-27.832,-17.090,-128.906
1689186702.754,3.418,-38.086,-28.320,2.441,54.688
1689186702.758,-10.254,-28.809,-26.855,-6.836,40.527
1689186702.761,-23.926,-27.832,-28.320,-26.367,-165.039
1689186702.765,-23.438,-35.645,-33.203,-27.832,-115.234
1689186702.769,-6.836,-38.574,-30.762,-10.254,370.605
1689186702.773,-2.930,-38.574,-29.297,-5.859,343.262
1689186702.777,-28.320,-38.574,-33.691,-18.066,-90.332
1689186702.779,-47.852,-41.992,-29.297,-32.715,-32.715
1689186702.783,-37.598,-34.180,-19.531,-21.973,-4.395
1689186702.787,-12.695,-29.297,-20.020,-6.348,-165.039
1689186702.791,6.836,-35.156,-22.949,-3.906,-158.203
1689186702.795,-4.883,-34.180,-20.996,-12.207,-19.043
1689186702.799,-21.484,-27.344,-21.973,-19.043,21.973
1689186702.803,-37.109,-25.391,-20.020,-21.484,-30.273
1689186702.806,-17.090,-28.809,-16.602,-18.066,-143.555
1689186702.810,12.207,-30.762,-23.926,14.160,47.852
1689186702.814,-20.020,-30.762,-29.785,7.812,217.773
1689186702.818,-65.430,-31.738,-26.855,-27.832,-157.227
1689186702.822,-60.059,-34.180,-27.344,-43.457,-287.598
1689186702.825,-24.414,-33.203,-31.250,-27.832,-190.430
1689186702.829,-11.230,-31.738,-24.414,11.719,-89.844
1689186702.833,-11.230,-30.762,-18.066,0.000,-13.184
1689186702.837,-27.832,-30.762,-21.484,-38.574,-45.410
1689186702.841,-46.875,-30.762,-24.902,-49.316,-60.547
1689186702.845,-32.227,-30.762,-15.625,-29.297,-30.762
1689186702.849,-14.648,-34.668,-17.578,-6.836,-26.367
1689186702.852,-8.301,-32.715,-34.668,-15.625,-38.086
1689186702.856,-30.273,-32.227,-39.551,-42.480,225.098
1689186702.860,-42.969,-35.156,-33.203,-46.387,245.117
1689186702.864,-17.578,-35.645,-26.367,-32.715,-177.734
1689186702.868,-22.949,-29.785,-26.855,-26.855,-176.758
1689186702.869,-35.645,-33.203,-29.297,-22.949,-104.980
1689186702.873,-44.922,-39.062,-24.902,-30.273,-204.102
1689186702.877,-68.848,-35.156,-25.391,-46.875,-285.645
1689186702.881,-66.895,-33.203,-25.391,-43.457,-233.887
1689186702.885,-43.945,-34.180,-23.926,-32.715,-93.750
1689186702.889,-32.227,-33.691,-24.902,-24.902,-17.090
1689186702.893,-41.992,-27.832,-26.855,-32.715,10.254
1689186702.896,-46.387,-25.391,-28.809,-41.504,119.141
1689186702.900,-48.828,-29.297,-28.809,-33.691,198.730
1689186702.904,-39.062,-29.297,-30.273,-17.578,-72.754
1689186702.908,-10.742,-27.832,-30.762,-22.461,-206.543
1689186702.912,-16.113,-25.879,-33.203,-43.945,-165.527
1689186702.914,-49.805,-24.414,-29.785,-48.340,-241.699
1689186702.918,-50.781,-27.344,-28.320,-49.316,-262.207
1689186702.922,-31.250,-27.832,-26.367,-33.203,-147.949
1689186702.926,-14.648,-27.832,-29.297,-10.254,-43.457
1689186702.930,-31.738,-28.809,-36.621,-32.227,-101.074
1689186702.934,-61.035,-27.832,-34.668,-59.570,-142.090
1689186702.938,-56.152,-29.785,-31.250,-51.758,24.414
1689186702.941,-34.668,-30.762,-30.273,-23.438,462.402
1689186702.945,-28.809,-32.715,-31.250,-8.789,517.578
1689186702.949,-34.180,-26.855,-29.785,-20.508,34.668
1689186702.953,-44.434,-20.508,-31.738,-35.645,-58.594
1689186702.957,-48.340,-26.367,-33.691,-40.039,95.215
1689186702.959,-27.832,-26.855,-28.320,-31.738,-55.176
1689186702.963,4.883,-20.020,-23.926,-5.371,-143.066
1689186702.967,-9.277,-24.414,-23.438,-15.137,-54.199
1689186702.971,-42.969,-23.438,-23.438,-45.410,-86.426
1689186702.975,-64.453,-21.484,-24.414,-42.480,-185.547
1689186702.979,-53.711,-28.320,-27.344,-30.762,-84.473
1689186702.983,-26.855,-33.203,-26.367,-10.742,192.871
1689186702.986,-29.297,-30.273,-27.344,-10.254,135.254
1689186702.990,-46.387,-25.879,-30.762,-39.062,-94.727
1689186702.994,-59.082,-26.855,-28.809,-45.898,-145.020
1689186702.998,-44.922,-28.320,-23.438,-20.508,165.039
1689186703.002,-16.602,-28.809,-18.066,-14.648,299.805
1689186703.004,-23.926,-29.297,-22.949,-31.250,-47.852
1689186703.008,-57.129,-29.297,-34.180,-33.691,-177.246
1689186703.012,-45.898,-33.203,-35.156,-45.410,-165.527
1689186703.016,-41.016,-31.250,-33.203,-52.246,-128.906
1689186703.020,-25.391,-32.227,-34.180,-37.109,-125.488
1689186703.024,2.441,-43.457,-23.438,-20.020,7.812
1689186703.028,-17.578,-33.691,-23.926,-39.062,253.906
1689186703.031,-57.129,-15.137,-42.480,-82.520,15.625
1689186703.035,-46.875,-13.184,-44.922,-71.777,-196.777
1689186703.039,-37.109,-17.578,-47.363,-28.320,9.766
1689186703.043,-47.363,-23.926,-42.480,-18.555,229.980
1689186703.047,-51.270,-23.926,-34.180,-33.691,9.277
1689186703.050,-61.035,-22.461,-38.086,-62.988,-226.562
1689186703.054,-44.434,-23.926,-39.062,-54.199,-77.148
1689186703.058,-28.320,-25.879,-34.180,-28.320,28.809
1689186703.062,-14.160,-30.273,-33.203,-19.043,-67.871
1689186703.066,-35.645,-27.344,-30.762,-26.367,-141.113
1689186703.070,-43.457,-20.020,-26.367,-54.688,79.590
1689186703.074,-27.832,-19.043,-28.320,-53.223,164.551
1689186703.077,-19.043,-21.484,-28.320,-21.973,-76.660
1689186703.081,-2.441,-17.578,-30.762,-13.672,-127.930
1689186703.085,-20.996,-20.996,-33.203,-27.344,71.289
1689186703.089,-41.504,-28.320,-32.227,-34.668,42.969
1689186703.093,-29.297,-29.785,-33.203,-32.227,-227.051
1689186703.109,-9.766,-27.344,-29.785,-19.043,-165.039
1689186703.113,-12.695,-24.902,-27.344,7.324,-52.246
1689186703.117,-27.832,-26.855,-29.785,-0.977,-19.043
1689186703.121,-42.480,-30.762,-26.367,-28.809,-53.223
1689186703.125,-34.668,-37.598,-24.902,-38.086,-191.406
1689186703.129,-10.254,-37.109,-23.438,-16.602,100.098
1689186703.133,-6.348,-27.832,-20.020,-3.906,246.094
1689186703.136,-21.484,-26.367,-25.879,-16.602,-18.555
1689186703.140,-43.457,-32.227,-25.879,-35.156,-79.590
1689186703.144,-48.340,-31.738,-23.926,-65.430,152.832
1689186703.148,-38.574,-29.297,-23.926,-45.410,66.895
1689186703.152,-18.555,-30.273,-29.297,-17.090,-128.418
1689186703.169,-9.277,-25.879,-28.320,-29.297,-43.457
1689186703.173,-28.320,-27.344,-25.879,-47.363,-86.914
1689186703.177,-40.527,-28.809,-32.227,-37.598,-229.004
1689186703.181,-38.086,-25.391,-33.203,-20.020,-253.906
1689186703.185,-18.066,-28.320,-31.250,-10.742,-116.699
1689186703.189,-14.648,-26.855,-27.344,-10.254,17.578
1689186703.193,-38.574,-22.461,-26.855,-24.414,-6.836
1689186703.196,-45.898,-25.391,-28.320,-27.832,-118.164
1689186703.200,-37.109,-33.203,-28.320,-18.555,26.367
1689186703.204,-24.902,-32.227,-25.391,-21.484,311.035
1689186703.208,-27.344,-25.879,-25.391,-26.367,43.457
1689186703.212,-49.805,-26.855,-31.250,-37.598,-203.125
1689186703.199,-67.383,-35.156,-33.691,-46.387,-191.895
1689186703.203,-51.270,-38.086,-32.227,-33.691,-177.246
1689186703.207,-24.902,-34.668,-32.715,-9.277,-132.812
1689186703.211,-13.184,-28.809,-31.738,-12.695,-52.734
1689186703.215,-19.043,-24.902,-28.809,-38.574,-39.551
1689186703.219,-46.875,-22.949,-28.809,-35.645,-55.176
1689186703.223,-42.480,-18.066,-26.367,-49.316,-92.285
1689186703.226,-21.484,-21.973,-23.438,-44.922,49.805
1689186703.230,-19.531,-29.785,-27.344,-20.508,285.156
1689186703.234,-35.156,-27.344,-28.809,-30.273,159.180
1689186703.238,-40.527,-25.879,-26.367,-54.199,-129.883
1689186703.242,-18.555,-25.391,-23.438,-42.480,-168.457
1689186703.244,-38.086,-28.809,-24.902,-15.137,298.828
1689186703.248,-40.527,-34.180,-24.414,-3.906,401.855
1689186703.252,-31.738,-30.273,-24.902,-10.742,-1.465
1689186703.256,-56.152,-26.367,-31.250,-31.250,-167.480
1689186703.260,-57.617,-26.855,-25.879,-43.945,-238.770
1689186703.264,-32.715,-26.855,-23.926,-26.367,-126.465
1689186703.268,-25.391,-31.250,-32.715,-11.719,-35.645
1689186703.271,-32.715,-33.691,-27.344,-16.113,133.789
1689186703.275,-50.781,-28.320,-25.879,-44.922,167.480
1689186703.279,-57.617,-26.367,-23.438,-62.500,-176.270
1689186703.283,-33.691,-29.785,-25.391,-31.250,-147.949
1689186703.287,-12.695,-33.203,-31.250,-6.348,10.254
1689186703.289,-28.320,-32.227,-28.320,-18.555,-37.109
1689186703.293,-65.918,-27.344,-20.996,-44.434,-222.168
1689186703.297,-59.082,-26.367,-20.996,-45.898,-249.512
1689186703.301,-38.574,-28.320,-29.297,-28.320,-129.883
1689186703.305,-29.297,-34.668,-30.762,-9.277,34.180
1689186703.309,-23.438,-35.645,-27.832,-5.371,89.844
1689186703.313,-43.945,-28.809,-25.391,-41.016,-29.297
1689186703.316,-70.801,-30.273,-26.367,-57.129,105.957
1689186703.320,-55.664,-31.250,-25.879,-40.527,54.199
1689186703.324,-27.344,-30.273,-26.367,-20.996,-171.387
1689186703.328,-27.344,-33.203,-28.320,-23.926,-24.902
1689186703.332,-36.133,-30.762,-26.855,-46.387,51.270
1689186703.335,-51.270,-37.598,-35.156,-41.016,-147.461
1689186703.339,-55.664,-41.504,-39.062,-33.203,-205.078
1689186703.343,-23.926,-33.203,-38.574,-31.738,14.160
1689186703.347,-11.719,-27.344,-38.086,-24.414,131.348
1689186703.351,-54.688,-28.320,-39.062,-44.922,-109.863
1689186703.355,-64.941,-31.250,-41.504,-52.246,-186.035
1689186703.359,-34.668,-31.250,-36.621,-32.715,99.121
1689186703.362,-5.859,-31.738,-24.902,-2.441,251.953
1689186703.366,5.859,-28.320,-20.508,15.625,-77.637
1689186703.370,-13.184,-24.414,-23.926,-20.996,-194.824
1689186703.374,-37.109,-25.391,-24.414,-39.062,-204.102
1689186703.378,-41.992,-28.809,-24.902,-26.367,-211.914
1689186703.379,-17.578,-27.344,-26.367,-30.762,-122.070
1689186703.383,-15.137,-24.414,-22.949,-14.648,-47.852
1689186703.387,-30.273,-21.973,-23.926,-24.902,-54.199
1689186703.391,-40.039,-17.578,-27.344,-43.945,-77.637
1689186703.395,-20.996,-25.879,-27.344,-38.574,-143.555
1689186703.399,-10.254,-32.715,-24.414,-15.137,-21.973
1689186703.403,-1.953,-30.762,-22.949,-2.930,416.504
1689186703.406,-8.301,-31.738,-21.973,-15.625,311.035
1689186703.410,-38.086,-31.250,-22.461,-46.875,-134.766
1689186703.414,-40.039,-31.250,-26.367,-59.570,-93.750
1689186703.418,-35.156,-34.668,-22.949,-14.648,27.832
1689186703.422,-22.461,-36.133,-23.438,-8.301,-73.242
1689186703.424,-19.043,-35.156,-27.344,-35.156,-151.367
1689186703.428,-41.504,-35.645,-29.297,-55.664,-152.832
1689186703.432,-50.293,-30.762,-32.227,-49.805,-226.074
1689186703.436,-21.484,-29.297,-33.203,-27.832,-215.332
1689186703.440,7.812,-30.273,-31.250,-11.719,-96.680
1689186703.444,-14.648,-25.391,-32.715,-11.230,89.844
1689186703.448,-62.500,-26.855,-27.344,-42.969,15.625
1689186703.451,-79.102,-30.762,-24.414,-62.988,-86.426
1689186703.455,-50.293,-30.762,-27.832,-38.574,-113.281
1689186703.459,-20.508,-30.762,-28.320,-13.184,111.328
1689186703.463,-8.789,-29.785,-32.715,-18.066,349.121
1689186703.467,-34.180,-23.926,-32.227,-27.832,-21.973
1689186703.484,-50.293,-22.949,-31.738,-46.387,-187.988
1689186703.488,-30.273,-24.414,-29.785,-41.992,-133.789
1689186703.492,-4.883,-23.926,-24.902,-20.020,-62.500
1689186703.496,-12.695,-24.902,-23.438,-16.113,-75.195
1689186703.500,-48.340,-25.391,-29.297,-36.133,-111.328
1689186703.504,-64.453,-29.785,-34.180,-36.621,-63.477
1689186703.508,-35.645,-30.273,-27.344,-26.855,-67.383
1689186703.511,-21.484,-28.809,-22.461,-22.949,-66.406
1689186703.515,-23.926,-28.320,-30.273,-12.207,30.762
1689186703.519,-37.598,-27.832,-33.691,-24.414,371.582
1689186703.523,-56.152,-32.227,-28.809,-41.504,320.312
1689186703.527,-38.086,-40.039,-29.785,-32.715,-151.367
1689186703.529,-5.371,-36.133,-26.855,-16.113,-103.027
1689186703.533,-7.324,-24.414,-20.508,-13.672,4.883
1689186703.537,-47.852,-22.949,-21.484,-34.668,-160.156
1689186703.541,-61.035,-27.832,-26.367,-59.570,-255.859
1689186703.545,-54.688,-31.250,-26.367,-46.875,-176.270
1689186703.549,-21.484,-27.344,-27.344,-4.883,38.574
1689186703.553,6.836,-24.414,-21.973,29.297,90.820
1689186703.556,-11.719,-29.297,-16.602,2.930,-103.516
1689186703.560,-51.758,-30.273,-19.531,-39.062,-2.930
1689186703.564,-59.082,-30.762,-24.414,-21.484,110.352
1689186703.568,-21.973,-27.832,-34.668,-10.254,-135.254
1689186703.572,-8.789,-26.855,-27.344,-4.395,-120.117
1689186703.574,-30.273,-33.691,-15.625,-17.578,5.859
1689186703.578,-47.363,-36.133,-18.555,-49.316,-76.660
1689186703.582,-26.367,-30.762,-24.902,-44.434,-203.613
1689186703.586,-12.207,-34.180,-30.273,-16.113,-104.492
1689186703.590,-13.184,-34.180,-32.227,-5.859,0.000
1689186703.594,-41.992,-26.367,-22.461,-18.066,53.711
1689186703.598,-51.270,-21.484,-21.484,-39.062,-83.008
1689186703.601,-27.832,-16.602,-25.879,-32.227,-227.539
1689186703.605,-31.738,-19.531,-20.508,-15.625,261.719
1689186703.609,-16.602,-24.414,-19.531,-11.719,375.000
1689186703.613,-8.301,-19.531,-26.855,-25.879,-114.258
1689186703.617,-29.785,-17.090,-32.715,-54.688,-179.688
1689186703.620,-55.664,-23.926,-25.879,-56.152,-189.453
1689186703.624,-41.504,-30.273,-23.438,-33.203,-160.645
1689186703.628,3.906,-27.344,-29.785,-21.973,-91.797
1689186703.632,-18.555,-23.438,-24.902,-27.344,11.719
1689186703.636,-42.480,-24.414,-20.020,-40.039,-1.953
1689186703.640,-42.969,-34.180,-28.320,-44.922,-124.512
1689186703.644,-30.762,-32.715,-33.691,-27.344,-112.305
1689186703.647,-3.418,-27.832,-36.133,20.508,129.395
1689186703.651,0.977,-25.391,-29.297,26.367,249.023
1689186703.655,-41.504,-22.949,-17.578,-23.926,-145.020
1689186703.659,-65.430,-21.484,-10.742,-58.105,-307.129
1689186703.663,-46.875,-23.438,-16.113,-45.410,-215.332
1689186703.664,-37.598,-33.203,-20.020,-24.902,-118.164
1689186703.668,-16.602,-36.133,-12.207,-30.273,-110.840
1689186703.672,-36.133,-34.180,-25.391,-58.594,-120.605
1689186703.676,-60.059,-32.715,-24.902,-60.547,-74.219
1689186703.680,-34.180,-30.273,-14.160,-49.316,-92.285
1689186703.684,-14.160,-27.832,-25.391,-35.156,-23.438
1689186703.688,-0.488,-29.785,-27.344,-17.578,57.617
1689186703.691,-10.254,-29.297,-29.785,-21.973,286.133
1689186703.695,-47.852,-39.551,-27.832,-27.832,302.734
1689186703.699,-72.266,-45.898,-19.531,-55.176,-115.723
1689186703.703,-19.043,-29.297,-27.832,-36.621,-115.234
1689186703.707,-3.906,-17.090,-37.598,5.859,158.691
1689186703.709,-49.805,-15.625,-43.457,-9.766,-18.066
1689186703.713,-33.691,-23.438,-34.180,-34.668,-249.023
1689186703.717,-9.766,-29.297,-22.949,-36.133,-181.641
1689186703.721,-32.227,-32.715,-32.227,-13.672,-142.090
1689186703.725,-49.805,-39.062,-20.508,-31.738,-127.930
1689186703.729,-29.785,-28.809,-17.090,-15.625,-104.980
1689186703.733,-36.133,-20.508,-20.996,-14.648,109.863
1689186703.736,-58.594,-21.973,-20.020,-56.152,298.340
1689186703.740,-29.297,-19.531,-39.551,-39.062,14.648
1689186703.744,-12.695,-24.414,-46.875,-19.531,-75.684
1689186703.748,-7.324,-27.344,-36.621,-12.695,38.086
1689186703.752,-24.902,-22.461,-35.156,-44.922,-14.160
1689186703.754,-84.961,-53.711,-6.348,-137.207,-213.867
1689186703.758,-54.199,-57.129,6.348,-81.543,-166.016
1689186703.762,-4.883,-18.066,-42.969,20.508,42.969
1689186703.766,-36.621,-31.738,-20.996,-73.730,41.992
1689186703.770,-62.012,-38.574,5.859,-82.031,-95.215
1689186703.774,-2.930,-12.207,-67.871,40.039,-40.527
1689186703.778,-10.254,-18.066,-69.336,17.578,305.176
1689186703.781,-40.527,-20.996,14.160,-13.672,243.652
1689186703.785,2.441,-30.762,24.902,-0.488,-26.855
1689186703.789,-17.578,-35.645,-48.340,-2.930,24.414
1689186703.793,-77.637,-21.484,-21.973,-41.016,229.004
1689186703.797,-50.781,-25.391,-14.160,-51.758,83.496
1689186703.799,9.766,-25.879,-42.480,9.277,-110.352
1689186703.803,-24.902,-34.668,17.090,-48.828,-4.395
1689186703.807,-40.039,-22.949,-47.852,-56.152,-58.105
1689186703.811,-33.203,-14.160,-66.406,-21.973,-163.086
1689186703.815,-5.859,-45.898,7.324,14.160,-192.871
1689186703.819,45.410,-34.180,-40.527,76.660,75.684
1689186703.823,11.230,1.465,-123.535,42.480,180.664
1689186703.826,-69.824,11.230,-79.590,-36.133,-97.656
1689186703.830,-88.867,-1.465,-52.246,-59.570,-249.023
1689186703.834,-47.852,-63.965,48.340,-8.301,-73.730
1689186703.838,40.527,-72.754,-7.324,57.129,85.938
1689186703.842,55.664,-23.438,-152.832,43.945,-0.977
1689186703.859,39.062,-23.438,-56.152,30.273,-94.238
1689186703.863,-32.715,-23.926,-73.730,1.953,-45.898
1689186703.867,-81.543,-18.555,-56.152,-65.918,-78.125
1689186703.871,-45.898,-36.133,-45.410,-39.062,-119.141
1689186703.875,-99.609,-33.203,-3.418,-26.367,-4.883
1689186703.879,-48.828,-64.453,20.508,-27.344,104.004
1689186703.883,13.184,-52.734,-119.629,12.695,12.207
1689186703.886,31.250,-19.043,-116.699,4.883,-159.668
1689186703.890,15.137,-33.691,-74.707,4.395,-39.062
1689186703.894,-56.152,-23.438,-68.359,32.227,374.023
1689186703.898,-25.391,-29.785,-37.109,49.316,177.246
1689186703.902,-35.645,-39.551,-45.898,11.719,-245.605
1689186703.919,20.020,-50.293,-119.141,23.926,-182.617
1689186703.923,16.602,-31.250,-66.406,-25.391,-103.516
1689186703.927,7.812,-42.969,14.648,-3.418,-71.289
1689186703.931,19.531,-23.438,-51.758,64.941,-125.977
1689186703.935,-32.227,-5.371,-126.465,-2.441,-71.289
1689186703.939,-30.273,-55.176,-43.457,11.719,13.184
1689186703.943,-8.301,25.879,-82.031,17.578,-8.789
1689186703.946,-0.488,-10.254,-77.148,-5.371,-33.203
1689186703.950,11.719,-132.324,10.742,35.645,-27.832
1689186703.954,-16.113,-96.191,6.836,20.508,-99.609
1689186703.958,18.066,-82.031,-30.762,49.316,-195.312
1689186703.962,22.949,-68.359,-20.996,34.668,-185.059
1689186703.949,-27.344,-59.570,10.254,-58.594,122.070
1689186703.953,-5.371,-60.547,-85.938,5.859,197.266
1689186703.957,16.602,-65.918,-57.129,60.059,-161.133
1689186703.961,-32.227,-56.152,-48.828,-2.441,-173.340
1689186703.965,23.438,-49.805,-84.961,23.926,2.441
1689186703.969,78.613,-59.570,-39.551,78.613,84.961
1689186703.973,-9.277,-31.250,-36.621,5.859,61.035
1689186703.976,-76.172,-33.203,-49.316,-63.965,-8.789
1689186703.980,-81.543,-64.453,28.809,-37.109,1.953
1689186703.984,-52.734,-33.203,-4.883,-52.734,-74.219
1689186703.988,3.906,-50.293,-0.488,-33.203,-145.996
1689186703.992,-15.625,-57.617,6.836,23.438,-50.293
1689186703.994,-37.109,-41.016,-72.266,23.438,322.266
1689186703.998,-65.430,0.488,-59.082,-67.383,230.957
1689186704.002,-53.223,-12.207,-47.363,-68.848,-209.961
1689186704.006,4.883,-53.223,-21.973,4.395,-150.879
1689186704.010,18.066,-21.973,-43.457,33.691,-52.734
1689186704.014,-15.625,-46.875,-31.738,-13.672,-58.105
1689186704.018,-74.707,-33.203,-25.879,-54.688,-75.195
1689186704.021,-16.113,-22.949,-20.020,-16.602,59.082
1689186704.025,21.484,-37.109,-16.113,22.949,282.227
1689186704.029,-1.953,-41.016,-12.207,16.113,35.156
1689186704.033,-20.508,-46.875,-17.090,-24.902,-207.031
1689186704.037,-62.988,-15.625,-26.367,-42.969,-193.359
1689186704.039,-53.711,-20.020,-22.461,-32.227,-203.613
1689186704.043,-26.367,-41.992,-17.578,-21.484,-139.160
1689186704.047,-13.672,-23.926,-15.625,-39.551,-39.551
1689186704.051,-20.020,-22.949,-20.996,-50.781,55.176
1689186704.055,-48.828,-22.461,-31.738,-57.129,-73.242
1689186704.059,-48.340,-40.039,-14.648,-71.777,-185.059
1689186704.063,-27.344,-37.598,-3.418,-39.062,-3.906
1689186704.066,-26.367,-11.230,-20.508,5.371,267.578
1689186704.070,-56.152,-14.160,-21.973,-23.438,140.137
1689186704.074,-85.938,-6.348,-23.438,-83.496,-136.719
1689186704.078,-66.895,-25.879,-21.484,-70.801,-66.406
1689186704.082,-6.348,-46.875,-10.254,-12.695,166.504
1689186704.084,-11.230,-28.320,-12.207,-22.949,60.059
1689186704.088,-39.551,-25.879,-12.207,-42.480,-133.789
1689186704.092,-54.688,-24.414,-12.695,-51.270,-117.676
1689186704.096,-42.969,-25.879,-19.043,-60.059,-187.988
1689186704.100,-29.785,-25.391,-10.254,-58.105,-205.566
1689186704.104,-37.109,-20.508,-7.324,-26.367,-74.707
1689186704.108,-48.828,-14.648,-20.020,-20.996,209.961
1689186704.111,-67.383,-13.672,-23.926,-62.500,245.605
1689186704.115,-24.414,-23.438,-22.461,-80.078,-155.762
1689186704.119,-4.883,-11.230,-17.090,-39.551,-224.121
1689186704.123,-32.227,-20.996,-17.090,9.277,-90.332
1689186704.127,-45.410,-33.203,-10.742,-16.602,-44.922
1689186704.130,-50.781,-23.926,-16.113,-67.871,-147.461
1689186704.134,-76.660,-28.320,-29.297,-92.285,-251.953
1689186704.138,-74.219,-19.043,-25.391,-73.242,-56.641
1689186704.142,-43.457,-28.809,-15.137,-31.250,29.785
1689186704.146,-29.297,-35.156,-6.836,-22.949,-82.520
1689186704.150,-54.688,-33.203,-7.324,-43.457,-28.809
1689186704.154,-92.285,-26.855,-12.207,-87.402,143.555
1689186704.157,-65.918,-27.832,-21.484,-90.820,4.883
1689186704.161,-11.230,-44.922,-20.020,-37.109,-108.398
1689186704.165,-21.484,-30.273,-16.602,-13.184,9.766
1689186704.169,-50.293,-20.996,-29.297,-52.246,101.074
1689186704.173,-58.105,-23.926,-36.133,-72.266,-113.770
1689186704.175,-43.457,-25.879,-34.668,-47.363,-284.668
1689186704.179,-28.320,-25.879,-34.180,-54.688,-18.066
1689186704.183,-25.391,-26.855,-18.555,-41.504,97.168
1689186704.187,-51.758,-26.367,-1.953,-44.434,-98.633
1689186704.191,-56.641,-28.320,-11.230,-61.523,-249.023
1689186704.195,-27.344,-21.973,-19.531,-44.434,-4.395
1689186704.199,-20.508,-13.672,-20.508,-34.668,427.246
1689186704.202,-19.531,-27.344,-22.949,-39.062,179.688
1689186704.206,-30.762,-32.227,-19.531,-38.086,-115.723
1689186704.210,-42.969,-16.602,-20.996,-54.688,-157.227
1689186704.214,-31.250,-16.113,-12.695,-62.500,-177.734
1689186704.218,-4.395,-22.949,-18.555,-41.016,-149.414
1689186704.234,-9.766,-25.879,-20.996,-30.273,-87.891
1689186704.238,-54.688,-21.973,-16.113,-39.062,-66.895
1689186704.242,-79.590,-24.414,-15.137,-43.945,-161.621
1689186704.246,-53.711,-32.227,-13.672,-39.062,-230.957
1689186704.250,-28.809,-30.762,-14.160,-34.668,-97.168
1689186704.254,-29.785,-27.832,-25.879,-42.969,218.750
1689186704.258,-40.527,-30.762,-19.531,-35.156,188.965
1689186704.261,-63.477,-30.273,-16.602,-44.922,-185.059
1689186704.265,-67.871,-27.344,-27.832,-57.617,-190.918
1689186704.269,-41.016,-29.785,-28.320,-46.875,311.523
1689186704.273,-32.227,-36.133,-36.621,-30.762,329.590
1689186704.277,-52.734,-32.715,-27.344,-31.738,-104.492
1689186704.279,-72.754,-22.949,-21.484,-62.500,-138.672
1689186704.283,-68.848,-25.391,-21.484,-54.688,-147.949
1689186704.287,-53.711,-29.785,-15.137,-35.156,-177.734
1689186704.291,-16.602,-23.438,-20.020,-30.762,-95.703
1689186704.295,-20.508,-25.391,-15.625,-20.508,-17.578
1689186704.299,-73.242,-27.344,-13.672,-48.340,0.000
1689186704.303,-76.172,-24.414,-23.438,-67.871,-62.012
1689186704.306,-28.320,-27.832,-25.879,-58.594,-107.422
1689186704.310,-6.836,-29.785,-20.996,-48.340,116.211
1689186704.314,-37.109,-30.273,-19.531,-41.992,391.113
1689186704.318,-65.430,-34.180,-27.344,-52.734,42.480
1689186704.322,-73.730,-45.410,-34.180,-46.387,-256.348
1689186704.339,-61.035,-49.805,-38.574,-30.273,-178.223
1689186704.343,-23.926,-38.574,-35.156,-38.574,-72.266
1689186704.347,-25.879,-29.297,-28.320,-22.461,-69.824
1689186704.351,-58.594,-29.785,-29.297,-44.434,-109.375
1689186704.355,-70.801,-28.320,-23.926,-65.430,-118.652
1689186704.359,-45.898,-28.809,-25.879,-30.762,-51.758
1689186704.363,-15.137,-32.715,-24.902,-15.625,77.148
1689186704.366,-24.414,-31.738,-20.020,-33.203,34.180
1689186704.370,-57.129,-31.738,-25.391,-41.016,268.555
1689186704.374,-56.641,-35.645,-28.320,-31.250,240.234
1689186704.378,-41.992,-35.156,-29.297,-43.457,-141.602
1689186704.382,-42.480,-34.180,-33.691,-54.199,-49.316
1689186704.369,-31.738,-31.250,-35.645,-41.992,45.898
1689186704.373,-50.781,-32.227,-41.016,-59.082,-165.527
1689186704.377,-75.684,-41.504,-37.598,-65.918,-309.082
1689186704.381,-59.082,-38.086,-36.621,-53.223,-213.379
1689186704.385,-38.574,-29.785,-41.504,-43.945,-93.750
1689186704.389,-31.250,-25.879,-32.227,-43.945,29.297
1689186704.393,-34.668,-28.320,-24.902,-44.434,67.871
1689186704.396,-65.430,-29.297,-23.926,-47.852,14.160
1689186704.400,-75.684,-28.809,-26.367,-54.688,-96.680
1689186704.404,-48.828,-27.832,-25.879,-41.992,-167.969
1689186704.408,-22.461,-32.715,-26.855,-42.969,-125.000
1689186704.412,-23.926,-34.668,-23.438,-52.734,203.613
1689186704.414,-46.387,-30.273,-26.367,-60.547,346.680
1689186704.418,-50.293,-25.879,-31.250,-65.918,-136.719
1689186704.422,-14.160,-22.461,-35.645,-44.434,-232.910
1689186704.426,9.766,-19.043,-40.039,-18.555,-79.102
1689186704.430,-2.930,-21.973,-38.086,-17.578,-77.637
1689186704.434,-41.504,-28.320,-33.203,-43.945,-117.188
1689186704.438,-58.594,-26.855,-27.344,-55.664,-38.086
1689186704.441,-29.785,-23.438,-31.250,-41.016,210.449
1689186704.445,-11.719,-20.020,-27.832,-31.738,187.012
1689186704.449,-22.461,-20.020,-17.578,-36.133,-22.949
1689186704.453,-60.059,-21.973,-20.508,-40.039,-38.086
1689186704.457,-67.871,-21.973,-30.273,-61.035,-16.602
1689186704.460,-42.480,-22.949,-32.227,-69.336,-134.766
1689186704.464,-21.484,-23.438,-26.367,-25.391,-153.320
1689186704.468,-26.367,-29.297,-23.438,-9.277,71.777
1689186704.472,-46.387,-27.344,-28.320,-37.598,57.617
1689186704.476,-35.645,-20.996,-34.180,-38.574,-231.445
1689186704.480,-23.926,-22.461,-30.762,-23.438,-166.992
1689186704.484,-18.555,-28.809,-25.391,-23.438,218.262
1689186704.487,-10.742,-34.668,-28.809,-24.414,318.359
1689186704.491,-10.254,-31.738,-34.668,-19.531,-90.332
1689186704.495,-14.160,-27.344,-39.551,-11.230,-278.809
1689186704.499,-38.574,-26.367,-33.691,-41.992,-149.902
1689186704.503,-30.273,-31.250,-24.414,-36.621,-60.547
1689186704.504,-12.695,-33.691,-33.203,-0.488,-126.953
1689186704.508,-20.020,-28.809,-46.875,-17.578,-168.457
1689186704.512,-16.113,-20.020,-48.340,-33.203,-177.734
1689186704.516,1.953,-20.996,-41.992,-12.695,-185.547
1689186704.520,15.137,-31.250,-39.062,23.926,-69.336
1689186704.524,12.207,-31.250,-41.016,41.504,27.832
1689186704.528,-12.207,-32.227,-35.156,33.691,291.992
1689186704.531,-32.227,-37.598,-26.367,1.465,244.141
1689186704.535,-13.672,-37.598,-21.484,2.930,-172.852
1689186704.539,11.719,-37.109,-12.695,30.762,-90.820
1689186704.543,9.766,-41.016,-8.301,30.762,170.898
1689186704.547,-16.113,-48.828,-11.230,13.184,44.434
1689186704.549,-31.738,-49.805,-5.371,-8.789,-213.379
1689186704.553,-28.809,-47.852,-4.883,-13.672,-182.129
1689186704.557,-15.625,-53.223,-6.836,21.484,-115.723
1689186704.561,7.324,-55.664,-6.348,37.598,-89.844
1689186704.565,6.348,-46.875,-10.742,7.812,-31.738
1689186704.569,-36.133,-42.969,-14.160,-11.230,221.680
1689186704.573,-45.410,-42.969,-14.160,-13.672,221.191
1689186704.576,-26.855,-38.086,-16.602,9.766,-11.230
1689186704.580,-19.043,-38.086,-19.531,23.926,-92.285
1689186704.584,-27.344,-42.480,-12.207,3.418,40.527
1689186704.588,-37.109,-42.480,-9.277,-21.484,80.078
1689186704.592,-25.879,-37.598,-16.113,-17.090,-185.059
1689186704.609,-7.324,-35.156,-20.020,17.578,-167.969
1689186704.613,12.207,-30.762,-18.555,38.086,-75.195
1689186704.617,15.625,-31.250,-14.648,20.020,-29.297
1689186704.621,-27.832,-39.062,-9.277,-10.254,-148.926
1689186704.625,-58.594,-38.574,-16.113,-24.902,-182.129
1689186704.629,-33.691,-33.691,-23.926,-12.695,39.551
1689186704.633,-3.418,-34.180,-24.902,18.066,107.910
1689186704.636,-15.625,-31.738,-24.902,17.090,-21.973
1689186704.640,-32.715,-40.039,-23.438,-16.602,-43.945
1689186704.644,-34.180,-42.969,-26.367,-37.109,257.324
1689186704.648,-22.461,-28.809,-32.715,-28.809,208.984
1689186704.652,-3.418,-26.855,-24.902,-2.930,-165.527
1689186704.654,-6.348,-32.715,-17.090,-1.465,1.953
1689186704.658,-36.621,-29.785,-21.484,-24.414,101.074
1689186704.662,-46.875,-28.809,-30.762,-49.316,-243.164
1689186704.666,-29.785,-33.691,-29.297,-35.645,-301.270
1689186704.670,-6.348,-25.879,-23.926,-11.719,-78.125
1689186704.674,-7.812,-19.043,-28.809,-11.719,48.828
1689186704.678,-41.992,-22.461,-32.715,-37.109,63.477
1689186704.681,-65.430,-25.391,-32.227,-59.570,-169.922
1689186704.685,-52.246,-25.879,-25.879,-40.527,-52.246
1689186704.689,-17.578,-26.855,-19.043,-4.395,200.195
1689186704.693,-0.977,-23.926,-12.695,21.484,-18.555
1689186704.697,-30.273,-26.367,-11.719,-3.906,-146.973
1689186704.698,-56.641,-29.297,-20.508,-51.758,-143.066
1689186704.702,-47.363,-24.902,-24.902,-61.035,-138.672
1689186704.706,-31.738,-22.949,-25.391,-48.340,-114.258
1689186704.710,-17.090,-28.320,-29.297,-15.625,-35.156
1689186704.714,-31.738,-29.785,-30.273,-26.367,-26.367
1689186704.718,-46.875,-26.855,-29.297,-64.941,-120.117
1689186704.722,-47.852,-25.879,-23.926,-60.547,-140.137
1689186704.725,-35.645,-20.996,-23.438,-40.527,-57.617
1689186704.729,-0.488,-23.926,-26.367,-17.578,373.047
1689186704.733,-15.137,-27.832,-30.762,-25.879,429.688
1689186704.737,-49.316,-22.461,-38.574,-47.363,-104.492
1689186704.741,-35.645,-18.066,-36.621,-32.227,-174.805
1689186704.744,-11.719,-23.438,-30.762,-16.602,-76.660
1689186704.748,-15.137,-24.414,-26.367,-17.090,-113.281
1689186704.752,-34.668,-19.531,-25.391,-37.598,-65.918
1689186704.756,-47.363,-20.996,-27.832,-46.875,82.031
1689186704.760,-50.781,-26.367,-27.344,-35.156,-47.363
1689186704.764,-15.137,-22.949,-27.832,-20.508,-129.883
1689186704.768,6.836,-20.020,-31.250,-9.766,61.035
1689186704.771,-25.391,-27.832,-25.879,-14.160,223.145
1689186704.775,-45.410,-29.297,-25.879,-40.039,179.199
1689186704.779,-50.781,-29.785,-35.156,-53.223,-184.570
1689186704.783,-45.898,-27.344,-30.762,-22.949,-144.531
1689186704.787,-10.742,-21.973,-22.949,-6.348,34.180
1689186704.789,-1.465,-19.043,-20.508,-3.906,-31.250
1689186704.793,-40.527,-16.113,-20.508,-23.438,-195.801
1689186704.797,-42.480,-14.648,-25.391,-46.875,-251.953
1689186704.801,-17.578,-18.555,-29.297,-27.832,-143.555
1689186704.805,0.488,-20.020,-25.879,-3.418,-46.875
1689186704.809,-6.836,-22.949,-25.879,-11.719,59.570
1689186704.813,-33.203,-31.250,-33.691,-41.504,7.812
1689186704.816,-46.387,-35.156,-35.156,-51.758,234.863
1689186704.820,-43.457,-32.715,-24.902,-39.062,286.621
1689186704.824,-20.020,-27.344,-25.879,-22.949,-151.367
1689186704.828,-9.766,-23.438,-26.367,-8.301,-114.746
1689186704.832,-20.020,-21.973,-22.461,-30.273,24.902
1689186704.834,-46.387,-26.367,-31.250,-55.176,-199.219
1689186704.838,-30.762,-30.762,-33.203,-46.875,-272.461
1689186704.842,3.906,-27.832,-27.344,-6.836,-112.305
1689186704.846,-12.695,-27.344,-29.297,7.324,-61.035
1689186704.850,-45.410,-28.809,-29.785,-36.621,-107.422
1689186704.854,-65.430,-27.832,-32.227,-74.219,-164.062
1689186704.858,-54.688,-31.250,-35.156,-60.059,106.445
1689186704.861,-23.438,-30.762,-39.551,-21.973,368.164
1689186704.865,-18.555,-28.809,-36.133,-21.973,56.152
1689186704.869,-39.062,-31.738,-31.250,-38.574,-139.160
1689186704.873,-52.734,-28.320,-34.668,-47.852,-79.102
1689186704.877,-44.434,-33.691,-27.832,-42.969,-118.652
1689186704.879,-15.625,-35.645,-23.926,-7.812,-195.312
1689186704.883,-8.301,-27.344,-24.414,11.719,-120.605
1689186704.887,-31.738,-20.508,-30.273,-21.973,-73.730
1689186704.891,-57.617,-14.160,-33.691,-48.340,-147.949
1689186704.895,-55.176,-17.090,-31.250,-31.250,-220.215
1689186704.899,-13.672,-17.090,-34.668,-17.090,-50.293
1689186704.903,-7.324,-18.555,-35.645,-13.672,404.785
1689186704.906,-39.062,-24.414,-30.762,-29.297,251.953
1689186704.910,-72.754,-28.809,-33.203,-59.082,-86.426
1689186704.914,-59.082,-29.297,-33.691,-50.781,-39.062
1689186704.918,-30.273,-34.668,-35.645,-23.926,308.105
1689186704.922,-17.090,-35.156,-41.992,-16.602,251.465
1689186704.924,-27.832,-27.344,-37.598,-15.137,-119.629
1689186704.928,-46.875,-26.855,-33.691,-36.133,-90.332
1689186704.932,-41.016,-33.203,-29.297,-48.828,-104.492
1689186704.936,-21.484,-26.367,-29.297,-24.414,-139.160
1689186704.940,-0.977,-21.484,-30.762,-10.742,-137.207
1689186704.944,-14.648,-29.297,-27.832,-15.137,141.113
1689186704.948,-35.645,-28.809,-31.738,-34.668,237.793
1689186704.951,-47.852,-23.438,-31.250,-43.945,-144.043
1689186704.955,-24.902,-27.832,-30.762,-38.086,-243.652
1689186704.959,4.883,-34.668,-30.762,-25.879,1.953
1689186704.963,-19.531,-35.645,-28.320,-22.949,37.598
1689186704.967,-49.316,-33.203,-29.785,-47.852,-187.012
1689186704.984,-54.688,-32.715,-26.855,-47.852,-167.969
1689186704.988,-28.320,-36.621,-26.855,-34.668,-5.371
1689186704.992,-6.836,-29.297,-40.527,-25.391,19.043
1689186704.996,-20.020,-25.391,-36.621,-20.508,-54.199
1689186705.000,-48.340,-30.273,-20.508,-32.715,-90.332
1689186705.004,-71.289,-24.414,-24.902,-44.434,-24.902
1689186705.008,-49.805,-26.855,-36.133,-40.039,-0.488
1689186705.011,-19.531,-36.621,-37.109,-26.367,-145.996
1689186705.015,-17.090,-39.062,-33.203,-21.973,-136.230
1689186705.019,-50.293,-39.551,-28.809,-36.133,248.047
1689186705.023,-82.031,-35.156,-24.414,-47.852,146.484
1689186705.027,-59.082,-27.832,-26.367,-52.246,-285.645
1689186705.029,-27.344,-31.738,-36.621,-41.992,-166.992
1689186705.033,-27.832,-39.551,-37.109,-33.203,-10.254
1689186705.037,-54.688,-31.738,-25.879,-32.715,-91.309
1689186705.041,-60.547,-29.297,-28.809,-45.410,-200.195
1689186705.045,-41.992,-32.227,-37.109,-53.223,-53.223
1689186705.049,-24.902,-32.227,-31.738,-40.039,152.832
1689186705.053,-14.160,-29.785,-28.320,-37.109,143.555
1689186705.056,-26.367,-33.691,-30.762,-36.621,-59.570
1689186705.060,-46.387,-40.039,-34.180,-55.664,-34.180
1689186705.064,-47.363,-32.715,-36.133,-65.430,70.312
1689186705.068,-26.367,-23.926,-31.738,-37.109,-147.949
1689186705.072,-21.484,-27.832,-26.367,-20.996,-107.422
1689186705.074,-42.480,-29.785,-29.785,-30.273,-78.613
1689186705.078,-67.871,-26.367,-28.320,-46.387,-199.219
1689186705.082,-73.730,-29.297,-27.344,-64.453,-272.461
1689186705.086,-42.480,-30.273,-31.250,-45.898,-148.438
1689186705.090,-24.902,-29.785,-23.926,-20.508,-0.488
1689186705.094,-39.062,-27.344,-24.414,-31.738,31.738
1689186705.098,-51.758,-24.414,-31.738,-58.105,-21.973
1689186705.101,-63.965,-31.250,-30.762,-72.266,-53.711
1689186705.105,-54.688,-43.945,-30.273,-53.223,316.406
1689186705.109,-18.066,-43.945,-30.273,-32.227,510.254
1689186705.113,-27.832,-34.668,-29.785,-39.062,-12.695
1689186705.117,-73.730,-30.762,-30.762,-59.082,-172.363
1689186705.119,-72.754,-30.762,-35.645,-58.105,-87.891
1689186705.123,-43.457,-29.297,-40.527,-44.922,-188.477
1689186705.127,-12.695,-29.785,-36.621,-27.832,-137.695
1689186705.131,-15.137,-34.180,-27.832,-17.578,-41.992
1689186705.135,-62.012,-39.551,-26.855,-48.340,-55.664
1689186705.139,-73.242,-38.086,-28.320,-55.664,-63.965
1689186705.143,-42.969,-33.203,-27.832,-40.039,-0.488
1689186705.146,-27.344,-36.133,-26.855,-29.297,127.930
1689186705.150,-28.809,-35.645,-28.809,-28.320,352.051
1689186705.154,-46.387,-27.832,-21.973,-50.293,24.414
1689186705.158,-67.383,-29.785,-22.949,-67.871,-262.207
1689186705.162,-54.199,-29.785,-28.320,-62.012,-212.891
1689186705.164,-17.090,-27.344,-23.926,-39.062,-157.227
1689186705.168,-17.090,-33.203,-24.902,-40.527,-102.051
1689186705.172,-46.387,-31.738,-31.250,-47.852,-142.090
1689186705.176,-61.035,-31.250,-32.227,-54.199,-200.684
1689186705.180,-38.086,-32.715,-28.809,-38.086,-166.992
1689186705.184,-16.113,-27.832,-29.297,-12.207,-55.664
1689186705.188,-14.160,-23.438,-29.297,-6.836,50.781
1689186705.191,-33.691,-23.926,-28.320,-30.273,282.227
1689186705.195,-53.711,-27.344,-33.691,-54.688,100.586
1689186705.199,-38.086,-28.320,-34.180,-44.434,-257.324
1689186705.203,-8.789,-21.973,-27.832,-16.113,-10.742
1689186705.207,-13.672,-13.672,-25.391,-4.883,338.867
1689186705.209,-25.879,-14.160,-26.855,-19.043,56.152
1689186705.213,-26.367,-17.578,-27.832,-46.387,-234.863
1689186705.217,-45.410,-21.973,-34.180,-57.129,-192.383
1689186705.221,-32.227,-25.879,-34.180,-45.410,-121.094
1689186705.225,-13.184,-27.832,-33.203,-33.691,-97.168
1689186705.229,-38.086,-28.809,-38.574,-34.180,-107.910
1689186705.233,-56.641,-30.762,-34.668,-52.246,55.176
1689186705.236,-52.734,-27.832,-25.879,-60.059,146.973
1689186705.240,-31.738,-20.996,-27.344,-38.574,-103.516
1689186705.244,-8.789,-23.438,-33.203,-13.672,-99.121
1689186705.248,-33.203,-25.879,-27.832,-11.230,-10.742
1689186705.252,-58.105,-28.320,-27.344,-35.156,-113.770
1689186705.255,-59.570,-28.320,-33.203,-59.082,-197.266
1689186705.259,-37.109,-25.879,-31.738,-40.039,-127.441
1689186705.263,-7.324,-22.949,-30.762,-14.648,39.551
1689186705.267,-28.320,-20.996,-27.344,-24.902,35.645
1689186705.271,-56.152,-20.508,-23.438,-41.504,-127.441
1689186705.275,-47.852,-21.484,-27.832,-48.828,-88.379
1689186705.279,-15.625,-21.973,-32.715,-34.180,260.742
1689186705.282,-3.906,-24.902,-36.621,-9.277,227.051
1689186705.286,-23.438,-25.391,-34.180,7.324,-48.828
1689186705.290,-42.969,-20.020,-33.203,-7.324,-83.984
1689186705.294,-49.805,-21.973,-30.273,-54.688,21.484
1689186705.298,-35.156,-22.949,-21.484,-50.781,-77.637
1689186705.299,-9.277,-16.113,-20.996,-14.160,-220.703
1689186705.303,3.906,-17.090,-24.414,-8.301,-130.371
1689186705.307,-32.715,-17.578,-22.461,-32.715,-158.203
1689186705.311,-67.383,-17.578,-24.902,-58.594,-237.793
1689186705.315,-51.758,-20.996,-30.762,-50.781,-231.934
1689186705.319,-20.508,-20.996,-33.203,-15.625,54.199
1689186705.323,-18.555,-21.484,-32.227,-5.371,425.781
1689186705.326,-37.598,-23.438,-35.156,-36.621,89.844
1689186705.330,-61.523,-27.344,-39.551,-47.852,-214.355
1689186705.334,-43.457,-29.785,-36.621,-34.668,-128.906
1689186705.338,-7.324,-33.203,-34.668,-23.438,-85.449
1689186705.342,0.488,-29.297,-35.156,-19.531,-87.402
1689186705.359,-40.039,-27.344,-34.668,-29.785,-69.824
1689186705.363,-38.086,-29.297,-30.273,-50.293,-119.629
1689186705.367,-21.973,-27.344,-23.438,-48.828,-87.891
1689186705.371,-42.480,-31.250,-28.809,-24.414,-48.828
1689186705.375,-22.461,-33.203,-37.109,-1.465,-27.832
1689186705.379,-21.484,-31.250,-31.250,-2.441,109.375
1689186705.383,-47.852,-27.344,-28.320,-38.574,78.125
1689186705.386,-52.734,-23.926,-26.855,-62.500,-58.594
1689186705.390,-15.625,-27.344,-22.949,-44.434,-18.555
1689186705.394,-7.324,-32.227,-25.391,-20.996,379.883
1689186705.398,-34.668,-31.738,-29.297,-27.832,416.504
1689186705.402,-55.664,-27.344,-31.250,-47.363,-95.703
1689186705.404,-55.664,-24.902,-33.203,-53.711,-229.004
1689186705.408,-19.531,-22.461,-27.832,-32.227,-132.324
1689186705.412,0.488,-23.438,-24.902,-18.066,-92.773
1689186705.416,-20.508,-27.344,-26.367,-24.902,-120.117
1689186705.420,-44.434,-29.785,-28.320,-53.223,-109.375
1689186705.424,-52.734,-27.832,-26.855,-62.012,-50.293
1689186705.428,-33.203,-30.273,-23.926,-29.785,-56.152
1689186705.431,-17.578,-32.715,-26.367,-14.160,-83.496
1689186705.435,-39.062,-26.855,-28.809,-29.785,136.719
1689186705.439,-43.457,-19.043,-38.574,-50.781,355.957
1689186705.443,-28.809,-21.484,-41.504,-42.969,-86.426
1689186705.447,-25.879,-35.645,-25.391,-30.273,-275.391
1689186705.449,-29.297,-40.527,-21.973,-8.789,-37.598
1689186705.453,-37.109,-41.992,-22.949,-10.254,-30.273
1689186705.457,-45.898,-43.945,-23.438,-51.270,-236.816
1689186705.461,-51.270,-42.969,-24.414,-66.406,-256.348
1689186705.465,-41.504,-40.527,-22.461,-47.363,-132.812
1689186705.469,-23.926,-38.574,-26.367,-31.738,16.113
1689186705.473,-33.691,-44.434,-29.297,-28.809,139.648
1689186705.476,-43.945,-44.434,-27.832,-35.156,-64.941
1689186705.480,-37.109,-37.598,-24.902,-49.805,170.410
1689186705.484,-33.691,-33.203,-20.996,-29.297,312.500
1689186705.488,-22.461,-31.250,-20.508,-2.441,-125.488
1689186705.492,-12.695,-31.738,-23.926,-5.371,-11.230
1689186705.494,-26.367,-30.273,-30.273,-28.809,90.820
1689186705.498,-41.016,-29.785,-28.320,-39.062,-229.492
1689186705.502,-39.551,-26.855,-22.949,-24.414,-289.551
1689186705.506,-18.555,-21.973,-27.832,-14.160,-70.801
1689186705.510,-1.953,-22.949,-27.832,-12.695,6.348
1689186705.514,-28.809,-27.344,-23.926,-32.715,-28.320
1689186705.518,-56.152,-27.344,-32.227,-59.570,-115.723
1689186705.521,-40.527,-27.832,-34.668,-46.387,31.250
1689186705.525,-15.137,-30.273,-28.809,-10.742,215.332
1689186705.529,-11.719,-27.832,-30.762,-11.719,-20.996
1689186705.533,-33.691,-31.738,-34.668,-27.832,-145.996
1689186705.537,-62.012,-32.227,-31.738,-58.594,-117.676
1689186705.540,-43.457,-28.809,-32.715,-52.734,-178.223
1689186705.544,-12.695,-26.367,-34.668,-17.090,-111.328
1689186705.548,0.977,-28.809,-33.691,-18.066,21.973
1689186705.552,-18.066,-33.203,-30.762,-27.832,27.832
1689186705.556,-50.781,-29.297,-30.273,-42.969,-95.215
1689186705.560,-50.781,-33.203,-33.691,-47.852,-175.293
1689186705.564,-21.973,-37.109,-39.062,-23.926,-46.387
1689186705.567,-3.906,-28.320,-41.504,-12.695,280.762
1689186705.571,-22.461,-24.902,-33.203,-20.508,238.770
1689186705.575,-44.922,-26.367,-28.320,-41.992,-132.812
1689186705.579,-48.340,-32.227,-28.320,-57.129,-150.879
1689186705.583,-24.414,-36.133,-25.879,-20.508,58.105
1689186705.599,3.418,-29.297,-26.367,2.441,29.785
1689186705.603,-10.742,-32.715,-31.738,-16.113,-93.750
1689186705.607,-43.945,-33.203,-30.762,-30.762,-124.023
1689186705.611,-61.035,-23.438,-28.809,-43.945,-147.949
1689186705.615,-46.387,-25.391,-32.715,-33.203,-137.207
1689186705.619,-12.207,-25.391,-33.203,-20.996,-69.824
1689186705.623,-20.996,-30.762,-33.691,-32.227,182.617
1689186705.626,-52.734,-31.738,-35.156,-49.805,363.770
1689186705.630,-54.199,-30.273,-29.297,-57.617,-34.668
1689186705.634,-30.762,-34.668,-30.273,-48.828,-232.910
1689186705.638,-21.973,-27.344,-31.250,-27.832,-56.152
1689186705.642,-33.691,-27.344,-27.832,-26.855,-41.992
1689186705.629,-47.363,-35.156,-31.738,-43.457,-153.809
1689186705.633,-56.641,-31.250,-29.785,-45.898,-214.355
1689186705.637,-33.691,-25.879,-35.156,-38.574,-165.039
1689186705.641,-12.695,-26.367,-35.645,-14.648,-88.379
1689186705.645,-28.809,-31.738,-25.391,-16.113,-46.387
1689186705.649,-55.176,-32.715,-30.762,-34.668,76.660
1689186705.653,-64.453,-33.203,-32.227,-53.223,78.125
1689186705.656,-42.480,-37.109,-24.902,-47.363,-88.867
1689186705.660,-7.812,-32.227,-25.879,-21.484,-18.066
1689186705.664,5.371,-29.297,-27.832,-30.273,23.926
1689186705.668,-21.484,-32.715,-25.391,-36.133,257.324
1689186705.672,-50.781,-33.203,-29.297,-42.969,323.242
1689186705.674,-46.875,-31.738,-32.227,-45.898,-112.305
1689186705.678,-29.785,-31.738,-30.273,-23.438,-173.828
1689186705.682,-28.320,-35.645,-36.621,-23.438,-116.699
1689186705.686,-44.922,-36.621,-36.621,-29.297,-201.172
1689186705.690,-56.641,-34.180,-34.180,-47.363,-260.254
1689186705.694,-49.316,-36.133,-34.180,-49.805,-26.855
1689186705.698,-21.484,-39.062,-31.738,-33.203,160.156
1689186705.701,-12.207,-39.062,-29.785,-31.250,-10.254
1689186705.705,-42.969,-33.203,-32.227,-40.039,-102.539
1689186705.709,-55.664,-29.297,-30.762,-52.734,52.246
1689186705.713,-42.969,-32.227,-29.297,-47.363,84.473
1689186705.717,-14.648,-33.203,-28.809,-30.762,-96.191
1689186705.734,7.324,-38.574,-22.949,-12.695,-50.781
1689186705.738,-12.207,-37.109,-16.113,-4.395,-95.703
1689186705.742,-41.504,-16.602,-32.227,-39.062,-145.020
1689186705.746,-46.875,-8.789,-42.480,-72.754,-192.871
1689186705.750,-21.484,-17.578,-37.598,-53.711,-133.789
1689186705.754,-8.789,-14.160,-39.062,-28.320,110.352
1689186705.758,-29.785,-14.648,-39.551,-28.320,87.402
1689186705.761,-53.711,-23.438,-33.691,-53.223,-133.789
1689186705.765,-64.453,-28.809,-30.762,-60.059,-192.383
1689186705.769,-37.598,-28.809,-29.297,-27.832,225.586
1689186705.773,-3.906,-27.832,-27.344,-3.418,319.824
1689186705.777,-20.020,-25.879,-30.273,-15.625,-61.035
1689186705.778,-55.176,-26.855,-33.691,-35.645,-43.945
1689186705.782,-62.988,-27.344,-37.598,-50.293,-4.883
1689186705.786,-39.062,-23.438,-42.480,-29.297,-147.461
1689186705.790,-8.301,-20.020,-40.039,-0.977,-120.605
1689186705.794,-6.348,-22.949,-34.668,-23.438,-30.273
1689186705.798,-46.387,-33.203,-32.715,-52.734,-0.977
1689186705.802,-60.059,-34.668,-28.320,-56.152,-20.020
1689186705.805,-38.086,-30.273,-27.344,-31.250,-187.500
1689186705.809,-16.602,-28.809,-25.391,-10.742,15.137
1689186705.813,-23.438,-21.484,-20.508,-12.207,277.344
1689186705.817,-52.246,-20.508,-24.902,-41.992,-81.055
1689186705.821,-55.176,-25.879,-25.879,-53.223,-250.977
1689186705.825,-40.039,-28.809,-24.414,-33.203,-159.180
1689186705.829,-29.785,-33.203,-29.785,-20.508,-90.820
1689186705.833,-17.090,-25.879,-24.902,-8.789,-34.180
1689186705.837,-12.207,-20.996,-21.484,-24.414,-46.875
1689186705.841,-41.992,-23.438,-30.273,-45.410,-9.277
1689186705.845,-49.805,-27.832,-27.832,-29.785,90.820
1689186705.849,-4.883,-33.691,-22.949,-20.508,59.570
1689186705.852,-12.207,-32.227,-24.414,-17.090,-60.547
1689186705.856,-53.223,-33.203,-23.438,-35.156,296.875
1689186705.860,-68.359,-37.598,-28.809,-61.035,280.273
1689186705.864,-53.711,-33.691,-33.691,-57.617,-259.766
1689186705.868,-17.090,-29.297,-33.691,-22.949,-159.180
1689186705.869,-9.277,-28.809,-24.902,-3.906,35.156
1689186705.873,-28.809,-30.273,-16.113,-19.531,-89.355
1689186705.877,-39.062,-35.156,-20.508,-41.504,-219.727
1689186705.881,-39.062,-33.691,-26.367,-43.457,-175.293
1689186705.885,-23.438,-29.297,-28.320,-13.672,5.371
1689186705.889,-0.488,-28.320,-26.855,6.836,139.648
1689186705.893,-10.254,-25.391,-25.879,-6.348,9.277
1689186705.896,-39.062,-22.461,-24.414,-36.133,-23.438
1689186705.900,-52.246,-29.297,-24.902,-50.293,220.703
1689186705.904,-35.645,-39.551,-26.855,-34.668,20.020
1689186705.908,-17.090,-34.180,-21.973,-7.812,-164.551
1689186705.912,-32.227,-33.691,-20.996,-17.578,-99.121
1689186705.913,-53.711,-41.016,-25.879,-48.340,-161.133
1689186705.917,-53.711,-37.109,-27.344,-57.129,-271.484
1689186705.921,-23.438,-32.715,-28.320,-38.086,-202.637
1689186705.925,-0.488,-34.180,-26.367,-18.555,-40.039
1689186705.929,-8.789,-34.180,-28.320,-22.949,12.695
1689186705.933,-46.387,-31.250,-40.527,-27.344,-23.438
1689186705.937,-77.148,-31.738,-39.062,-28.320,-60.547
1689186705.940,-47.852,-32.715,-25.879,-30.762,291.992
1689186705.944,-15.625,-31.250,-20.996,-17.578,518.555
1689186705.948,-22.949,-29.785,-18.555,-23.926,54.688
1689186705.952,-59.570,-32.227,-17.090,-46.875,-161.133
1689186705.956,-70.312,-35.645,-19.043,-42.969,-106.934
1689186705.959,-39.551,-36.621,-24.414,-41.016,-192.383
1689186705.963,-18.555,-34.668,-27.832,-31.738,-129.883
1689186705.967,-32.715,-32.227,-32.715,-34.180,-25.391
1689186705.971,-57.129,-27.344,-34.180,-63.965,-107.910
1689186705.975,-60.059,-26.367,-29.785,-62.988,-255.371
1689186705.979,-42.969,-24.902,-29.297,-46.875,-196.777
1689186705.983,-18.555,-21.484,-30.273,-33.203,200.195
1689186705.986,-23.438,-25.879,-31.250,-25.879,338.379
1689186705.990,-55.664,-23.438,-30.762,-47.363,-96.191
1689186705.994,-65.430,-26.855,-27.832,-64.941,-256.836
1689186705.998,-45.898,-30.273,-25.391,-46.875,-112.305
1689186706.002,-18.555,-30.273,-29.297,-26.855,-31.738
1689186706.005,-18.555,-28.320,-29.785,-20.996,-85.449
1689186706.009,-54.688,-25.391,-22.949,-40.039,-115.234
1689186706.013,-68.848,-30.273,-24.902,-72.266,-134.277
1689186706.017,-51.758,-27.832,-27.832,-62.988,-140.625
1689186706.021,-15.625,-30.762,-28.320,-23.926,-89.844
1689186706.025,5.859,-32.227,-28.809,-13.184,18.066
1689186706.029,-37.109,-23.926,-28.320,-35.645,295.410
1689186706.032,-62.500,-20.508,-31.250,-57.617,141.113
1689186706.036,-48.340,-21.484,-27.832,-66.406,-235.352
1689186706.040,-20.996,-26.855,-23.926,-39.551,-50.781
1689186706.044,-3.906,-31.738,-30.273,-8.301,127.441
1689186706.048,-28.320,-33.203,-33.203,-29.785,-19.043
1689186706.050,-55.176,-30.273,-36.621,-71.289,-183.105
1689186706.054,-54.688,-28.320,-37.109,-62.988,-154.297
1689186706.058,-21.484,-29.297,-28.809,-29.785,-55.176
1689186706.062,1.465,-25.879,-25.879,-7.324,-123.535
1689186706.066,-10.742,-23.926,-24.414,-11.719,-208.008
1689186706.070,-37.598,-21.973,-26.855,-36.621,-37.598
1689186706.074,-62.012,-19.043,-30.273,-44.922,250.488
1689186706.077,-40.527,-24.414,-31.738,-25.879,41.504
1689186706.081,-12.207,-34.180,-28.320,-15.625,-138.672
1689186706.085,-0.977,-36.133,-23.438,-37.598,-50.293
1689186706.089,-32.227,-31.250,-20.508,-57.617,-94.238
1689186706.093,-62.012,-32.227,-20.020,-57.617,-201.660
1689186706.110,-37.109,-31.250,-22.461,-45.410,-208.496
1689186706.114,-14.160,-33.203,-21.973,-21.973,-49.316
1689186706.118,-21.484,-33.691,-22.461,-19.043,41.016
1689186706.122,-57.617,-27.832,-30.762,-39.062,-96.680
1689186706.126,-58.594,-27.344,-28.320,-31.250,-186.035
1689186706.130,-32.227,-31.738,-22.461,-8.301,179.199
1689186706.134,-5.859,-33.691,-31.738,0.488,319.336
1689186706.137,-10.254,-31.738,-40.039,-15.137,5.371
1689186706.141,-38.086,-33.203,-34.668,-48.828,-73.242
1689186706.145,-51.270,-38.086,-26.367,-48.340,191.406
1689186706.149,-41.992,-38.574,-25.879,-30.273,96.191
1689186706.153,-15.137,-28.320,-38.086,-18.066,-139.648
1689186706.169,-5.371,-24.414,-36.133,-20.020,35.645
1689186706.173,-5.859,-28.320,-23.926,-27.344,6.348
1689186706.177,-32.715,-24.902,-26.367,-22.949,-209.473
1689186706.181,-30.273,-21.973,-24.414,-20.020,-263.184
1689186706.185,8.789,-23.926,-22.461,-12.695,20.508
1689186706.189,3.906,-24.902,-24.902,-12.207,221.680
1689186706.193,-33.691,-25.391,-21.973,-29.785,93.262
1689186706.196,-52.246,-25.391,-23.926,-54.199,-117.676
1689186706.200,-35.645,-25.879,-28.809,-41.504,-61.035
1689186706.204,-13.184,-27.344,-26.367,-10.742,280.273
1689186706.208,-3.418,-28.809,-27.344,-1.465,114.258
1689186706.212,-15.137,-23.438,-29.785,-21.973,-120.605
1689186706.199,-38.574,-19.531,-30.762,-38.086,-140.625
1689186706.203,-37.109,-21.484,-31.250,-37.109,-240.234
1689186706.207,-23.926,-27.344,-33.203,-23.438,-232.422
1689186706.211,-23.438,-33.691,-35.645,-9.766,-82.520
1689186706.215,-43.945,-32.227,-38.574,-26.367,-61.035
1689186706.219,-74.219,-29.297,-38.086,-40.527,-20.020
1689186706.223,-63.477,-37.109,-31.738,-43.945,23.926
1689186706.226,-21.973,-41.504,-30.273,-28.809,48.828
1689186706.230,-5.371,-39.062,-31.738,-9.277,213.867
1689186706.234,-20.996,-37.109,-28.320,-32.227,39.551
1689186706.238,-63.477,-29.785,-24.414,-58.594,-240.723
1689186706.242,-67.871,-24.414,-22.461,-51.758,-217.285
1689186706.244,-29.785,-26.855,-19.531,-29.785,175.781
1689186706.248,-1.953,-32.227,-20.996,-19.531,391.113
1689186706.252,-9.766,-33.203,-24.414,-16.602,-2.930
1689186706.256,-32.227,-33.691,-27.344,-24.902,-172.852
1689186706.260,-37.109,-34.668,-23.438,-42.969,-146.484
1689186706.264,-20.996,-28.320,-15.625,-14.648,-132.324
1689186706.268,-6.348,-21.973,-16.602,11.230,-16.113
1689186706.271,-20.020,-26.367,-19.531,-3.418,167.969
1689186706.275,-36.621,-26.855,-18.066,-32.227,156.738
1689186706.279,-36.133,-26.367,-24.414,-52.734,-126.465
1689186706.283,-8.301,-28.809,-28.320,-31.738,-148.926
1689186706.287,13.672,-30.273,-27.344,-1.465,10.254
1689186706.288,-8.301,-28.809,-29.297,9.277,12.695
1689186706.292,-43.945,-29.785,-31.738,-25.391,-187.988
1689186706.296,-49.805,-27.832,-26.855,-53.223,-267.090
1689186706.300,-19.531,-24.902,-24.902,-30.762,-201.660
1689186706.304,-10.254,-25.391,-24.902,-9.766,-103.516
1689186706.308,-26.367,-26.367,-21.484,-3.906,-40.527
1689186706.312,-45.898,-22.949,-21.484,-27.832,-59.570
1689186706.315,-46.387,-21.484,-20.996,-52.246,103.027
1689186706.319,-23.926,-27.832,-21.484,-32.227,72.754
1689186706.323,-8.789,-29.785,-23.926,-7.812,-186.523
1689186706.327,-15.137,-31.250,-26.855,-12.695,-65.918
1689186706.331,-46.875,-33.203,-29.297,-35.156,88.867
1689186706.335,-58.105,-28.809,-24.414,-53.223,-77.148
1689186706.339,-37.109,-31.250,-18.066,-33.691,-224.609
1689186706.343,-9.766,-34.180,-18.066,13.672,-65.430
1689186706.347,-8.789,-17.090,-25.879,3.906,84.961
1689186706.351,-37.109,-3.418,-29.297,-39.062,-80.078
1689186706.355,-54.688,-7.324,-25.391,-45.410,-212.402
1689186706.359,-43.945,-10.254,-20.508,-38.086,1.953
1689186706.362,-31.738,-9.766,-30.273,-34.180,245.605
1689186706.366,-34.668,-7.812,-43.945,-41.016,46.387
1689186706.370,-49.805,-8.301,-40.527,-57.617,-68.359
1689186706.374,-83.008,-15.137,-41.992,-67.871,-46.875
1689186706.378,-99.609,-16.602,-44.434,-88.379,-102.539
1689186706.394,-85.938,-19.043,-40.039,-88.379,-166.016
1689186706.398,-64.941,-22.949,-42.480,-74.219,-108.887
1689186706.402,-79.590,-20.996,-49.316,-93.262,-11.719
1689186706.406,-97.168,-16.602,-53.223,-101.074,-51.758
1689186706.410,-92.285,-11.719,-53.223,-112.793,-162.598
1689186706.414,-67.871,-17.090,-49.805,-102.051,-59.082
1689186706.418,-51.270,-26.855,-41.016,-58.594,329.102
1689186706.421,-71.289,-29.297,-38.574,-67.871,336.426
1689186706.425,-83.008,-20.508,-43.457,-103.027,-74.707
1689186706.429,-69.824,-19.043,-41.504,-94.727,-95.215
1689186706.433,-52.246,-28.809,-35.156,-71.289,10.742
1689186706.437,-51.758,-31.738,-35.156,-63.477,-94.238
1689186706.424,-79.590,-26.855,-41.992,-75.195,-170.410
1689186706.428,-103.027,-23.926,-50.781,-97.168,-130.859
1689186706.432,-97.656,-32.227,-49.316,-111.328,-142.578
1689186706.436,-65.430,-37.109,-35.645,-84.473,-160.156
1689186706.440,-30.273,-31.738,-28.809,-39.062,-132.812
1689186706.444,-37.598,-33.203,-29.785,-43.945,66.895
1689186706.448,-68.848,-33.203,-30.762,-62.012,74.219
1689186706.451,-70.801,-24.902,-24.414,-44.922,-80.566
1689186706.455,-41.504,-27.344,-28.320,-28.320,-145.508
1689186706.459,-16.602,-35.645,-33.203,-13.672,60.059
1689186706.463,-27.832,-32.227,-33.691,-28.809,282.715
1689186706.467,-43.945,-28.320,-35.156,-52.246,-61.523
1689186706.484,-39.551,-26.855,-29.785,-55.664,-241.699
1689186706.488,-37.109,-29.297,-29.785,-40.039,-117.188
1689186706.492,-27.344,-32.715,-34.180,-22.949,-37.109
1689186706.496,-27.344,-26.855,-30.273,-9.277,-56.152
1689186706.500,-45.898,-21.484,-24.414,-16.113,-57.617
1689186706.504,-49.316,-25.879,-26.855,-43.945,4.395
1689186706.508,-28.809,-31.738,-31.250,-40.039,-20.020
1689186706.511,-12.207,-31.738,-30.762,-14.160,-9.277
1689186706.515,-10.742,-33.203,-31.738,-3.418,77.637
1689186706.519,-25.391,-41.016,-27.344,-17.090,299.805
1689186706.523,-41.016,-36.133,-21.973,-38.574,254.395
1689186706.527,-31.738,-27.344,-22.461,-45.898,-155.273
1689186706.529,-4.395,-31.250,-20.508,-14.648,-170.898
1689186706.533,13.184,-32.715,-22.461,-1.953,-68.848
1689186706.537,-25.879,-34.180,-28.809,-13.672,-155.273
1689186706.541,-51.758,-33.691,-27.832,-27.832,-224.121
1689186706.545,-37.598,-31.250,-25.391,-43.945,-173.340
1689186706.549,-24.902,-29.297,-26.367,-28.809,17.090
1689186706.553,2.930,-27.344,-31.250,-6.348,124.023
1689186706.556,5.371,-25.879,-34.180,-22.461,-65.918
1689186706.560,-38.574,-26.367,-27.344,-36.133,28.809
1689186706.564,-49.316,-27.344,-22.461,-27.344,170.898
1689186706.568,-28.320,-25.391,-27.832,-30.273,-17.578
1689186706.572,-13.184,-31.738,-29.785,-17.578,-37.109
1689186706.573,-12.695,-32.715,-29.785,-8.789,24.902
1689186706.577,-41.992,-22.949,-27.832,-43.945,-55.664
1689186706.581,-60.059,-21.973,-29.297,-67.383,-229.492
1689186706.585,-38.574,-22.461,-27.832,-42.969,-148.926
1689186706.589,-16.602,-22.461,-23.438,-3.906,-49.805
1689186706.593,-14.160,-22.949,-28.320,-9.766,38.574
1689186706.597,-38.086,-22.949,-24.414,-38.574,34.668
1689186706.600,-52.734,-29.297,-23.926,-29.297,-209.473
1689186706.604,-23.926,-29.297,-26.855,-15.625,166.016
1689186706.608,-7.812,-27.344,-17.090,-5.371,396.484
1689186706.612,-27.344,-26.855,-18.555,-15.625,-75.684
1689186706.616,-62.988,-33.203,-23.926,-57.617,-209.473
1689186706.619,-79.590,-34.668,-22.949,-74.219,-123.047
1689186706.623,-56.641,-26.367,-23.438,-55.664,-117.188
1689186706.627,-21.484,-24.414,-29.785,-23.926,-131.836
1689186706.631,-34.668,-26.367,-31.738,-25.391,39.551
1689186706.635,-74.219,-26.855,-30.762,-53.223,54.199
1689186706.639,-67.383,-32.227,-28.809,-54.199,-92.285
1689186706.643,-38.574,-33.203,-30.762,-39.551,-83.008
1689186706.646,-19.043,-35.645,-32.715,-30.273,134.766
1689186706.650,-19.043,-36.621,-30.273,-27.832,230.957
1689186706.654,-50.781,-30.273,-30.273,-37.598,-109.375
1689186706.658,-53.711,-22.461,-26.855,-57.129,-261.719
1689186706.662,-29.785,-23.926,-21.484,-47.852,-108.887
1689186706.664,-11.719,-31.250,-19.043,-13.672,-12.695
1689186706.668,-6.348,-28.320,-23.438,-27.832,-58.594
1689186706.672,-36.133,-25.879,-24.414,-51.270,-48.340
1689186706.676,-56.152,-21.973,-27.832,-43.945,-79.590
1689186706.680,-40.039,-25.879,-32.715,-41.992,-198.730
1689186706.684,-12.207,-39.062,-25.391,-28.809,-85.449
1689186706.688,-9.766,-31.250,-20.020,-9.766,55.176
1689186706.691,-38.086,-19.531,-20.020,-22.949,208.496
1689186706.695,-50.293,-18.555,-16.602,-31.738,169.434
1689186706.699,-33.691,-19.531,-19.043,-31.738,-175.293
1689186706.703,-5.371,-20.508,-25.879,-8.789,-133.301
1689186706.707,9.277,-17.090,-24.902,18.066,81.055
1689186706.709,-9.277,-20.996,-25.391,-18.066,-61.035
1689186706.713,-38.086,-24.902,-30.273,-51.270,-230.957
1689186706.717,-51.270,-27.832,-30.273,-35.156,-172.363
1689186706.721,-20.508,-29.785,-30.273,-13.672,-83.008
1689186706.725,2.930,-29.785,-29.785,-9.277,-38.086
1689186706.729,-12.207,-31.738,-32.227,-19.531,5.371
1689186706.733,-46.387,-29.785,-29.785,-45.898,196.289
1689186706.736,-62.500,-33.203,-27.832,-56.641,313.965
1689186706.740,-39.062,-33.691,-32.715,-32.715,-28.320
1689186706.744,-14.648,-28.809,-27.832,-7.324,-118.164
1689186706.748,-24.902,-27.344,-20.996,-18.555,84.961
1689186706.752,-56.152,-30.273,-26.367,-50.293,2.441
1689186706.754,-67.871,-33.203,-29.297,-63.965,-221.680
1689186706.758,-39.551,-30.762,-25.879,-36.621,-185.059
1689186706.762,-4.883,-29.785,-24.902,-17.090,-23.438
1689186706.766,-17.578,-33.203,-29.297,-21.973,2.441
1689186706.770,-53.711,-35.156,-32.715,-35.156,-110.840
1689186706.774,-65.918,-29.785,-33.203,-44.922,-131.836
1689186706.778,-38.574,-31.250,-30.273,-32.715,224.609
1689186706.781,-7.812,-38.574,-22.949,-11.719,232.422
1689186706.785,-20.508,-39.062,-24.414,-13.672,-11.719
1689186706.789,-42.969,-35.645,-31.250,-54.199,86.426
1689186706.793,-60.547,-29.785,-27.344,-75.684,158.203
1689186706.797,-45.410,-30.273,-25.879,-51.270,-21.973
1689186706.799,-16.602,-32.715,-21.973,-17.090,-187.500
1689186706.803,-17.578,-30.273,-21.484,-22.949,-74.219
1689186706.807,-42.969,-26.855,-24.414,-47.363,-116.699
1689186706.811,-59.570,-27.344,-27.832,-53.223,-259.766
1689186706.815,-53.223,-32.715,-28.320,-27.832,-263.184
1689186706.819,-31.738,-32.227,-20.996,-4.395,86.426
1689186706.823,-20.996,-24.902,-21.973,-7.812,234.863
1689186706.826,-42.480,-21.484,-21.973,-33.203,-106.445
1689186706.830,-50.781,-20.996,-19.531,-56.641,-273.926
1689186706.834,-36.133,-24.414,-21.973,-46.875,-17.090
1689186706.838,-17.578,-26.855,-25.391,-12.207,199.707
1689186706.842,-8.301,-26.367,-28.809,4.395,22.949
1689186706.858,-36.133,-30.762,-25.879,-26.367,-101.562
1689186706.862,-59.082,-29.297,-24.902,-53.223,-112.793
1689186706.866,-48.828,-26.367,-28.809,-60.547,-116.211
1689186706.870,-30.273,-29.785,-30.762,-25.391,-170.410
1689186706.874,-22.461,-31.738,-22.461,11.719,-118.164
1689186706.878,-43.945,-29.297,-20.996,-25.391,104.004
1689186706.882,-60.059,-23.438,-27.344,-54.688,54.688
1689186706.885,-45.410,-23.438,-25.879,-48.340,-193.359
1689186706.889,-19.531,-25.879,-23.926,-39.062,-131.348
1689186706.893,-12.207,-22.949,-22.949,-18.066,365.234
1689186706.897,-40.527,-21.973,-22.461,-20.996,352.539
1689186706.901,-48.340,-20.020,-21.484,-44.434,-147.949
1689186706.904,-38.574,-14.160,-20.020,-31.738,-176.270
1689186706.908,-24.414,-16.602,-20.508,-18.066,-57.129
1689186706.912,-19.043,-20.020,-23.438,-10.742,-57.129
1689186706.916,-36.621,-26.367,-20.996,-22.461,-111.328
1689186706.920,-51.270,-27.832,-26.367,-39.551,-12.695
1689186706.924,-42.969,-18.555,-24.902,-37.109,126.465
1689186706.928,-22.949,-21.973,-23.438,-25.879,90.332
1689186706.931,-19.043,-29.785,-32.227,-11.719,-8.789
1689186706.935,-39.062,-33.203,-31.738,-21.973,93.262
1689186706.939,-62.500,-31.738,-24.414,-41.504,187.500
1689186706.943,-61.523,-25.391,-29.297,-51.270,-162.598
1689186706.947,-40.039,-29.297,-37.109,-32.227,-234.863
1689186706.948,-18.066,-38.574,-32.227,-4.395,-84.473
1689186706.952,-23.438,-45.898,-24.902,-26.855,-67.383
1689186706.956,-42.480,-37.598,-28.320,-55.176,-161.133
1689186706.960,-50.293,-28.320,-28.320,-47.852,-208.008
1689186706.964,-26.855,-31.738,-24.414,-34.668,-85.449
1689186706.968,-2.441,-26.367,-27.832,-15.625,12.695
1689186706.972,-22.461,-25.879,-28.320,-9.277,40.039
1689186706.975,-43.945,-28.809,-28.809,-21.484,-90.820
1689186706.979,-49.805,-27.832,-29.785,-34.180,203.613
1689186706.983,-31.738,-29.297,-29.297,-34.668,381.348
1689186706.987,-3.418,-24.902,-32.227,-14.648,-101.074
1689186706.991,-15.137,-20.996,-31.738,1.465,-115.234
1689186706.994,-50.293,-32.227,-36.621,-22.461,-97.168
1689186706.998,-60.547,-37.598,-39.551,-55.176,-251.953
1689186707.002,-44.434,-29.297,-22.949,-51.758,-268.555
1689186707.006,-19.043,-27.344,-22.949,-29.785,-51.758
1689186707.010,-7.324,-23.926,-28.320,-7.324,91.309
1689186707.014,-25.391,-24.414,-20.996,-8.301,41.504
1689186707.018,-36.133,-31.738,-25.391,-27.344,-96.191
1689186707.021,-31.738,-30.762,-31.250,-37.109,0.000
1689186707.025,-17.578,-22.949,-29.297,-13.672,349.609
1689186707.029,-6.836,-26.367,-28.809,-19.531,116.211
1689186707.033,-24.902,-31.738,-24.902,-38.086,-218.750
1689186707.037,-58.594,-27.344,-20.508,-44.922,-222.656
1689186707.038,-64.941,-24.414,-22.949,-57.617,-187.500
1689186707.042,-31.738,-26.855,-29.297,-44.922,-194.336
1689186707.046,-11.230,-25.879,-33.691,-19.043,-100.586
1689186707.050,-19.043,-23.926,-28.809,-20.996,-31.738
1689186707.054,-44.922,-22.949,-23.438,-36.621,-162.598
1689186707.058,-54.688,-22.949,-18.555,-37.598,-250.488
1689186707.062,-33.691,-28.809,-20.020,-21.484,-160.156
1689186707.065,-7.324,-32.227,-19.531,-3.418,224.609
1689186707.069,-8.789,-34.668,-22.461,-5.371,280.762
1689186707.073,-29.785,-34.668,-32.227,-32.227,-67.871
1689186707.077,-33.691,-28.320,-23.438,-53.711,-105.469
1689186707.081,-32.227,-23.438,-14.160,-41.504,148.926
1689186707.084,-29.785,-26.855,-20.020,-22.461,117.188
1689186707.088,-45.410,-35.645,-27.344,-35.645,-145.508
1689186707.092,-63.477,-34.180,-24.414,-41.016,-183.105
1689186707.096,-58.594,-33.203,-19.043,-45.410,-263.672
1689186707.100,-30.273,-33.691,-19.043,-39.062,-246.094
1689186707.104,-0.977,-31.250,-20.996,-14.648,-96.191
1689186707.108,-19.531,-31.250,-20.020,-9.766,147.949
1689186707.111,-45.898,-31.250,-20.996,-18.555,274.902
1689186707.115,-42.480,-30.273,-19.531,-45.410,-120.605
1689186707.119,-21.973,-26.855,-19.043,-43.945,-226.074
1689186707.123,1.465,-29.297,-24.414,-8.301,7.812
1689186707.127,-3.906,-31.738,-27.832,-4.395,74.707
1689186707.129,-23.438,-26.367,-27.832,-33.203,-48.828
1689186707.133,-41.016,-31.250,-25.391,-39.551,-201.172
1689186707.137,-48.828,-34.180,-29.297,-28.809,-111.328
1689186707.141,-20.508,-27.832,-30.762,-8.789,-0.488
1689186707.145,-9.277,-30.273,-23.926,1.953,-64.941
1689186707.149,-27.344,-35.156,-20.020,-19.043,-19.531
1689186707.153,-53.711,-33.203,-23.926,-35.156,209.473
1689186707.156,-46.387,-26.855,-22.461,-18.555,111.816
1689186707.160,-15.625,-23.438,-22.461,-8.301,-83.496
1689186707.164,-16.602,-24.902,-26.855,-12.207,48.340
1689186707.168,-38.086,-22.461,-26.855,-27.344,114.258
1689186707.172,-42.969,-26.367,-35.645,-48.340,-96.680
1689186707.175,-42.480,-31.738,-35.645,-45.410,-313.477
1689186707.179,-25.879,-27.832,-25.391,-16.113,-71.289
1689186707.183,-17.090,-30.273,-25.391,-2.930,128.906
1689186707.187,-39.062,-32.227,-24.902,-17.578,-80.078
1689186707.191,-55.176,-30.273,-22.461,-32.227,-285.156
1689186707.195,-39.551,-33.691,-20.020,-29.785,-70.801
1689186707.199,-6.836,-29.297,-20.508,-13.672,167.480
1689186707.202,-8.301,-23.438,-29.785,-13.672,-9.766
1689186707.206,-29.785,-22.461,-30.762,-23.438,-143.555
1689186707.210,-41.504,-22.949,-29.785,-39.551,-75.684
1689186707.214,-37.598,-24.414,-32.715,-51.270,-20.020
1689186707.218,-23.926,-23.926,-30.273,-16.602,-76.660
1689186707.249,-17.578,-30.273,-32.715,3.906,-26.367
1689186707.253,-35.645,-30.762,-30.273,-28.320,50.293
1689186707.257,-58.594,-27.832,-26.367,-57.617,-91.797
1689186707.261,-53.223,-28.320,-26.367,-49.316,-163.086
1689186707.265,-15.625,-31.250,-31.250,-26.367,-51.758
1689186707.269,2.930,-36.621,-39.062,-15.137,251.465
1689186707.273,-15.137,-30.762,-32.227,-17.578,333.984
1689186707.276,-30.762,-31.250,-21.973,-41.016,-95.215
1689186707.280,-46.387,-32.227,-24.902,-55.664,-227.539
1689186707.284,-33.203,-28.320,-22.949,-34.668,201.172
1689186707.288,-7.324,-29.297,-21.484,-10.254,269.043
1689186707.292,-25.879,-28.809,-25.879,0.488,-73.242
1689186707.279,-61.523,-24.902,-27.832,-38.086,-143.066
1689186707.283,-61.035,-24.902,-28.320,-75.195,-212.402
1689186707.287,-36.621,-27.832,-33.203,-50.293,-243.652
1689186707.291,-10.254,-26.367,-31.738,-2.930,-149.414
1689186707.295,-11.230,-22.461,-24.902,0.000,5.859
1689186707.299,-43.457,-22.949,-29.785,-41.992,87.402
1689186707.303,-58.594,-29.297,-29.785,-54.199,-68.359
1689186707.306,-25.879,-29.785,-30.762,-25.391,-130.859
1689186707.310,-3.906,-26.367,-33.203,-4.883,12.695
1689186707.314,-19.043,-24.902,-32.227,-20.020,8.789
1689186707.318,-41.992,-25.879,-34.668,-48.828,-109.863
1689186707.322,-51.270,-29.785,-34.668,-61.523,-182.617
1689186707.324,-35.156,-32.715,-35.156,-43.457,18.555
1689186707.328,0.000,-27.344,-39.551,-11.719,300.781
1689186707.332,1.465,-20.020,-36.621,9.277,69.824
1689186707.336,-25.391,-23.438,-33.203,-14.160,-104.004
1689186707.340,-37.109,-28.320,-25.391,-50.781,-169.922
1689186707.344,-48.340,-31.250,-19.043,-43.945,-131.348
1689186707.348,-27.832,-28.320,-23.926,-11.230,10.742
1689186707.351,-8.789,-29.297,-25.879,-13.184,-83.984
1689186707.355,-25.879,-39.551,-22.949,-34.180,191.895
1689186707.359,-34.668,-35.156,-24.902,-59.082,244.629
1689186707.363,-30.762,-24.902,-30.762,-55.176,-254.883
1689186707.367,-13.184,-23.926,-25.879,-17.578,-180.176
1689186707.369,-3.418,-23.438,-25.879,-0.977,107.422
1689186707.373,-22.461,-26.367,-28.809,-9.277,-93.262
1689186707.377,-37.598,-24.902,-19.531,-42.480,-305.176
1689186707.381,-41.992,-23.926,-23.926,-51.758,-198.730
1689186707.385,-30.762,-28.320,-33.691,-34.668,-84.473
1689186707.389,-29.785,-23.438,-29.785,-18.555,24.902
1689186707.393,-43.457,-18.555,-27.344,-22.949,47.363
1689186707.396,-46.875,-23.926,-32.715,-47.852,69.336
1689186707.400,-49.805,-21.973,-31.738,-45.898,104.492
1689186707.404,-35.156,-18.555,-28.809,-12.207,-114.746
1689186707.408,-14.648,-23.926,-28.320,-21.484,-156.738
1689186707.412,-31.250,-26.855,-26.855,-48.828,31.250
1689186707.413,-62.988,-22.949,-25.879,-59.570,-47.363
1689186707.417,-48.828,-17.578,-27.344,-55.176,-270.996
1689186707.421,-4.395,-21.973,-35.156,-34.668,-188.477
1689186707.425,-2.930,-25.391,-32.715,-7.324,13.184
1689186707.429,-37.109,-25.879,-23.926,-11.719,-7.812
1689186707.433,-63.965,-25.879,-26.367,-51.270,-110.840
1689186707.437,-70.801,-25.879,-22.949,-51.270,-104.492
1689186707.440,-51.758,-25.391,-21.973,-21.973,134.766
1689186707.444,-23.926,-25.879,-29.785,-3.418,280.762
1689186707.448,-19.043,-29.297,-31.738,-19.043,93.750
1689186707.452,-32.715,-26.367,-27.832,-35.645,-25.879
1689186707.456,-42.480,-27.344,-22.949,-40.039,17.090
1689186707.460,-31.250,-23.926,-22.949,-36.133,-50.293
1689186707.464,-20.996,-19.043,-26.855,-15.625,-92.285
1689186707.468,-27.344,-28.320,-26.855,-1.953,67.383
1689186707.472,-39.551,-26.367,-30.762,-27.832,53.223
1689186707.476,-45.410,-18.555,-35.156,-49.805,-196.777
1689186707.480,-36.133,-25.391,-26.367,-41.992,-202.148
1689186707.484,-22.949,-29.297,-24.414,-13.184,176.270
1689186707.487,-14.648,-26.367,-31.250,-10.254,348.633
1689186707.491,-29.297,-24.902,-30.273,-46.387,-48.828
1689186707.495,-44.922,-26.855,-30.273,-62.012,-252.930
1689186707.499,-37.598,-29.785,-31.250,-48.828,-188.965
1689186707.503,-17.090,-33.691,-31.250,-22.949,-86.426
1689186707.504,-17.578,-38.086,-32.715,-11.719,-45.898
1689186707.508,-40.039,-34.180,-29.297,-27.832,-73.730
1689186707.512,-49.316,-31.738,-26.855,-55.664,-125.000
1689186707.516,-36.621,-32.227,-33.691,-50.293,-166.992
1689186707.520,-16.113,-28.809,-42.969,-21.484,-72.266
1689186707.524,-4.883,-24.414,-32.715,-3.906,-7.812
1689186707.528,-23.926,-20.508,-21.973,-8.301,358.398
1689186707.531,-45.410,-21.973,-24.902,-32.715,336.914
1689186707.535,-30.273,-23.926,-29.297,-36.133,-128.906
1689186707.539,-12.207,-22.949,-26.855,-11.230,-83.496
1689186707.543,-7.812,-20.508,-21.973,3.906,113.770
1689186707.547,-24.902,-19.531,-23.438,-6.348,14.160
1689186707.549,-46.875,-24.902,-26.855,-31.738,-246.094
1689186707.553,-40.039,-32.715,-25.879,-47.363,-226.562
1689186707.557,-13.672,-30.273,-25.391,-30.273,-107.422
1689186707.561,0.488,-19.043,-28.809,-9.277,-79.590
1689186707.565,-31.250,-20.996,-28.809,-14.160,-115.723
1689186707.569,-63.477,-28.320,-34.180,-29.297,61.523
1689186707.573,-49.805,-30.762,-39.551,-35.156,185.547
1689186707.576,-24.414,-35.156,-29.297,-35.156,12.695
1689186707.580,-15.625,-36.621,-24.414,-24.902,-66.895
1689186707.584,-21.973,-31.250,-25.391,-18.555,110.352
1689186707.588,-43.945,-29.297,-23.926,-48.828,100.098
1689186707.592,-45.410,-31.738,-29.297,-68.359,-262.695
1689186707.608,-21.484,-30.762,-32.227,-41.504,-253.418
1689186707.612,2.930,-26.855,-24.902,-0.977,-76.172
1689186707.616,-20.996,-21.484,-24.902,-3.906,-45.898
1689186707.620,-61.035,-22.461,-27.832,-40.527,-188.477
1689186707.624,-61.035,-28.809,-27.832,-49.805,-225.586
1689186707.628,-35.645,-27.832,-27.832,-33.691,-47.852
1689186707.632,-4.883,-26.367,-29.785,-15.625,55.664
1689186707.635,-7.812,-31.738,-33.203,-17.090,-45.410
1689186707.639,-37.109,-31.250,-32.227,-27.344,-155.273
1689186707.643,-41.992,-31.250,-29.297,-34.180,229.980
1689186707.647,-27.832,-36.133,-27.344,-28.320,369.629
1689186707.651,-22.949,-33.691,-24.414,-22.461,-99.609
1689186707.654,-7.324,-33.691,-25.879,-17.090,-159.180
1689186707.658,-16.113,-31.738,-25.879,-44.922,-148.438
1689186707.662,-43.457,-24.414,-24.414,-60.547,-263.184
1689186707.666,-43.457,-27.344,-21.973,-33.691,-242.676
1689186707.670,-28.809,-31.738,-17.578,1.953,-59.570
1689186707.674,-21.484,-26.367,-17.090,7.812,121.582
1689186707.678,-35.156,-21.484,-23.438,-28.809,83.496
1689186707.681,-47.363,-25.391,-27.832,-49.805,-152.832
1689186707.685,-40.039,-29.785,-28.320,-39.062,-30.273
1689186707.689,-17.578,-22.461,-27.344,-17.090,263.672
1689186707.693,-3.906,-23.438,-25.391,-15.625,69.336
1689186707.697,-24.902,-23.438,-25.879,-25.391,-92.285
1689186707.698,-53.711,-15.137,-23.926,-42.969,4.395
1689186707.702,-52.246,-19.531,-21.484,-59.082,-35.156
1689186707.706,-30.273,-26.367,-22.461,-37.598,-128.906
1689186707.710,-22.949,-31.250,-26.367,-0.977,-44.434
1689186707.714,-33.691,-34.668,-25.879,-7.324,-20.020
1689186707.718,-46.387,-32.715,-23.926,-47.852,-22.949
1689186707.722,-49.316,-25.879,-26.855,-62.012,-19.043
1689186707.725,-29.297,-28.809,-30.762,-34.180,-104.004
1689186707.729,-11.230,-33.691,-24.902,4.883,274.414
1689186707.733,-35.156,-33.203,-21.973,-3.906,366.699
1689186707.737,-55.176,-32.227,-32.227,-56.152,-137.207
1689186707.741,-49.316,-30.762,-44.434,-69.824,-162.109
1689186707.745,-35.645,-31.250,-39.551,-37.598,-56.641
1689186707.749,-11.230,-29.785,-24.902,-12.207,-94.727
1689186707.753,-9.766,-29.297,-20.508,-6.348,-132.324
1689186707.757,-34.668,-25.879,-25.391,-25.391,-27.344
1689186707.761,-37.109,-22.949,-30.762,-42.480,18.066
1689186707.765,-5.859,-14.648,-24.414,-20.020,22.949
1689186707.769,1.465,-14.160,-21.484,-10.742,52.246
1689186707.772,-24.902,-21.973,-21.973,-25.879,108.887
1689186707.776,-50.293,-22.949,-21.484,-41.992,170.410
1689186707.780,-46.387,-22.949,-26.855,-44.922,-146.484
1689186707.784,-21.973,-25.391,-31.738,-27.344,-249.512
1689186707.788,-16.602,-26.855,-22.949,-4.883,-80.078
1689186707.788,-24.414,-24.414,-19.043,1.953,-33.691
1689186707.792,-45.898,-24.902,-24.414,-17.578,-149.414
1689186707.796,-52.734,-32.227,-24.414,-48.340,-185.059
1689186707.800,-30.273,-32.715,-25.391,-58.594,-98.633
1689186707.804,-7.324,-28.320,-24.902,-30.273,-27.832
1689186707.808,3.418,-23.926,-23.926,-9.277,20.996
1689186707.812,-16.113,-22.461,-26.855,-32.715,-7.812
1689186707.815,-51.758,-24.414,-25.391,-40.039,174.805
1689186707.819,-39.551,-25.879,-24.902,-27.344,264.160
1689186707.823,-5.371,-33.691,-26.367,-7.324,-42.969
1689186707.827,-12.207,-36.133,-23.438,2.441,-85.938
1689186707.831,-46.387,-26.367,-21.484,-30.762,-68.848
1689186707.833,-64.941,-20.508,-23.438,-59.570,-205.078
1689186707.837,-46.387,-21.973,-30.273,-42.480,-270.996
1689186707.841,-12.207,-24.902,-38.574,-6.836,-97.168
1689186707.845,1.953,-23.438,-37.109,-11.230,138.184
1689186707.849,-26.855,-26.367,-33.691,-44.922,-28.320
1689186707.853,-52.734,-28.320,-29.297,-59.082,-206.543
1689186707.857,-41.992,-20.996,-26.855,-37.598,14.648
1689186707.860,-17.578,-22.461,-28.809,-19.531,381.348
1689186707.864,-5.859,-23.438,-25.879,-8.301,89.844
1689186707.868,-24.902,-20.020,-22.461,-13.184,-227.539
1689186707.872,-50.293,-20.996,-24.414,-34.180,-175.293
1689186707.876,-43.945,-24.414,-28.809,-44.434,-187.500
1689186707.894,-20.020,-28.320,-28.809,-25.879,-191.895
1689186707.898,-6.836,-29.297,-26.367,-8.301,-117.188
1689186707.902,-20.996,-30.273,-29.785,-23.926,-67.383
1689186707.906,-50.781,-33.691,-28.320,-34.668,-127.930
1689186707.910,-31.738,-28.320,-35.156,-38.574,-180.664
1689186707.914,21.973,-15.625,-51.270,-2.441,-4.883
1689186707.918,35.156,-21.973,-34.180,36.621,382.324
1689186707.921,-1.953,-37.109,-11.719,2.441,283.691
1689186707.925,-37.109,-37.109,-13.672,-29.785,-171.875
1689186707.929,-44.922,-39.062,-16.602,-7.324,-171.387
1689186707.933,-17.578,-48.340,-7.324,13.184,165.039
1689186707.937,2.930,-57.129,0.977,22.949,144.043
1689186707.924,-4.395,-61.035,-0.488,25.391,-129.395
1689186707.928,-21.484,-61.523,-2.441,9.277,-144.531
1689186707.932,-33.203,-63.965,1.953,6.348,-185.547
1689186707.936,-13.184,-66.895,7.324,27.344,-239.258
1689186707.940,33.691,-64.453,8.789,49.316,-60.059
1689186707.944,41.016,-56.641,5.859,49.316,208.008
1689186707.948,-3.418,-50.293,2.930,29.785,125.488
1689186707.951,-29.297,-44.922,1.953,7.812,-167.969
1689186707.955,-10.742,-42.969,3.906,15.137,-236.328
1689186707.959,17.090,-47.852,-0.488,44.922,85.449
1689186707.963,4.395,-49.805,-11.230,33.203,282.715
1689186707.967,-31.738,-43.457,-8.789,0.488,-61.523
1689186707.985,-41.504,-40.527,-5.859,-13.184,-191.895
1689186707.989,-21.484,-45.898,-7.812,5.859,-45.410
1689186707.993,-2.930,-44.922,-9.277,37.598,-18.066
1689186707.997,-5.371,-42.480,-20.996,22.461,-88.379
1689186708.001,-14.648,-43.457,-20.020,-14.648,-113.770
1689186708.005,-23.926,-35.645,-11.230,-17.578,-46.387
1689186708.009,-14.160,-31.250,-9.277,-0.488,-64.941
1689186708.012,6.348,-35.156,-12.695,18.555,-113.770
1689186708.016,8.789,-35.645,-12.695,30.762,14.160
1689186708.020,-16.113,-32.715,-9.766,7.812,319.824
1689186708.024,-44.922,-33.203,-16.113,-22.949,159.668
1689186708.028,-32.715,-35.645,-22.949,-21.484,-262.207
1689186708.030,-8.301,-26.367,-19.531,-4.883,-131.348
1689186708.034,-4.395,-21.973,-18.555,-6.836,-58.105
1689186708.038,-32.715,-26.367,-22.461,-12.207,-106.934
1689186708.042,-61.523,-30.762,-25.879,-21.484,-149.902
1689186708.046,-46.387,-27.344,-23.926,-29.785,-98.145
1689186708.050,-12.695,-21.973,-22.949,-11.719,115.234
1689186708.054,-14.648,-28.320,-22.461,3.906,124.023
1689186708.057,-41.992,-37.109,-22.949,-14.648,-65.430
1689186708.061,-53.711,-42.480,-27.344,-34.668,-14.160
1689186708.065,-51.758,-37.598,-26.367,-34.180,242.188
1689186708.069,-26.367,-33.203,-27.832,-26.367,32.715
1689186708.073,-0.977,-32.715,-37.109,5.371,-99.121
1689186708.074,-26.367,-33.203,-41.992,-5.859,-47.363
1689186708.078,-62.012,-34.180,-41.504,-46.875,-92.773
1689186708.082,-55.664,-34.668,-36.133,-55.176,-188.477
1689186708.086,-33.691,-38.574,-21.484,-42.480,-145.508
1689186708.090,-14.160,-36.621,-23.926,-11.230,39.062
1689186708.094,-29.785,-37.598,-32.227,-5.371,142.578
1689186708.098,-63.965,-38.574,-25.391,-43.457,65.430
1689186708.101,-49.805,-32.715,-9.277,-56.152,-111.816
1689186708.105,-27.832,-29.785,-10.742,-20.508,240.234
1689186708.109,-22.461,-31.738,-19.043,-9.277,565.430
1689186708.113,-27.832,-33.691,-20.996,-28.809,68.848
1689186708.117,-48.828,-30.273,-21.973,-55.176,-208.496
1689186708.118,-49.316,-24.414,-25.391,-56.152,-228.027
1689186708.122,-18.066,-17.578,-27.832,-33.203,-242.188
1689186708.126,-7.324,-15.137,-29.785,-10.254,-153.809
1689186708.130,-23.438,-15.625,-27.344,-2.441,-13.184
1689186708.134,-43.945,-13.184,-23.926,-33.691,-43.945
1689186708.138,-46.387,-16.113,-21.484,-47.363,-136.719
1689186708.142,-26.855,-25.391,-21.484,-31.738,-130.371
1689186708.145,-8.301,-28.320,-24.414,-17.090,159.668
1689186708.149,-12.207,-28.809,-30.273,-15.625,346.191
1689186708.153,-39.062,-30.762,-30.273,-39.062,-75.684
1689186708.157,-47.363,-30.762,-27.344,-55.176,-309.082
1689186708.161,-19.043,-30.762,-29.785,-22.949,-18.555
1689186708.163,1.953,-29.785,-26.367,4.883,153.320
1689186708.167,-5.859,-22.461,-20.508,-2.441,-66.406
1689186708.171,-25.391,-22.949,-20.020,-20.020,-136.230
1689186708.175,-53.223,-26.367,-25.391,-51.758,-192.383
1689186708.179,-45.410,-23.926,-31.250,-49.316,-213.867
1689186708.183,-14.160,-22.949,-29.785,-10.742,-44.434
1689186708.187,-8.301,-28.809,-32.227,-5.859,76.660
1689186708.190,-27.344,-26.855,-35.645,-20.020,211.914
1689186708.194,-54.199,-24.414,-35.156,-38.574,181.641
1689186708.198,-47.363,-29.297,-34.668,-47.852,-180.664
1689186708.202,-11.230,-30.762,-29.785,-23.438,-181.152
1689186708.206,-3.906,-24.414,-33.203,1.953,211.914
1689186708.209,-27.832,-16.602,-32.715,-2.441,127.930
1689186708.213,-44.434,-20.508,-24.414,-34.180,-256.836
1689186708.217,-43.945,-25.879,-26.367,-44.434,-201.660
1689186708.221,-20.996,-26.367,-29.785,-36.621,-65.918
1689186708.225,-9.277,-27.832,-34.180,-24.902,-75.684
1689186708.229,-28.320,-27.344,-32.715,-21.484,-133.301
1689186708.233,-45.410,-25.391,-23.926,-45.410,19.043
1689186708.236,-45.898,-22.949,-20.508,-46.875,180.176
1689186708.240,-26.855,-24.902,-20.508,-22.461,-33.691
1689186708.244,-4.883,-27.344,-25.879,-5.371,-101.074
1689186708.248,-12.695,-23.438,-25.391,-7.324,-37.598
1689186708.252,-51.270,-28.320,-17.578,-32.715,-110.352
1689186708.255,-54.199,-27.832,-12.695,-44.434,-193.848
1689186708.259,-14.160,-24.902,-13.184,-22.461,-109.863
1689186708.263,20.996,-21.484,-20.020,-0.488,50.781
1689186708.267,9.766,-20.020,-24.414,-15.625,44.922
1689186708.271,-27.344,-30.762,-20.508,-38.086,-121.582
1689186708.275,-41.504,-31.738,-21.484,-49.805,-123.535
1689186708.279,-35.156,-22.461,-28.320,-33.203,157.715
1689186708.282,-14.160,-27.344,-29.297,-2.930,142.578
1689186708.286,-12.695,-28.320,-23.438,-15.137,-68.848
1689186708.290,-35.156,-25.879,-24.414,-48.828,-121.582
1689186708.294,-44.434,-37.109,-28.320,-59.570,-76.172
1689186708.298,-38.574,-31.250,-29.785,-48.340,-103.516
1689186708.300,-24.414,-20.996,-29.297,-23.438,-145.508
1689186708.304,-21.484,-21.484,-27.344,-9.766,-37.109
1689186708.308,-50.781,-23.926,-29.297,-37.109,-78.613
1689186708.312,-60.547,-26.367,-27.344,-51.758,-93.262
1689186708.316,-29.297,-26.367,-28.320,-41.504,-120.605
1689186708.320,-9.277,-35.156,-21.973,-17.090,153.809
1689186708.324,-27.832,-35.645,-18.555,-1.953,495.117
1689186708.327,-50.781,-26.855,-24.414,-32.227,85.449
1689186708.331,-50.781,-28.809,-22.461,-66.406,-225.586
1689186708.335,-34.668,-30.273,-20.508,-64.453,-109.375
1689186708.339,-30.762,-28.320,-24.414,-33.691,-60.547
1689186708.343,-29.785,-33.203,-28.320,-15.625,-89.355
1689186708.359,-44.434,-31.250,-26.367,-31.250,-87.402
1689186708.363,-61.035,-24.414,-22.461,-52.246,-142.090
1689186708.367,-44.922,-15.625,-21.973,-42.480,-154.785
1689186708.371,-16.113,-16.602,-25.879,-10.742,-125.977
1689186708.375,-8.789,-24.902,-33.203,-10.254,-32.227
1689186708.379,-30.762,-26.855,-32.715,-32.715,58.594
1689186708.383,-66.895,-32.227,-27.344,-57.129,14.160
1689186708.386,-71.289,-37.109,-31.250,-65.430,-81.543
1689186708.390,-43.945,-28.809,-30.273,-43.945,-94.238
1689186708.394,-34.180,-29.785,-20.020,-14.160,276.855
1689186708.398,-47.363,-39.062,-12.207,0.488,379.395
1689186708.402,-51.758,-17.578,-22.461,-38.574,-111.328
1689186708.404,-54.199,-0.488,-41.992,-80.078,-237.305
1689186708.408,-31.738,-14.160,-40.527,-54.199,-122.070
1689186708.412,-10.254,-20.996,-38.574,-21.484,-104.492
1689186708.416,-41.016,-19.043,-41.504,-47.363,-124.023
1689186708.420,-77.148,-22.461,-40.527,-74.707,-121.582
1689186708.424,-75.684,-24.414,-35.645,-69.824,-37.598
1689186708.428,-48.828,-23.438,-28.809,-60.547,-17.090
1689186708.431,-38.086,-27.344,-31.250,-46.875,-43.945
1689186708.435,-48.340,-28.809,-32.715,-40.527,154.785
1689186708.439,-68.848,-26.367,-31.250,-58.105,335.938
1689186708.443,-74.219,-26.367,-31.738,-66.406,-65.430
1689186708.447,-46.387,-26.855,-35.156,-40.039,-266.113
1689186708.448,-23.438,-21.973,-35.156,-15.625,-79.590
1689186708.452,-25.879,-16.113,-31.738,-20.996,-48.828
1689186708.456,-45.410,-20.508,-30.273,-27.344,-186.523
1689186708.460,-56.152,-29.785,-26.367,-43.945,-275.391
1689186708.464,-39.062,-20.508,-31.250,-38.086,-182.617
1689186708.468,-11.230,-14.648,-38.574,-9.766,-4.883
1689186708.472,-11.719,-19.043,-29.785,-26.367,120.605
1689186708.475,-26.367,-16.113,-22.461,-42.480,-20.996
1689186708.479,-34.180,-17.578,-22.461,-36.621,152.344
1689186708.483,-27.344,-22.461,-25.391,-29.297,245.117
1689186708.487,-13.672,-22.461,-30.762,-8.301,-25.879
1689186708.491,-16.113,-20.508,-33.203,0.000,8.789
1689186708.493,-41.504,-16.602,-33.203,-27.344,-7.324
1689186708.497,-54.199,-18.066,-37.109,-44.434,-226.562
1689186708.501,-37.109,-26.367,-39.551,-36.621,-321.777
1689186708.505,-19.043,-22.461,-30.762,-38.086,-102.051
1689186708.509,-5.859,-17.578,-22.461,-26.855,29.297
1689186708.513,-16.602,-23.926,-17.578,-33.691,-41.992
1689186708.517,-52.246,-25.879,-18.066,-64.453,-133.301
1689186708.520,-62.500,-25.391,-25.391,-55.664,-64.453
1689186708.524,-30.762,-30.273,-24.414,-30.273,169.434
1689186708.528,-16.602,-29.297,-17.578,-20.020,21.484
1689186708.532,-38.574,-18.066,-19.043,-25.879,-149.902
1689186708.536,-55.664,-18.066,-24.414,-45.410,-161.621
1689186708.540,-48.340,-25.879,-22.949,-38.086,-142.578
1689186708.544,-22.949,-26.855,-20.020,-15.625,-21.973
1689186708.548,-11.230,-25.391,-20.020,-7.324,29.297
1689186708.552,-33.691,-29.785,-19.043,-15.625,60.547
1689186708.556,-56.641,-33.203,-19.531,-40.527,-20.996
1689186708.560,-51.758,-38.086,-20.020,-44.922,-143.066
1689186708.564,-27.832,-41.504,-27.344,-24.414,-45.898
1689186708.567,-18.066,-37.109,-40.527,-15.137,316.895
1689186708.571,-34.180,-23.438,-36.621,-26.855,318.848
1689186708.575,-47.363,-16.113,-24.902,-42.969,-142.090
1689186708.579,-51.758,-25.391,-19.531,-46.875,-228.516
1689186708.583,-31.250,-22.949,-19.043,-30.273,5.371
1689186708.584,-10.254,-22.949,-23.926,-10.742,0.488
1689186708.588,-22.461,-30.273,-28.809,-17.090,-161.621
1689186708.592,-49.316,-30.273,-30.762,-55.664,-166.504
1689186708.596,-55.664,-32.715,-34.180,-68.848,-120.117
1689186708.600,-34.668,-37.598,-32.715,-31.738,-163.086
1689186708.604,-19.531,-33.203,-40.039,-13.184,-78.613
1689186708.608,-21.484,-27.344,-42.480,-20.508,193.359
1689186708.611,-54.199,-24.414,-37.598,-35.645,337.402
1689186708.615,-71.289,-28.320,-37.598,-60.547,-10.254
1689186708.619,-44.922,-36.133,-30.762,-46.387,-273.926
1689186708.623,-29.297,-41.016,-29.297,-22.461,-124.023
1689186708.627,-31.250,-39.551,-29.785,-24.902,-41.016
1689186708.628,-47.852,-36.133,-27.832,-54.199,-116.699
1689186708.632,-57.129,-35.156,-24.902,-68.359,-175.781
1689186708.636,-49.805,-33.203,-26.367,-49.316,-141.602
1689186708.640,-30.273,-28.809,-30.762,-16.602,-78.125
1689186708.644,-13.672,-25.879,-29.785,-12.207,-48.828
1689186708.648,-24.414,-22.461,-27.832,-41.504,2.441
1689186708.652,-45.898,-25.391,-30.273,-53.223,60.059
1689186708.655,-40.527,-23.438,-32.715,-29.785,-21.973
1689186708.659,-18.066,-26.367,-34.668,-1.953,-7.324
1689186708.663,-12.207,-32.715,-26.367,-5.859,49.805
1689186708.667,-36.133,-24.414,-20.996,-31.250,244.141
1689186708.671,-49.805,-12.207,-26.367,-51.758,257.812
1689186708.674,-36.133,-20.020,-33.203,-43.945,-211.914
1689186708.678,-17.090,-25.879,-28.809,-19.531,-184.082
1689186708.682,-21.973,-21.484,-28.320,-21.973,31.250
1689186708.686,-46.387,-20.508,-32.227,-44.434,-104.492
1689186708.690,-63.477,-24.902,-29.297,-67.871,-258.789
1689186708.694,-50.781,-25.879,-26.855,-56.152,-82.031
1689186708.698,-28.320,-23.926,-30.762,-22.461,197.754
1689186708.701,-20.996,-35.156,-27.832,-10.254,35.645
1689186708.705,-30.762,-31.250,-18.066,-22.461,-36.621
1689186708.709,-43.945,-18.066,-17.090,-40.039,127.441
1689186708.713,-40.527,-26.367,-17.090,-39.551,98.145
1689186708.717,-22.461,-26.367,-18.555,-19.043,-97.656
1689186708.734,-5.371,-20.020,-22.461,-10.254,-70.312
1689186708.738,-12.695,-22.461,-24.902,-26.855,-73.730
1689186708.742,-47.852,-23.438,-29.297,-49.316,-167.969
1689186708.746,-56.641,-29.297,-32.715,-46.875,-265.137
1689186708.750,-31.738,-28.809,-31.738,-20.020,-152.344
1689186708.754,-15.625,-22.949,-34.180,-9.277,112.793
1689186708.758,-25.879,-23.438,-36.621,-27.832,97.656
1689186708.761,-54.199,-26.367,-36.133,-49.805,-81.543
1689186708.765,-47.363,-23.926,-35.156,-47.363,-166.992
1689186708.769,-19.043,-25.391,-34.180,-33.203,203.613
1689186708.773,-6.348,-33.691,-35.645,-9.277,331.055
1689186708.777,-15.137,-33.691,-38.574,-14.160,-56.641
1689186708.779,-47.363,-32.227,-42.969,-53.223,-125.488
1689186708.783,-56.641,-26.367,-32.715,-64.453,-40.039
1689186708.787,-24.414,-21.484,-26.367,-46.387,-105.469
1689186708.791,2.930,-20.996,-24.902,-17.090,-142.578
1689186708.795,-10.742,-22.949,-27.344,-0.488,-11.230
1689186708.799,-43.945,-23.438,-30.762,-24.902,90.820
1689186708.803,-62.988,-21.973,-34.180,-52.734,-53.223
1689186708.806,-44.922,-25.879,-33.203,-35.156,-216.309
1689186708.810,-15.137,-27.832,-22.461,-5.371,45.410
1689186708.814,-13.184,-24.414,-16.113,-10.742,300.293
1689186708.818,-25.391,-22.949,-20.508,-30.762,-55.664
1689186708.822,-27.344,-27.832,-30.273,-44.434,-258.789
1689186708.839,-24.414,-23.926,-36.133,-37.598,-204.102
1689186708.843,-11.719,-20.020,-33.691,-10.254,-47.363
1689186708.847,-11.230,-18.066,-23.438,-2.441,35.645
1689186708.851,-38.574,-20.508,-24.414,-27.832,-86.914
1689186708.855,-48.340,-23.926,-26.855,-48.340,-104.980
1689186708.859,-40.527,-20.020,-27.344,-37.598,-62.012
1689186708.863,-23.926,-20.996,-30.762,-28.809,-57.129
1689186708.866,-18.555,-21.484,-24.414,-8.789,-103.516
1689186708.870,-41.992,-28.320,-25.879,-15.137,243.164
1689186708.874,-62.500,-31.250,-32.227,-52.246,344.727
1689186708.878,-49.316,-26.855,-23.926,-56.152,-201.660
1689186708.882,-14.648,-31.250,-31.738,-24.414,-214.355
1689186708.869,-2.441,-32.715,-50.293,-6.348,-54.688
1689186708.873,-12.207,-26.367,-46.387,-24.414,-88.379
1689186708.877,-32.227,-21.484,-20.020,-33.691,-190.918
1689186708.881,-52.734,-30.273,-4.883,-41.504,-62.012
1689186708.885,-36.133,-38.574,-12.695,-32.715,62.500
1689186708.889,-29.785,-37.598,-17.090,-17.578,33.203
1689186708.893,-52.246,-40.527,-16.602,-36.133,69.824
1689186708.896,-63.965,-47.363,-16.602,-61.523,49.805
1689186708.900,-55.176,-49.805,-18.555,-59.570,-52.734
1689186708.904,-40.527,-45.410,-18.555,-35.156,-112.793
1689186708.908,-33.691,-39.062,-19.531,-22.461,-96.680
1689186708.912,-54.199,-31.250,-20.020,-29.785,107.910
1689186708.914,-66.406,-36.133,-17.090,-41.992,225.098
1689186708.918,-50.781,-46.387,-20.508,-42.969,-152.344
1689186708.922,-36.133,-38.574,-22.949,-38.086,-227.051
1689186708.926,-17.090,-27.832,-25.879,-22.461,-39.062
1689186708.930,-24.902,-29.785,-26.855,-17.578,-25.391
1689186708.934,-55.176,-30.273,-26.367,-42.480,-15.625
1689186708.938,-47.852,-27.344,-31.738,-53.223,-71.777
1689186708.941,-22.461,-26.367,-25.879,-24.414,181.641
1689186708.945,-12.695,-26.367,-27.344,9.277,458.008
1689186708.949,-22.461,-24.414,-27.832,-1.465,-3.418
1689186708.953,-42.480,-25.391,-19.531,-35.156,-243.164
1689186708.957,-48.340,-44.434,-31.738,-54.199,-182.617
1689186708.959,-21.973,-53.711,-34.180,-38.574,-277.344
1689186708.963,-4.395,-34.668,-27.832,-13.672,-216.797
1689186708.967,-22.461,-19.043,-28.320,-19.043,-54.688
1689186708.971,-44.922,-15.625,-18.555,-33.691,-104.980
1689186708.975,-57.129,-19.531,-19.531,-40.039,-257.324
1689186708.979,-34.180,-19.531,-18.555,-32.715,-144.531
1689186708.983,-10.742,-18.555,-9.277,-2.441,217.773
1689186708.986,-26.855,-23.438,-10.742,6.348,312.500
1689186708.990,-53.223,-24.414,-13.184,-20.020,10.742
1689186708.994,-62.500,-22.461,-12.695,-46.875,-169.922
1689186708.998,-43.457,-19.531,-12.695,-41.992,-61.035
1689186709.002,-15.137,-13.672,-15.137,-21.973,32.227
1689186709.003,-10.742,-17.578,-17.090,-18.555,-71.289
1689186709.007,-33.203,-22.949,-19.043,-34.180,-103.516
1689186709.011,-53.223,-22.949,-24.902,-57.617,-135.254
1689186709.015,-43.457,-26.855,-25.879,-48.340,-220.215
1689186709.019,-8.789,-27.344,-24.902,-19.531,-218.750
1689186709.023,3.418,-24.902,-24.414,-6.836,10.254
1689186709.027,-26.367,-28.809,-24.414,-16.602,253.906
1689186709.030,-58.594,-35.645,-30.762,-49.805,9.766
1689186709.034,-46.387,-33.691,-28.809,-49.805,-215.820
1689186709.038,-11.230,-28.809,-23.926,-21.484,-52.246
1689186709.042,-8.301,-27.832,-28.320,-20.996,169.922
1689186709.046,-26.367,-25.391,-32.227,-29.785,141.602
1689186709.050,-45.410,-25.879,-30.762,-40.527,-208.496
1689186709.054,-42.969,-29.785,-29.785,-44.434,-236.816
1689186709.058,-21.973,-27.832,-30.762,-30.273,-17.090
1689186709.062,-5.371,-25.391,-37.598,-18.066,-56.152
1689186709.066,-7.324,-20.508,-36.133,-29.785,-144.043
1689186709.070,-38.086,-23.926,-33.203,-44.922,9.766
1689186709.074,-47.363,-32.227,-32.715,-57.129,125.488
1689186709.077,-29.785,-30.762,-23.926,-45.410,-80.078
1689186709.081,-13.184,-32.227,-25.391,-14.648,-113.281
1689186709.085,-21.484,-30.273,-26.367,-9.277,56.641
1689186709.089,-51.758,-27.344,-25.391,-32.715,8.789
1689186709.093,-51.270,-31.250,-36.621,-40.039,-187.012
1689186709.109,-17.578,-30.762,-32.227,-23.438,-165.527
1689186709.113,-8.789,-28.809,-26.855,-12.695,-17.090
1689186709.117,-27.344,-27.344,-30.273,-15.137,-3.906
1689186709.121,-46.387,-23.926,-29.297,-40.527,-114.746
1689186709.125,-54.688,-23.438,-33.203,-70.801,-219.727
1689186709.129,-39.062,-26.367,-31.250,-59.570,143.555
1689186709.133,-10.254,-25.879,-31.250,-24.414,389.160
1689186709.136,-12.207,-28.809,-33.691,-18.066,11.719
1689186709.140,-51.758,-28.809,-27.344,-41.992,-78.125
1689186709.144,-66.895,-30.273,-25.391,-50.293,170.898
1689186709.148,-42.969,-27.832,-22.461,-40.039,89.844
1689186709.152,-19.043,-19.531,-22.949,-23.438,-160.645
1689186709.154,-18.555,-22.461,-31.738,-3.906,-58.594
1689186709.158,-49.316,-27.344,-34.180,-34.668,-74.707
1689186709.162,-68.848,-31.738,-28.320,-64.941,-216.797
1689186709.166,-39.551,-27.344,-29.785,-36.621,-236.328
1689186709.170,-10.742,-16.602,-32.715,-11.230,10.742
1689186709.174,-13.672,-24.902,-26.855,-19.531,254.883
1689186709.178,-34.180,-35.156,-20.020,-32.715,61.523
1689186709.181,-55.176,-39.551,-19.043,-41.992,-215.820
1689186709.185,-55.176,-41.016,-26.367,-59.082,-63.477
1689186709.189,-22.949,-37.598,-28.320,-40.527,207.031
1689186709.193,-11.719,-31.738,-27.344,-20.996,-16.113
1689186709.197,-37.109,-30.273,-27.344,-34.668,-174.316
1689186709.198,-57.129,-32.227,-22.949,-48.340,-165.039
1689186709.202,-49.316,-33.203,-23.438,-38.086,-151.855
1689186709.206,-27.832,-37.109,-27.344,-23.438,-117.188
1689186709.210,-18.066,-41.992,-25.879,-19.043,-107.422
1689186709.214,-34.668,-32.227,-22.461,-18.555,-18.555
1689186709.218,-52.734,-24.902,-18.066,-23.438,-10.742
1689186709.222,-43.457,-28.809,-16.113,-32.715,-54.688
1689186709.225,-19.043,-29.785,-17.578,-25.879,21.973
1689186709.229,-5.859,-26.367,-20.996,-7.324,304.688
1689186709.233,-16.602,-21.973,-27.344,-6.836,482.422
1689186709.237,-47.363,-23.438,-27.344,-31.738,5.371
1689186709.241,-48.828,-22.461,-19.043,-31.738,-254.883
1689186709.244,-19.043,-19.531,-20.996,-10.742,-168.945
1689186709.248,-6.348,-28.320,-27.832,-7.324,-108.398
1689186709.252,-29.297,-36.621,-31.250,-24.902,-74.707
1689186709.256,-54.688,-31.738,-31.250,-50.293,-115.723
1689186709.260,-50.781,-29.297,-34.668,-49.316,-146.973
1689186709.264,-30.273,-26.855,-31.250,-31.738,-51.270
1689186709.268,-14.160,-31.250,-28.320,-20.020,20.996
1689186709.271,-14.648,-32.227,-27.832,-13.184,91.797
1689186709.275,-41.504,-30.273,-17.090,-20.508,196.777
1689186709.279,-52.734,-27.832,-14.648,-30.273,-60.059
1689186709.283,-23.926,-27.344,-16.113,-18.066,-220.215
1689186709.287,6.348,-28.809,-20.508,-10.742,-14.160
1689186709.288,1.465,-28.809,-27.344,0.000,14.160
1689186709.292,-36.133,-30.762,-25.391,-11.719,-194.336
1689186709.296,-56.152,-25.391,-24.902,-49.316,-212.891
1689186709.300,-31.738,-17.578,-26.367,-47.363,-141.113
1689186709.304,2.441,-20.996,-28.809,-17.090,-80.078
1689186709.308,-5.371,-27.344,-32.715,-12.207,-43.945
1689186709.312,-29.297,-29.297,-28.320,-29.297,-2.441
1689186709.315,-31.250,-26.367,-28.809,-39.062,157.715
1689186709.319,-25.879,-24.414,-31.738,-22.461,199.707
1689186709.323,-4.883,-24.414,-27.344,2.930,-37.109
1689186709.327,4.395,-27.344,-28.809,-9.766,-23.438
1689186709.331,-23.438,-34.180,-26.367,-34.180,144.043
1689186709.334,-42.969,-26.855,-23.926,-37.598,-17.090
1689186709.338,-32.715,-21.484,-24.414,-24.414,-245.117
1689186709.342,-7.324,-30.273,-33.203,-6.348,-73.242
1689186709.346,4.395,-28.320,-35.156,11.230,80.078
1689186709.350,-19.531,-26.367,-28.809,-6.836,-90.332
1689186709.354,-38.086,-28.809,-27.832,-31.738,-205.078
1689186709.358,-29.297,-24.414,-26.367,-29.785,-21.484
1689186709.361,-6.836,-20.996,-24.902,-16.602,234.863
1689186709.365,2.441,-25.879,-27.832,-7.812,41.992
1689186709.369,-27.344,-28.320,-28.320,-20.508,-149.414
1689186709.373,-50.293,-24.902,-27.344,-40.039,-156.250
1689186709.377,-39.551,-21.973,-28.320,-41.504,-164.062
1689186709.380,-15.137,-21.973,-27.344,-14.160,-161.133
1689186709.384,-6.348,-27.344,-33.203,-2.441,-88.867
1689186709.388,-17.578,-34.668,-36.133,-16.602,18.066
1689186709.392,-35.156,-31.250,-29.297,-38.574,-27.832
1689186709.396,-37.598,-25.391,-26.367,-47.852,-161.621
1689186709.400,-4.883,-23.438,-27.344,-20.508,-116.211
1689186709.404,17.090,-16.113,-32.715,7.324,355.469
1689186709.407,-5.371,-20.508,-29.785,-3.906,358.887
1689186709.411,-31.738,-27.832,-22.949,-34.668,-167.969
1689186709.415,-35.156,-33.203,-22.461,-41.016,-216.797
1689186709.419,-23.926,-35.645,-20.508,-15.137,-8.301
1689186709.423,-13.672,-32.715,-19.043,5.371,9.766
1689186709.424,-28.320,-27.344,-16.113,-6.348,-137.207
1689186709.428,-51.270,-22.949,-22.461,-38.574,-111.816
1689186709.432,-50.293,-30.762,-30.762,-56.152,-152.344
1689186709.436,-30.273,-34.668,-25.879,-46.387,-188.965
1689186709.440,-10.742,-22.949,-20.508,-15.137,-107.422
1689186709.444,-7.812,-21.973,-25.391,-8.301,173.340
1689186709.448,-40.039,-22.461,-30.273,-40.039,416.016
1689186709.451,-67.383,-28.320,-28.809,-51.758,-8.789
1689186709.455,-40.527,-34.668,-24.414,-26.855,-316.406
1689186709.459,-7.812,-30.273,-22.949,-2.441,-14.160
1689186709.463,-10.254,-25.879,-19.531,-1.953,96.680
1689186709.467,-35.645,-25.391,-21.484,-26.367,-151.367
1689186709.484,-40.039,-32.715,-25.879,-42.969,-226.562
1689186709.488,-22.461,-34.668,-23.926,-25.391,-164.062
1689186709.492,-9.277,-23.926,-22.461,-4.883,-89.355
1689186709.496,-8.789,-19.043,-22.461,-7.812,-59.082
1689186709.500,-28.809,-21.484,-21.973,-23.438,-66.406
1689186709.504,-37.598,-25.391,-21.973,-36.133,10.254
1689186709.508,-25.879,-29.297,-32.715,-32.227,-21.973
1689186709.511,-10.254,-31.250,-34.668,-2.930,18.066
1689186709.515,-13.184,-31.250,-34.180,-4.395,79.102
1689186709.519,-34.668,-27.832,-37.598,-34.180,228.027
1689186709.523,-58.105,-24.414,-25.391,-46.875,316.895
1689186709.527,-47.852,-28.320,-22.949,-40.527,-67.871
1689186709.529,-16.602,-29.785,-25.879,-9.766,-148.438
1689186709.533,-7.812,-27.832,-29.785,2.930,-38.574
1689186709.537,-19.043,-31.738,-27.832,-22.949,-110.840
1689186709.541,-32.715,-29.297,-19.043,-47.852,-250.488
1689186709.545,-37.109,-24.414,-21.973,-33.691,-179.199
1689186709.549,-22.461,-31.250,-25.879,-12.207,-4.395
1689186709.553,-5.859,-33.691,-23.438,-8.301,41.016
1689186709.556,-23.438,-28.320,-26.855,-15.137,-64.941
1689186709.560,-41.504,-20.996,-27.344,-22.949,-46.875
1689186709.564,-43.945,-25.391,-20.996,-37.109,214.844
1689186709.568,-26.855,-30.273,-20.996,-24.902,62.988
1689186709.572,-2.930,-28.320,-21.973,0.000,-113.281
1689186709.573,-14.648,-23.438,-20.996,-7.324,20.508
1689186709.577,-45.410,-24.414,-21.484,-30.273,-21.973
1689186709.581,-36.621,-28.320,-20.508,-40.527,-235.840
1689186709.585,-6.348,-25.391,-24.414,-20.020,-178.711
1689186709.589,-2.441,-22.949,-29.297,2.441,-57.617
1689186709.593,-26.855,-24.902,-32.715,-9.766,-35.156
1689186709.597,-51.270,-23.438,-37.598,-43.945,-103.516
1689186709.600,-47.363,-22.461,-33.203,-60.547,-196.289
1689186709.604,-33.203,-29.297,-22.949,-23.438,-32.715
1689186709.608,-6.348,-32.227,-20.020,16.602,58.105
1689186709.612,-9.766,-16.113,-34.180,-5.859,-96.680
1689186709.616,-56.152,-5.371,-48.828,-61.035,-165.039
1689186709.619,-63.477,-14.160,-48.340,-65.430,200.684
1689186709.623,-27.344,-17.090,-46.387,-35.156,270.996
1689186709.627,-2.441,-11.719,-52.734,-20.996,-125.488
1689186709.631,-14.160,-13.184,-52.734,-20.508,-75.684
1689186709.635,-47.363,-10.742,-45.898,-41.504,25.879
1689186709.639,-60.059,-2.441,-45.898,-62.500,-118.164
1689186709.643,-43.457,-5.371,-46.387,-51.758,-155.762
1689186709.646,-13.672,-14.160,-43.457,-19.531,75.195
1689186709.650,-7.812,-19.531,-38.574,-13.672,265.625
1689186709.654,-27.832,-18.066,-36.133,-32.227,-58.594
1689186709.658,-44.922,-18.066,-33.203,-47.852,-265.137
1689186709.662,-39.062,-19.531,-36.621,-44.434,-170.898
1689186709.665,-9.277,-17.578,-37.598,-19.043,-83.984
1689186709.669,0.488,-17.578,-34.668,-13.672,-81.543
1689186709.673,-31.738,-14.648,-38.086,-41.992,-55.664
1689186709.677,-57.129,-20.020,-37.109,-54.199,12.207
1689186709.681,-47.852,-24.414,-33.203,-36.133,-47.363
1689186709.685,-24.902,-22.461,-33.691,-19.531,-34.668
1689186709.689,-12.207,-25.391,-41.992,-10.254,-41.504
1689186709.692,-33.691,-21.484,-38.574,-27.832,175.781
1689186709.696,-51.758,-17.578,-32.227,-52.246,183.594
1689186709.700,-32.715,-20.996,-28.320,-49.805,-185.547
1689186709.704,0.000,-25.879,-20.508,-19.531,-145.996
1689186709.708,3.906,-23.926,-29.297,-13.184,73.242
1689186709.709,-29.297,-21.973,-33.691,-25.391,-18.066
1689186709.713,-55.664,-24.414,-29.785,-33.691,-230.469
1689186709.717,-51.758,-28.809,-29.785,-40.527,-147.949
1689186709.721,-24.902,-31.250,-35.645,-27.344,32.227
1689186709.725,-19.531,-37.598,-37.598,-12.207,11.719
1689186709.729,-32.227,-34.180,-34.180,-13.184,-9.766
1689186709.733,-49.316,-21.973,-33.203,-49.316,111.816
1689186709.736,-63.477,-18.066,-31.738,-68.359,292.969
1689186709.740,-32.227,-28.809,-28.809,-37.598,46.387
1689186709.744,2.930,-29.785,-27.344,-14.160,-159.668
1689186709.748,-12.695,-14.648,-31.738,-29.297,-91.797
1689186709.752,-31.250,-15.137,-34.668,-47.363,-177.734
1689186709.753,-28.320,-18.555,-34.668,-44.434,-280.762
1689186709.757,-26.367,-19.043,-35.645,-34.668,-199.707
1689186709.761,-10.254,-18.066,-33.203,-18.066,-38.574
1689186709.765,-19.531,-22.461,-32.715,-24.414,-0.488
1689186709.769,-52.246,-26.855,-33.691,-49.316,-145.020
1689186709.773,-52.246,-19.531,-27.832,-47.363,-173.828
1689186709.777,-33.691,-18.555,-21.484,-22.461,166.504
1689186709.780,-14.160,-23.438,-30.273,-11.719,281.738
1689186709.784,-6.348,-20.996,-36.133,-14.160,62.988
1689186709.788,-35.645,-24.902,-25.391,-27.832,-75.684
1689186709.792,-61.523,-36.133,-17.090,-32.715,58.105
1689186709.796,-49.316,-39.551,-17.090,-25.391,40.039
1689186709.799,-22.461,-29.785,-20.020,-15.137,-177.734
1689186709.803,-13.672,-25.391,-22.461,-5.371,-67.383
1689186709.807,-37.109,-27.832,-26.367,-25.879,-55.176
1689186709.811,-63.477,-29.785,-26.367,-41.504,-172.363
1689186709.815,-57.129,-31.250,-23.438,-24.902,-246.582
1689186709.819,-23.438,-25.391,-21.973,-9.766,44.434
1689186709.823,-17.090,-27.344,-21.484,-19.043,315.918
1689186709.826,-45.410,-30.273,-27.832,-40.039,70.312
1689186709.830,-52.246,-20.508,-33.203,-45.410,-200.684
1689186709.834,-49.805,-23.438,-34.668,-41.016,-60.547
1689186709.838,-35.645,-25.879,-31.250,-30.273,219.727
1689186709.842,-11.230,-20.508,-31.738,-23.926,16.602
1689186709.858,-35.156,-25.879,-28.809,-34.668,-181.641
1689186709.862,-60.059,-27.344,-27.344,-50.781,-63.965
1689186709.866,-44.434,-25.391,-28.809,-47.363,-41.016
1689186709.870,-24.902,-29.297,-23.926,-35.156,-145.996
1689186709.874,-16.602,-39.551,-19.043,-20.996,-85.938
1689186709.878,-31.250,-36.621,-19.043,-23.438,110.352
1689186709.882,-53.223,-27.832,-26.855,-55.176,19.531
1689186709.885,-48.340,-22.949,-27.344,-59.570,-217.285
1689186709.889,-18.066,-24.902,-26.855,-26.855,-132.812
1689186709.893,-3.906,-28.320,-32.227,-12.207,311.523
1689186709.897,-17.578,-25.879,-28.320,-28.809,338.379
1689186709.901,-46.875,-22.949,-24.902,-41.992,-172.363
1689186709.904,-52.246,-25.879,-27.344,-33.691,-139.648
1689186709.908,-26.855,-33.203,-29.785,-15.137,-19.043
1689186709.912,0.000,-30.273,-32.715,-3.418,-97.168
1689186709.916,0.488,-24.414,-27.344,-11.719,-122.070
1689186709.920,-28.320,-34.180,-21.484,-31.738,-140.625
1689186709.924,-47.363,-37.109,-21.484,-36.133,-81.055
1689186709.928,-23.926,-20.996,-20.996,-20.996,15.137
1689186709.931,-8.301,-8.789,-25.391,0.488,-21.973
1689186709.935,-27.344,-9.766,-21.484,-1.953,4.883
1689186709.939,-52.734,-13.672,-20.996,-23.438,146.484
1689186709.943,-56.641,-16.113,-24.902,-42.480,-118.652
1689186709.947,-31.738,-18.066,-20.020,-27.832,-227.051
1689186709.949,6.348,-13.672,-24.414,-1.465,50.781
1689186709.953,3.906,-16.113,-22.461,-4.883,108.887
1689186709.957,-43.945,-28.809,-5.859,-41.016,-94.238
1689186709.961,-65.918,-34.180,-1.953,-63.477,-137.695
1689186709.965,-56.641,-37.598,-11.719,-39.551,-66.406
1689186709.969,-30.762,-41.016,-17.090,0.000,138.184
1689186709.973,-23.926,-44.434,-12.207,-2.441,210.938
1689186709.976,-59.082,-45.898,-15.137,-41.016,-68.848
1689186709.980,-74.707,-43.945,-16.602,-53.223,85.449
1689186709.984,-50.781,-35.645,-16.113,-35.645,264.648
1689186709.988,-27.344,-36.621,-20.020,-20.508,-114.258
1689186709.992,-22.949,-44.434,-20.020,-18.066,-163.574
1689186709.993,-36.621,-48.340,-22.461,-35.156,-130.859
1689186709.997,-47.852,-40.527,-29.297,-54.688,-258.301
1689186710.001,-33.691,-30.273,-26.855,-36.621,-274.902
1689186710.005,-13.672,-32.715,-17.578,1.465,-74.219
1689186710.009,-21.484,-35.156,-12.207,-1.465,25.391
1689186710.013,-39.551,-39.062,-14.648,-24.902,17.578
1689186710.017,-58.105,-39.062,-16.113,-40.527,39.062
1689186710.020,-46.387,-33.203,-17.578,-29.785,87.891
1689186710.024,-19.531,-31.738,-18.066,-0.488,342.773
1689186710.028,-8.301,-34.180,-20.996,-8.789,204.102
1689186710.032,-14.160,-29.785,-22.461,-33.203,-110.840
1689186710.036,-42.969,-32.227,-27.344,-39.062,-130.859
1689186710.039,-42.480,-34.668,-34.180,-37.598,-152.344
1689186710.043,-18.555,-26.855,-34.668,-16.602,-145.508
1689186710.047,-4.395,-28.809,-30.762,-1.465,-62.012
1689186710.051,-5.859,-37.109,-23.926,-14.648,-63.477
1689186710.055,-36.133,-25.879,-20.996,-27.832,-148.438
1689186710.059,-50.293,-21.484,-20.020,-31.738,-136.719
1689186710.063,-27.832,-29.297,-22.949,-19.043,-119.141
1689186710.066,-8.789,-28.320,-24.902,-13.672,228.027
1689186710.070,-25.391,-23.438,-29.785,-34.180,342.773
1689186710.074,-48.828,-25.879,-31.250,-52.246,-94.727
1689186710.078,-44.434,-33.203,-29.785,-49.316,-217.773
1689186710.082,-26.855,-31.250,-29.297,-20.996,-6.836
1689186710.084,-11.719,-27.832,-27.832,-1.465,20.508
1689186710.088,-26.855,-31.250,-27.832,-15.137,-124.023
1689186710.092,-48.828,-33.691,-27.344,-35.156,-123.535
1689186710.096,-49.316,-28.320,-28.809,-47.363,-144.043
1689186710.100,-19.531,-20.020,-24.902,-30.762,-150.879
1689186710.104,6.836,-18.555,-24.414,-6.836,-38.086
1689186710.108,-14.648,-20.996,-30.273,-11.230,187.012
1689186710.111,-46.875,-23.438,-32.227,-43.457,219.727
1689186710.115,-51.270,-20.508,-32.227,-60.059,-152.832
1689186710.119,-28.320,-21.973,-23.438,-33.691,-241.699
1689186710.123,-8.301,-26.855,-22.461,-13.184,-41.016
1689186710.127,-0.488,-21.484,-27.832,-14.160,-17.578
1689186710.128,-24.902,-20.508,-27.344,-28.809,-131.836
1689186710.132,-48.340,-23.438,-23.438,-40.039,-204.590
1689186710.136,-28.320,-20.996,-20.508,-32.715,-117.676
1689186710.140,-3.906,-23.926,-24.414,-16.113,-26.855
1689186710.144,-10.254,-28.809,-27.832,-7.812,-29.785
1689186710.148,-37.598,-23.926,-26.367,-24.414,8.789
1689186710.152,-50.781,-20.508,-28.320,-47.363,189.453
1689186710.155,-35.645,-22.461,-28.809,-40.527,96.680
1689186710.159,-4.395,-20.996,-30.762,-10.742,-84.961
1689186710.163,0.488,-25.391,-33.203,-3.418,13.184
1689186710.167,-23.438,-30.273,-29.785,-22.461,52.246
1689186710.171,-41.504,-30.762,-29.297,-28.809,-120.605
1689186710.175,-28.809,-31.250,-27.344,-21.484,-276.367
1689186710.179,-7.324,-28.809,-22.949,-0.977,-48.340
1689186710.183,0.488,-25.391,-20.020,10.742,152.344
1689186710.187,-14.648,-26.367,-23.438,-12.207,-27.344
1689186710.191,-35.156,-31.250,-26.855,-40.039,-237.305
1689186710.195,-30.273,-32.715,-25.391,-33.691,-47.363
1689186710.199,-8.301,-33.203,-25.391,-9.766,193.848
1689186710.202,-10.742,-27.832,-29.297,-0.977,78.613
1689186710.206,-36.133,-30.762,-34.180,-26.367,-98.633
1689186710.210,-56.152,-38.086,-38.574,-51.758,9.277
1689186710.214,-45.410,-30.273,-37.109,-46.875,61.035
1689186710.218,-7.812,-20.996,-28.809,-27.832,-172.363
1689186710.234,3.418,-22.949,-20.508,1.465,-96.191
1689186710.238,-24.414,-25.879,-24.902,-7.812,-23.926
1689186710.242,-54.688,-25.879,-33.691,-37.598,-136.230
1689186710.246,-58.105,-23.438,-28.809,-39.551,-149.414
1689186710.250,-40.527,-29.785,-25.391,-32.227,-114.746
1689186710.254,-22.461,-35.156,-27.344,-20.020,293.945
1689186710.258,-23.926,-34.668,-25.879,-21.973,399.902
1689186710.261,-43.945,-36.621,-26.367,-43.457,-145.996
1689186710.265,-52.246,-25.391,-26.855,-52.246,-266.602
1689186710.269,-27.832,-19.043,-24.414,-39.551,65.430
1689186710.273,-5.371,-27.832,-24.902,-9.766,151.367
1689186710.277,-13.184,-29.785,-29.297,-4.883,-99.121
1689186710.279,-42.969,-31.250,-33.691,-40.527,-171.387
1689186710.283,-46.387,-34.180,-28.809,-63.965,-182.129
1689186710.287,-31.250,-33.203,-23.926,-47.363,-162.598
1689186710.291,-29.785,-37.109,-30.273,-22.461,-97.168
1689186710.295,-37.109,-36.621,-30.762,-27.344,-48.340
1689186710.299,-57.617,-35.645,-27.832,-55.176,-9.766
1689186710.303,-62.500,-41.016,-29.297,-62.988,6.836
1689186710.306,-44.922,-35.645,-28.809,-44.922,-27.832
1689186710.310,-23.438,-27.344,-21.973,-14.160,57.129
1689186710.314,-24.902,-26.855,-21.973,-4.883,390.137
1689186710.318,-45.898,-25.879,-28.809,-38.574,127.930
1689186710.322,-60.547,-25.391,-29.297,-53.711,-263.184
1689186710.323,-36.133,-24.902,-26.367,-36.133,-158.691
1689186710.327,-12.207,-29.785,-29.297,-20.020,-70.312
1689186710.331,-15.137,-37.109,-34.180,-13.184,-111.328
1689186710.335,-34.668,-39.062,-32.227,-26.855,-133.301
1689186710.339,-55.176,-35.156,-26.855,-48.340,-152.344
1689186710.343,-53.223,-32.227,-34.668,-55.176,-116.211
1689186710.347,-29.785,-24.414,-40.527,-27.832,8.789
1689186710.350,-13.672,-25.391,-32.227,-13.184,-1.465
1689186710.354,-39.062,-30.762,-26.855,-34.668,293.945
1689186710.358,-66.895,-28.320,-29.785,-49.805,496.582
1689186710.362,-56.641,-25.879,-32.227,-59.082,-50.781
1689186710.366,-22.949,-25.879,-31.250,-44.922,-191.895
1689186710.369,-4.883,-26.367,-27.832,-12.207,32.715
1689186710.373,-29.297,-26.855,-26.855,-24.902,-77.148
1689186710.377,-49.316,-23.438,-26.367,-58.594,-226.562
1689186710.381,-37.598,-28.809,-27.344,-55.664,-145.020
1689186710.385,-9.766,-31.738,-28.320,-23.926,-51.758
1689186710.389,0.977,-18.555,-26.367,-11.719,-60.059
1689186710.393,-17.090,-16.113,-36.621,-37.598,5.371
1689186710.396,-39.062,-22.949,-43.457,-54.688,115.723
1689186710.400,-45.410,-23.926,-34.180,-52.246,135.742
1689186710.404,-17.090,-21.973,-29.297,-36.133,-133.789
1689186710.408,-0.488,-26.367,-30.762,-9.766,-163.086
1689186710.412,-30.762,-32.715,-23.926,-9.766,60.547
1689186710.413,-58.105,-27.832,-17.090,-37.109,-18.555
1689186710.417,-54.688,-14.160,-20.020,-55.664,-224.121
1689186710.421,-26.855,-17.090,-21.973,-28.320,-237.305
1689186710.425,-9.277,-28.809,-20.508,-7.324,-82.031
1689186710.429,-23.438,-30.273,-25.391,-10.742,-26.855
1689186710.433,-44.434,-23.438,-26.855,-25.879,-53.223
1689186710.437,-52.246,-22.461,-29.785,-49.805,-72.266
1689186710.440,-31.738,-24.414,-29.785,-46.875,123.535
1689186710.444,-11.230,-23.438,-25.879,-29.785,299.316
1689186710.448,-10.742,-27.344,-25.391,-33.203,25.391
1689186710.452,-44.922,-25.391,-26.367,-56.152,-147.949
1689186710.456,-66.406,-20.508,-24.902,-53.711,-52.734
1689186710.460,-47.363,-22.949,-24.414,-33.203,-111.328
1689186710.464,-25.391,-25.391,-27.832,-20.020,-134.277
1689186710.468,-20.508,-21.973,-25.879,-14.160,60.547
1689186710.472,-41.992,-21.973,-28.320,-27.832,41.992
1689186710.476,-55.176,-29.297,-28.320,-38.086,-160.645
1689186710.480,-35.645,-20.996,-25.879,-33.203,-197.754
1689186710.484,-6.836,-16.113,-27.832,-7.812,85.938
1689186710.487,-9.766,-18.066,-28.320,0.488,312.012
1689186710.491,-43.945,-15.625,-26.855,-27.832,-32.715
1689186710.495,-55.176,-15.625,-23.926,-48.340,-306.641
1689186710.499,-38.086,-23.438,-28.809,-42.969,-228.516
1689186710.503,-16.602,-26.367,-33.203,-19.531,-125.488
1689186710.503,-6.836,-20.996,-31.250,-8.301,-114.258
1689186710.507,-24.902,-19.531,-27.344,-33.203,-89.844
