timestamps,TP9,AF7,AF8,TP10,Right AUX
1688303466.989,33.691,-28.809,-48.340,-40.039,-119.141
1688303466.993,135.742,-3.418,-42.480,11.230,146.484
1688303466.997,70.801,10.254,-37.598,23.926,117.188
1688303467.001,-102.051,-6.348,-44.922,-10.742,-44.922
1688303467.005,-157.227,-14.648,-52.734,-47.852,-207.520
1688303467.009,5.859,-6.836,-46.387,-30.273,190.918
1688303467.013,125.977,3.906,-44.922,-2.441,416.504
1688303467.016,76.660,17.578,-35.645,-28.320,-33.691
1688303467.020,-89.355,-4.883,-35.156,-67.383,-145.996
1688303467.024,-169.922,-22.461,-45.410,-89.844,-95.215
1688303467.028,-44.922,1.465,-42.480,-84.961,-171.875
1688303467.032,92.285,0.000,-41.504,-40.039,-101.562
1688303467.048,76.660,-12.207,-42.480,-15.625,17.090
1688303467.052,-73.730,-15.137,-52.734,-47.363,2.930
1688303467.056,-161.621,-10.742,-43.945,-61.523,-139.160
1688303467.060,-50.293,-6.348,-24.414,-37.598,-137.695
1688303467.064,99.121,-15.137,-30.273,-15.137,17.090
1688303467.068,91.797,-23.438,-29.297,-7.812,221.191
1688303467.072,-41.016,-3.418,-6.348,-4.883,78.125
1688303467.075,-164.062,-19.531,-16.602,-41.016,-204.102
1688303467.079,-93.750,-53.711,-34.668,-62.012,-101.562
1688303467.083,69.824,-18.555,-48.828,-17.578,160.156
1688303467.087,84.961,8.789,-56.641,-24.414,37.598
1688303467.091,-33.203,-15.137,-20.996,-31.738,-45.898
1688303467.078,-166.016,-21.973,-17.578,-34.668,-69.824
1688303467.082,-117.676,-12.207,-49.316,-55.664,-183.105
1688303467.086,57.617,-0.488,-45.410,-16.602,-89.355
1688303467.090,138.184,-13.184,-13.184,45.410,111.816
1688303467.094,22.461,-41.504,-6.836,40.039,249.512
1688303467.098,-159.668,-32.227,-42.480,-15.625,52.246
1688303467.102,-129.883,-16.602,-45.898,-23.926,-135.742
1688303467.105,56.152,-16.113,-27.344,11.230,47.363
1688303467.109,115.723,-22.461,-33.203,8.301,187.500
1688303467.113,25.879,-24.414,-35.156,-14.648,52.246
1688303467.117,-113.770,-18.555,-21.484,-20.508,-181.152
1688303467.121,-110.352,-30.762,-26.855,-38.086,-233.887
1688303467.124,60.547,-37.109,-37.598,-24.902,179.688
1688303467.128,148.926,-10.742,-30.273,0.000,221.680
1688303467.132,55.664,-11.719,-26.367,-11.719,-75.195
1688303467.136,-125.977,-32.715,-31.250,-53.711,-99.609
1688303467.140,-154.785,-26.367,-36.133,-63.477,-140.137
1688303467.144,34.180,-15.625,-35.156,-16.113,-38.086
1688303467.148,152.832,-16.113,-27.344,20.996,104.980
1688303467.151,78.613,-30.273,-13.184,20.996,178.711
1688303467.155,-84.961,-27.832,-11.719,-1.953,349.609
1688303467.159,-160.156,-21.973,-33.203,-50.293,-47.363
1688303467.163,-4.883,-40.527,-46.387,-30.273,-231.934
1688303467.167,147.949,-36.621,-37.598,23.438,51.758
1688303467.168,83.496,-8.301,-18.555,17.578,57.617
1688303467.172,-91.309,-3.418,-18.066,-14.160,-93.750
1688303467.176,-169.922,-19.531,-29.297,-47.363,-152.832
1688303467.180,-31.250,-25.879,-33.691,-35.156,-47.363
1688303467.184,124.023,-6.348,-33.203,7.812,-20.996
1688303467.188,101.074,-6.836,-23.438,25.879,44.434
1688303467.192,-69.824,-34.668,-24.902,-3.906,104.004
1688303467.195,-148.926,-42.480,-18.066,-13.672,152.832
1688303467.199,-31.738,-36.133,-20.508,-0.488,105.469
1688303467.203,99.121,-22.949,-34.668,-2.930,-103.516
1688303467.207,106.445,-0.977,-33.203,0.977,48.340
1688303467.211,-36.133,-15.137,-38.086,-21.484,101.074
1688303467.217,-172.852,-31.738,-41.992,-68.848,-180.664
1688303467.221,-81.543,-22.461,-32.715,-63.965,-191.895
1688303467.225,91.797,-16.602,-31.738,-24.414,-16.602
1688303467.229,108.398,-17.090,-30.762,-5.371,74.707
1688303467.233,-23.438,-22.949,-29.297,-26.855,-10.742
1688303467.237,-159.180,-35.645,-33.203,-65.918,-190.430
1688303467.241,-91.309,-42.969,-29.297,-41.992,24.414
1688303467.244,85.449,-35.645,-36.133,-2.930,354.980
1688303467.248,115.723,-18.066,-42.969,1.465,119.629
1688303467.252,6.836,-13.184,-33.691,-1.465,-53.711
1688303467.256,-141.113,-29.785,-26.367,-53.223,-107.422
1688303467.260,-84.473,-28.809,-22.949,-52.734,-187.500
1688303467.259,93.262,-11.719,-31.250,14.648,-57.129
1688303467.263,119.629,-20.996,-40.527,19.043,99.609
1688303467.267,24.414,-31.250,-22.461,9.766,171.387
1688303467.271,-139.160,-38.574,-22.949,-24.902,-15.625
1688303467.275,-148.926,-33.203,-40.527,-70.801,-242.188
1688303467.279,40.527,-18.555,-37.598,-22.461,-100.586
1688303467.283,150.391,-17.090,-15.137,48.828,431.152
1688303467.286,61.523,-27.344,-15.137,42.480,598.145
1688303467.290,-127.441,-39.551,-23.926,-15.625,55.176
1688303467.294,-144.531,-35.645,-20.508,-39.551,-271.973
1688303467.298,27.832,-4.395,-30.273,-20.020,-143.066
1688303467.302,120.117,5.371,-30.273,19.043,-54.199
1688303467.305,56.641,-16.602,-22.949,18.066,-56.152
1688303467.309,-102.539,-34.668,-20.020,0.000,-134.277
1688303467.313,-140.137,-43.945,-22.949,-8.301,-208.008
1688303467.317,3.906,-41.016,-38.574,-9.766,-142.090
1688303467.321,120.117,-13.184,-38.574,1.465,-60.059
1688303467.325,85.938,-3.906,-29.297,-7.812,133.789
1688303467.329,-66.406,-27.344,-30.273,-27.832,436.523
1688303467.332,-139.648,-31.250,-32.715,-46.875,5.859
1688303467.336,-2.441,-19.531,-25.879,-40.527,-289.551
1688303467.340,126.953,-19.043,-29.785,-3.418,12.695
1688303467.344,90.820,-17.578,-31.738,15.625,-1.953
1688303467.348,-62.500,-21.484,-13.672,-3.906,-190.918
1688303467.363,-162.598,-25.391,-18.555,-39.551,-181.641
1688303467.367,-44.434,-15.625,-26.367,-35.645,-78.125
1688303467.371,110.840,-6.348,-16.113,-11.719,2.930
1688303467.375,90.820,-19.043,-19.531,-12.207,103.516
1688303467.379,-56.641,-34.180,-27.832,-32.715,66.895
1688303467.383,-146.973,-37.109,-25.879,-37.598,167.480
1688303467.387,-67.871,-38.086,-31.250,-38.574,200.684
1688303467.390,83.496,-25.391,-32.715,-17.090,69.824
1688303467.394,118.164,-38.574,-27.344,14.160,37.598
1688303467.398,-9.766,-57.617,-23.438,20.020,138.184
1688303467.402,-146.484,-35.156,-33.203,-10.254,-76.660
1688303467.406,-86.914,-15.625,-29.297,-38.086,-283.691
1688303467.408,92.285,-14.648,-14.160,0.488,-120.605
1688303467.412,128.906,-14.648,-14.648,21.484,0.977
1688303467.416,10.742,-19.531,-22.949,3.906,-57.617
1688303467.420,-148.438,-41.016,-29.785,-33.691,-203.125
1688303467.424,-104.980,-41.504,-20.508,-37.109,-147.949
1688303467.428,70.312,-29.297,-18.555,-14.648,75.195
1688303467.432,114.746,-35.156,-38.574,7.812,135.742
1688303467.435,13.184,-41.016,-43.945,0.000,-11.230
1688303467.439,-132.812,-47.852,-31.738,-20.020,61.523
1688303467.443,-104.980,-60.547,-28.809,5.371,277.344
1688303467.447,60.547,-35.645,-31.250,12.207,3.906
1688303467.451,133.301,-10.254,-21.973,17.578,-98.145
1688303467.453,53.223,-18.066,-5.859,20.508,65.918
1688303467.457,-120.117,-20.020,-1.465,-37.598,-56.152
1688303467.461,-147.949,-28.320,-22.461,-72.266,-231.445
1688303467.465,15.625,-31.250,-41.016,-24.414,-75.195
1688303467.469,126.953,-16.113,-27.832,22.461,208.008
1688303467.473,60.547,-18.066,-46.387,0.977,124.023
1688303467.477,-107.910,-25.391,-40.527,-29.785,-53.711
1688303467.480,-135.742,-24.414,-8.301,-29.785,-87.402
1688303467.484,21.484,-47.363,-14.160,-7.812,158.203
1688303467.488,111.816,-34.180,-25.391,12.695,156.250
1688303467.492,64.941,-16.113,-21.484,10.742,-36.133
1688303467.496,-101.562,-26.855,-26.855,-32.715,-6.348
1688303467.498,-186.523,-32.227,-25.391,-64.941,-27.344
1688303467.502,-39.551,-33.203,-26.367,-35.645,-136.719
1688303467.506,115.723,-15.625,-26.367,9.277,-75.195
1688303467.510,97.656,-16.602,-19.043,20.508,17.578
1688303467.514,-56.152,-29.297,-19.531,-0.488,-46.387
1688303467.518,-159.668,-30.273,-24.902,-35.156,-103.516
1688303467.522,-38.086,-28.320,-29.785,-21.484,-78.613
1688303467.525,108.398,-28.809,-29.297,12.695,116.211
1688303467.529,77.148,-28.809,-25.879,11.719,216.797
1688303467.533,-62.988,-22.461,-22.461,-18.066,-45.898
1688303467.537,-161.621,-17.090,-18.066,-36.621,-241.699
1688303467.541,-71.777,-37.109,-20.996,-30.762,-114.258
1688303467.544,81.055,-32.715,-47.852,-8.301,-27.344
1688303467.548,97.168,-13.184,-36.133,12.695,9.277
1688303467.552,-23.926,-27.344,-13.184,5.859,27.344
1688303467.556,-139.160,-44.434,-21.484,-18.555,200.195
1688303467.560,-84.473,-41.992,-41.992,-47.363,157.715
1688303467.564,90.820,-20.508,-30.762,5.859,41.016
1688303467.568,130.859,-22.461,-15.137,49.805,106.445
1688303467.571,-19.531,-40.039,-24.414,21.973,233.398
1688303467.575,-185.547,-32.227,-39.551,-36.621,67.871
1688303467.579,-130.859,-19.531,-56.152,-55.664,-237.305
1688303467.583,71.289,-16.113,-46.387,-3.906,-147.949
1688303467.587,120.117,-14.160,-24.902,16.602,-26.855
1688303467.590,0.977,-21.484,-16.602,-21.973,-103.027
1688303467.594,-155.762,-41.992,-19.531,-66.406,-241.211
1688303467.598,-137.207,-45.410,-20.020,-59.570,-239.746
1688303467.602,46.387,-30.273,-16.602,-11.230,-77.148
1688303467.606,140.137,-16.602,-23.438,11.719,81.543
1688303467.610,49.805,-19.043,-43.457,-8.301,92.285
1688303467.614,-137.695,-43.945,-38.086,-48.340,145.508
1688303467.617,-150.391,-44.434,-20.020,-57.617,275.879
1688303467.621,15.625,-17.578,-30.762,-42.480,58.105
1688303467.625,105.469,-4.395,-38.086,-15.137,-57.617
1688303467.629,33.203,-15.137,-30.762,-7.812,28.809
1688303467.633,-133.789,-35.156,-20.508,-34.180,-75.684
1688303467.633,-153.320,-35.156,-20.020,-31.738,-236.816
1688303467.637,0.488,-29.297,-39.551,-22.949,-156.250
1688303467.641,93.262,-20.020,-36.133,-18.555,93.262
1688303467.645,46.387,-4.883,-12.695,0.000,147.461
1688303467.649,-125.000,-26.367,-23.926,-46.387,-73.730
1688303467.653,-187.988,-43.457,-33.691,-77.148,-177.246
1688303467.657,-26.367,-45.898,-27.344,-27.344,214.844
1688303467.660,100.098,-43.457,-33.203,-1.953,510.742
1688303467.664,45.898,-29.785,-42.480,-20.020,146.973
1688303467.668,-106.445,-35.645,-31.738,-55.176,-102.051
1688303467.672,-183.594,-33.203,-16.113,-86.914,-178.711
1688303467.676,-68.848,-21.973,-22.461,-64.941,-199.219
1688303467.694,84.473,-20.020,-38.086,-20.508,-96.191
1688303467.698,87.402,-16.113,-35.645,-7.324,-15.137
1688303467.702,-62.012,-20.508,-24.902,-24.414,-42.969
1688303467.706,-163.086,-41.016,-20.508,-33.691,-193.359
1688303467.710,-42.969,-33.203,-21.484,-25.879,-236.328
1688303467.714,98.145,-17.578,-21.973,1.953,70.801
1688303467.718,91.309,-21.973,-14.648,21.484,315.918
1688303467.721,-31.250,-31.250,-12.207,-6.836,-10.742
1688303467.725,-160.156,-37.109,-30.762,-48.340,-222.168
1688303467.729,-81.543,-42.480,-30.762,-34.668,-51.270
1688303467.733,81.055,-20.508,-35.156,-2.441,120.605
1688303467.737,103.027,12.695,-37.598,-6.836,29.297
1688303467.738,-9.766,-7.812,-18.555,-25.391,25.879
1688303467.742,-146.973,-49.805,-17.090,-32.715,-35.156
1688303467.746,-97.168,-39.062,-30.762,-31.738,-136.719
1688303467.750,69.824,0.000,-46.387,-15.137,27.832
1688303467.754,108.887,10.742,-41.992,9.277,132.812
1688303467.758,-10.742,-15.137,-21.973,-7.812,240.723
1688303467.762,-160.645,-39.062,-14.160,-61.035,25.879
1688303467.765,-141.602,-40.039,-20.508,-78.613,-211.426
1688303467.769,50.781,-17.090,-21.484,-33.691,-57.129
1688303467.773,133.789,-11.230,-32.227,21.484,376.465
1688303467.777,25.879,-24.902,-43.457,8.301,322.754
1688303467.781,-114.746,-31.250,-21.973,-19.531,-47.363
1688303467.783,-121.094,-41.016,-20.020,-21.973,-149.414
1688303467.787,29.297,-23.438,-25.879,-11.230,-83.008
1688303467.791,113.770,-2.930,-15.625,10.742,8.301
1688303467.795,29.297,-14.648,-16.602,16.113,-84.473
1688303467.799,-132.812,-34.180,-11.230,-19.043,-129.395
1688303467.803,-169.922,-49.316,-12.695,-50.293,-29.785
1688303467.807,-11.230,-44.922,-21.484,-19.531,-58.105
1688303467.810,97.656,-42.969,-19.531,-0.488,-62.012
1688303467.814,38.086,-54.688,-10.742,5.859,89.355
1688303467.818,-125.000,-58.105,1.953,-5.371,147.461
1688303467.822,-187.012,-52.246,-3.418,-57.617,-208.008
1688303467.826,-33.203,-44.434,-14.160,-32.715,-197.754
1688303467.829,104.980,-44.434,-31.738,2.930,25.879
1688303467.833,78.125,-35.645,-35.156,17.090,64.941
1688303467.837,-96.680,-53.223,-41.016,-5.859,-34.180
1688303467.841,-194.824,-61.523,-42.969,-51.758,-98.633
1688303467.845,-30.273,-32.715,-13.672,-19.043,182.617
1688303467.849,132.324,-20.020,-2.441,29.785,337.891
1688303467.853,91.309,-22.461,-15.137,9.766,118.652
1688303467.856,-66.895,-25.391,-27.344,-21.484,-8.301
1688303467.860,-148.926,-44.434,-36.621,-25.391,47.363
1688303467.864,-23.926,-39.551,-45.898,-18.555,-94.238
1688303467.868,133.789,-18.555,-38.086,8.301,-138.184
1688303467.872,114.258,-20.996,-34.668,18.066,45.898
1688303467.874,-59.082,-29.785,-27.344,-21.484,64.453
1688303467.878,-174.805,-21.484,-6.836,-44.434,-188.477
1688303467.882,-66.406,-22.949,-11.719,-16.113,-270.508
1688303467.886,89.844,-26.367,-21.973,14.160,-94.727
1688303467.890,108.398,0.488,-13.184,30.762,99.121
1688303467.894,-22.461,-11.719,-13.672,6.348,150.879
1688303467.898,-175.293,-40.527,-26.367,-45.410,-1.465
1688303467.901,-100.586,-29.297,-27.344,-41.504,-3.418
1688303467.905,93.262,-3.418,-22.461,21.484,352.051
1688303467.909,126.465,-6.348,-29.785,35.156,181.152
1688303467.913,1.465,-15.625,-28.809,1.953,-110.352
1688303467.917,-153.320,-33.691,-30.273,-17.090,-162.598
1688303467.918,-119.629,-40.527,-41.016,-13.672,-231.445
1688303467.922,76.172,-25.879,-37.109,24.902,-129.883
1688303467.926,144.043,-27.832,-30.762,31.738,33.203
1688303467.930,42.969,-23.438,-15.625,1.465,174.805
1688303467.934,-136.719,-14.648,-5.859,-50.781,5.859
1688303467.938,-136.719,-9.766,-6.836,-49.805,-151.367
1688303467.942,34.180,-5.371,-22.461,-12.695,-37.109
1688303467.945,118.164,-15.137,-32.227,10.742,374.512
1688303467.949,37.598,-32.715,-23.926,4.395,494.141
1688303467.953,-125.488,-37.598,-26.367,-39.551,-17.578
1688303467.957,-133.301,-30.273,-23.926,-42.480,-317.383
1688303467.961,36.621,-33.691,-33.691,-0.488,-216.309
1688303467.965,143.066,-24.414,-36.133,28.320,-93.262
1688303467.969,61.523,-16.113,-16.113,-0.977,-36.621
1688303467.973,-123.047,-37.109,-5.859,-43.457,-67.871
1688303467.977,-177.734,-46.387,-13.184,-62.988,-132.324
1688303467.981,-23.438,-23.926,-32.227,-48.340,-152.832
1688303467.985,118.652,-6.348,-37.598,3.906,8.789
1688303467.989,79.102,-11.719,-16.113,24.902,272.949
1688303467.992,-76.660,-35.156,-9.277,-4.395,298.340
1688303467.996,-166.016,-41.992,-30.273,-47.852,-104.492
1688303468.000,-25.879,-26.855,-38.574,-38.574,-190.430
1688303468.004,123.047,-17.578,-46.387,0.000,47.852
1688303468.008,88.379,-16.602,-47.363,4.395,20.996
1688303468.008,-63.965,-31.250,-34.668,-26.367,-152.832
1688303468.012,-152.832,-49.316,-29.785,-37.109,-259.277
1688303468.016,-21.484,-38.574,-23.438,0.488,-132.324
1688303468.020,118.652,-22.461,-19.043,26.855,41.016
1688303468.024,111.816,-2.441,-0.977,32.715,83.008
1688303468.028,-39.062,-13.672,-2.930,10.254,116.699
1688303468.032,-167.969,-35.645,-33.203,-15.137,261.230
1688303468.035,-72.266,-43.945,-49.316,-14.160,295.898
1688303468.039,105.469,-14.160,-36.621,0.488,-23.438
1688303468.043,134.277,6.836,-23.926,0.000,-20.996
1688303468.047,-10.742,-17.578,-26.367,-15.137,-16.602
1688303468.051,-166.992,-43.457,-31.738,-47.363,-155.762
1688303468.057,-86.426,-29.297,-27.344,-37.598,-188.965
1688303468.061,104.492,-15.137,-24.414,13.672,-118.652
1688303468.065,141.113,-2.930,-16.602,48.340,132.324
1688303468.069,15.137,-3.906,-20.996,22.461,83.496
1688303468.073,-155.762,-45.898,-36.133,-45.410,-167.480
1688303468.077,-106.445,-38.086,-23.438,-45.898,-12.207
1688303468.081,81.543,-15.625,-24.414,-12.695,243.652
1688303468.084,123.047,-20.996,-24.414,-0.488,93.262
1688303468.088,7.812,-31.738,-13.672,-13.672,-55.176
1688303468.092,-152.832,-49.316,-16.113,-37.109,-62.988
1688303468.096,-142.578,-59.570,-33.691,-42.480,-82.520
1688303468.100,52.734,-39.551,-38.574,7.812,-124.023
1688303468.114,150.391,0.488,-25.879,39.551,-65.430
1688303468.118,56.152,11.230,-15.625,9.277,76.172
1688303468.122,-123.047,-16.602,-21.973,-42.969,46.875
1688303468.126,-155.273,-41.504,-41.992,-70.312,-150.879
1688303468.130,20.996,-34.668,-46.875,-30.762,-108.398
1688303468.134,135.254,-21.973,-32.227,23.926,392.578
1688303468.138,64.941,-13.184,-20.508,35.156,642.090
1688303468.141,-103.027,-22.949,-35.156,-23.926,42.969
1688303468.145,-164.551,-46.387,-42.969,-65.918,-304.199
1688303468.149,-9.766,-40.527,-36.133,-25.391,-101.074
1688303468.153,119.141,-14.160,-37.598,20.020,-75.195
1688303468.157,63.965,-18.066,-40.039,1.465,-123.047
1688303468.160,-91.797,-32.227,-26.855,-37.109,-106.445
1688303468.164,-168.945,-39.551,-22.949,-48.340,-165.527
1688303468.168,-22.949,-36.133,-29.297,-10.742,-119.141
1688303468.172,120.117,-12.207,-29.297,39.062,-9.277
1688303468.176,90.820,-19.531,-27.832,40.527,84.473
1688303468.180,-75.684,-41.504,-28.809,-22.949,90.332
1688303468.184,-183.105,-49.805,-27.832,-58.105,-56.152
1688303468.187,-46.387,-43.945,-34.180,-35.645,-136.230
1688303468.191,127.441,-39.062,-33.691,16.602,44.922
1688303468.195,124.512,-35.645,-18.066,37.598,378.906
1688303468.199,-47.363,-34.180,-31.250,-12.695,77.637
1688303468.203,-159.668,-33.691,-29.785,-38.574,-249.023
1688303468.203,-34.668,-16.602,-17.578,-15.625,-144.043
1688303468.207,106.934,-22.949,-34.180,-2.441,-20.996
1688303468.211,106.445,-35.645,-36.133,10.254,25.391
1688303468.215,-25.879,-35.156,-30.762,-5.859,56.152
1688303468.219,-162.598,-39.551,-22.949,-41.016,75.195
1688303468.223,-86.914,-26.855,-8.301,-31.250,1.465
1688303468.227,79.590,-15.625,-15.137,6.836,24.414
1688303468.230,112.793,-15.137,-18.555,31.738,145.996
1688303468.234,-1.953,-21.973,-1.465,12.207,352.539
1688303468.238,-156.250,-42.480,-11.719,-37.109,322.266
1688303468.242,-101.074,-33.203,-23.438,-42.480,-49.805
1688303468.246,83.984,-3.906,-25.391,-4.395,-111.816
1688303468.249,109.375,-5.371,-33.691,3.906,35.645
1688303468.253,9.277,-18.555,-36.621,0.000,-8.789
1688303468.257,-137.695,-31.738,-43.945,-24.902,-164.062
1688303468.261,-142.578,-40.039,-38.574,-34.180,-234.375
1688303468.265,28.809,-24.902,-29.297,-4.395,-57.617
1688303468.269,110.352,-13.184,-19.531,13.672,115.723
1688303468.273,17.578,-25.879,-22.461,-4.883,56.152
1688303468.276,-149.902,-34.668,-20.020,-44.434,6.348
1688303468.280,-142.578,-33.203,-25.879,-43.457,132.324
1688303468.284,22.461,-27.344,-39.551,-22.949,65.430
1688303468.288,110.352,-17.090,-31.250,-6.348,6.348
1688303468.292,39.551,-27.832,-29.297,-8.789,93.750
1688303468.293,-130.371,-46.387,-31.250,-38.086,-23.926
1688303468.297,-175.781,-53.711,-38.574,-73.242,-233.887
1688303468.301,-15.137,-47.363,-43.457,-48.828,-167.969
1688303468.305,106.934,-21.973,-27.344,-1.465,95.703
1688303468.309,55.664,-5.859,-22.949,4.395,69.336
1688303468.313,-101.562,-20.508,-23.926,-8.301,-41.992
1688303468.317,-168.945,-34.180,-12.207,-29.297,-38.086
1688303468.320,-20.996,-31.738,-23.926,-11.719,208.984
1688303468.324,111.328,-18.066,-38.574,2.930,295.898
1688303468.328,78.613,4.395,-25.879,-15.625,7.324
1688303468.332,-90.332,-20.996,-27.344,-53.711,-145.508
1688303468.336,-197.754,-51.758,-35.645,-77.637,-193.359
1688303468.341,-56.152,-53.711,-38.574,-61.035,-89.355
1688303468.345,110.840,-41.504,-41.016,-18.555,-72.266
1688303468.349,103.516,-35.156,-38.574,22.949,-23.438
1688303468.353,-49.316,-47.363,-24.414,-3.418,68.359
1688303468.357,-166.504,-47.852,-16.602,-51.270,-146.484
1688303468.361,-53.223,-38.086,-22.949,-39.062,-167.969
1688303468.365,99.121,-22.461,-27.832,11.719,122.559
1688303468.368,102.539,-18.066,-31.250,11.230,352.539
1688303468.372,-35.156,-16.113,-31.738,-7.812,2.441
1688303468.376,-164.062,-25.391,-32.715,-42.480,-289.551
1688303468.380,-84.473,-35.645,-54.688,-60.059,-181.641
1688303468.384,79.102,-30.273,-64.941,-28.809,-73.242
1688303468.385,105.957,-31.738,-30.762,1.465,-12.695
1688303468.389,-19.043,-30.762,-4.395,0.000,-55.176
1688303468.393,-149.902,-35.645,-4.883,-21.973,-14.648
1688303468.397,-86.914,-46.875,-23.926,-45.410,-9.766
1688303468.401,94.727,-44.434,-37.598,-27.832,-16.113
1688303468.405,142.090,-20.020,-19.531,8.301,121.094
1688303468.409,22.461,-18.555,-10.742,11.719,346.191
1688303468.412,-156.738,-37.598,-31.738,-34.668,343.262
1688303468.416,-153.809,-35.156,-45.898,-62.988,-141.602
1688303468.420,44.434,-18.066,-34.668,-12.207,-243.652
1688303468.424,132.812,-16.113,-31.738,26.367,48.828
1688303468.428,31.250,-25.879,-33.203,-3.906,-16.602
1688303468.430,-125.977,-50.781,-8.789,-37.109,-200.195
1688303468.434,-121.094,-38.574,-5.859,-39.551,-207.031
1688303468.438,34.668,-5.859,-40.527,-26.855,-118.652
1688303468.442,125.488,0.488,-45.898,-0.977,-26.367
1688303468.446,50.293,-20.020,-31.738,6.836,-30.273
1688303468.450,-118.652,-33.691,-24.902,-27.832,90.332
1688303468.454,-145.996,-25.391,-18.555,-49.805,131.836
1688303468.457,21.973,-14.160,-13.672,-26.855,15.137
1688303468.461,125.977,-23.438,-22.949,4.395,-3.906
1688303468.465,91.309,-15.137,-15.137,45.410,103.516
1688303468.469,-82.031,-22.949,-22.461,11.230,177.734
1688303468.473,-179.199,-31.250,-40.527,-68.359,-98.633
1688303468.488,-23.438,-27.344,-48.828,-48.340,-125.000
1688303468.492,113.770,-24.902,-33.203,0.000,77.637
1688303468.496,69.824,-2.930,-10.742,-23.438,123.535
1688303468.500,-82.031,-23.438,-19.043,-42.969,-4.395
1688303468.504,-149.902,-47.852,-12.695,-26.855,-210.449
1688303468.508,-11.230,-31.250,-8.789,-2.441,176.758
1688303468.512,100.586,-3.418,-23.926,-3.418,394.043
1688303468.515,48.828,6.348,-35.645,-24.902,56.152
1688303468.519,-109.863,-10.742,-36.133,-59.082,-39.062
1688303468.523,-207.520,-24.902,-39.551,-89.355,85.449
1688303468.527,-93.262,-20.020,-50.781,-81.055,-36.621
1688303468.531,63.477,6.348,-51.270,-46.387,-144.043
1688303468.533,59.570,11.719,-42.969,-37.109,-11.719
1688303468.537,-73.242,-24.902,-30.273,-57.617,-33.691
1688303468.541,-183.105,-38.086,-28.809,-82.031,-165.039
1688303468.545,-103.027,-14.160,-41.016,-70.312,-213.867
1688303468.549,85.449,25.391,-44.922,-21.973,-29.785
1688303468.553,112.793,18.066,-52.734,-15.625,207.520
1688303468.557,-50.293,-64.453,-49.316,-56.641,101.562
1688303468.560,-203.613,-39.551,-47.852,-98.633,-209.961
1688303468.564,-118.164,24.414,-40.039,-82.031,-139.648
1688303468.568,85.449,20.508,-15.625,-13.184,224.121
1688303468.572,120.117,24.414,-23.438,-10.254,129.395
1688303468.576,0.977,-0.977,-32.715,-28.809,-53.711
1688303468.578,-110.840,-45.410,-31.738,-26.367,-58.105
1688303468.582,-78.125,-33.203,-35.645,-34.180,-124.023
1688303468.586,70.801,-0.488,-33.691,-9.766,-83.496
1688303468.590,127.930,-2.930,-19.531,8.789,114.746
1688303468.594,11.719,-10.742,-8.301,-8.789,222.168
1688303468.598,-146.973,-22.461,-8.789,-43.945,62.500
1688303468.602,-103.516,-59.570,-17.090,-21.973,-173.828
1688303468.605,86.426,-90.820,-25.391,30.273,-134.277
1688303468.609,165.039,-53.223,-22.949,71.777,220.215
1688303468.613,48.828,18.066,-29.785,41.016,169.434
1688303468.617,-134.766,27.832,-20.020,-41.016,-233.398
1688303468.621,-152.832,-2.441,-20.996,-79.590,-275.879
1688303468.640,23.926,-7.812,-29.297,-34.180,-72.754
1688303468.644,123.535,2.441,-34.180,10.254,8.301
1688303468.648,68.848,-5.859,-23.926,13.672,-13.672
1688303468.652,-61.523,-30.273,-3.418,19.043,-54.199
1688303468.656,-123.535,-46.875,-12.695,-24.414,-61.523
1688303468.660,13.672,-43.457,-23.438,-26.367,17.090
1688303468.664,152.344,-20.020,-30.762,26.855,92.773
1688303468.667,92.773,-20.020,-40.527,17.090,191.895
1688303468.671,-64.941,-28.809,-17.578,-11.719,245.117
1688303468.675,-137.695,-24.414,-14.160,-46.875,-128.906
1688303468.679,-10.254,-11.719,-20.996,-40.039,-216.309
1688303468.683,120.117,2.441,-20.996,3.906,-11.719
1688303468.669,78.613,-3.906,-16.113,13.184,11.719
1688303468.673,-59.082,-28.809,-17.578,-2.930,-67.871
1688303468.677,-144.043,-66.406,-38.574,-23.438,-152.344
1688303468.681,-37.598,-58.105,-49.805,-1.465,37.109
1688303468.685,114.258,-12.695,-42.969,35.645,161.621
1688303468.689,100.586,-13.672,-33.691,30.762,121.094
1688303468.693,-64.941,-17.578,-17.578,-25.879,142.578
1688303468.696,-188.965,-18.555,-5.859,-76.172,47.852
1688303468.700,-93.262,-25.879,-16.113,-57.129,-148.438
1688303468.704,70.801,-24.902,-21.484,-12.695,-122.559
1688303468.708,87.402,-29.297,-19.043,-2.441,-23.438
1688303468.712,-34.668,-53.223,-19.043,4.883,272.461
1688303468.715,-166.016,-54.199,-35.156,-36.133,193.359
1688303468.719,-91.309,-47.852,-41.504,-55.176,-227.539
1688303468.723,78.125,-5.859,-40.039,-7.812,-150.879
1688303468.727,86.914,30.762,-47.852,-4.395,39.551
1688303468.731,-25.879,19.043,-23.438,-17.578,9.766
1688303468.735,-156.250,-24.902,-10.742,-45.898,-119.629
1688303468.739,-101.562,-39.062,-10.254,-22.461,57.129
1688303468.742,75.684,-23.926,-8.301,26.367,430.176
1688303468.746,126.465,-17.578,-22.949,17.578,184.082
1688303468.750,29.297,-33.203,-22.949,-21.973,-78.125
1688303468.754,-126.465,-35.156,-16.113,-53.711,-92.285
1688303468.758,-124.023,-5.371,-16.602,-58.105,-206.543
1688303468.758,55.176,0.488,-36.133,-21.484,-190.918
1688303468.762,155.762,-20.996,-41.504,18.555,-95.215
1688303468.766,62.988,-33.203,-23.926,10.742,-12.207
1688303468.770,-123.047,-46.387,-11.719,-33.203,-19.043
1688303468.774,-143.066,-40.039,-13.184,-42.969,-200.684
1688303468.778,19.531,-21.484,-16.602,-6.348,-99.121
1688303468.782,134.277,-17.578,-8.789,51.758,416.016
1688303468.785,74.707,-19.043,-18.066,36.133,446.289
1688303468.789,-94.238,-41.992,-49.805,-37.598,-22.461
1688303468.793,-137.207,-54.199,-38.086,-46.875,-194.824
1688303468.797,7.812,-21.973,-25.879,-4.883,46.875
1688303468.801,127.930,9.766,-19.043,22.461,21.484
1688303468.805,62.012,-2.930,-19.531,-1.465,-87.891
1688303468.809,-117.188,-34.180,-25.879,-42.969,-49.805
1688303468.813,-183.594,-51.270,-14.648,-56.641,-74.707
1688303468.817,-17.578,-36.621,-19.531,-27.832,-137.207
1688303468.821,123.535,-20.020,-33.203,19.043,-107.422
1688303468.825,84.961,-20.020,-28.809,29.785,31.250
1688303468.829,-66.406,-20.996,-38.086,-15.137,32.715
1688303468.832,-168.457,-34.180,-42.969,-44.922,-183.594
1688303468.836,-46.875,-22.949,-11.719,-7.812,-228.027
1688303468.840,108.398,-6.348,-8.301,17.090,34.180
1688303468.844,88.379,-35.645,-15.625,16.113,203.613
1688303468.848,-63.477,-64.453,-13.672,-17.578,-1.953
1688303468.864,-166.504,-50.781,-14.160,-66.406,-165.039
1688303468.868,-72.266,-39.551,-33.203,-42.480,-42.969
1688303468.872,75.684,-23.438,-57.617,1.465,78.125
1688303468.876,100.586,0.000,-34.668,21.973,139.160
1688303468.880,-19.043,-10.254,-18.555,8.301,0.000
1688303468.884,-147.949,-41.016,-29.297,-15.137,116.211
1688303468.888,-82.520,-50.781,-34.180,-9.277,187.012
1688303468.891,83.984,-35.156,-33.691,6.836,-119.141
1688303468.895,114.746,-19.043,-23.438,9.766,-63.477
1688303468.899,6.348,-20.020,-3.906,-13.184,78.613
1688303468.903,-141.602,-29.785,-22.949,-50.781,-102.539
1688303468.907,-117.188,-25.879,-43.457,-48.828,-191.406
1688303468.908,71.777,-16.602,-37.109,3.418,-52.246
1688303468.912,129.883,-12.695,-28.809,22.949,51.270
1688303468.916,14.648,-15.137,-0.488,-3.906,-28.320
1688303468.920,-148.438,-37.109,-6.836,-46.387,-202.637
1688303468.924,-105.957,-38.086,-39.062,-44.922,-181.152
1688303468.928,61.523,-17.578,-41.504,0.000,31.250
1688303468.932,105.469,-21.484,-33.203,18.555,114.258
1688303468.935,21.973,-39.551,-30.762,-3.906,-22.461
1688303468.939,-125.488,-47.363,-27.344,-29.785,-38.574
1688303468.943,-143.066,-55.664,-43.457,-40.039,166.016
1688303468.947,16.602,-29.297,-53.223,-21.484,-20.996
1688303468.951,133.789,-7.324,-34.668,14.648,-52.246
1688303468.953,64.453,-33.691,-15.137,8.301,114.258
1688303468.957,-125.488,-43.945,-14.160,-41.504,-37.109
1688303468.961,-145.020,-43.457,-27.344,-46.387,-183.594
1688303468.965,21.973,-32.715,-33.691,-12.695,-76.172
1688303468.969,117.676,-24.414,-35.645,15.625,384.766
1688303468.973,67.383,-23.438,-34.180,17.090,416.504
1688303468.977,-104.004,-17.090,-28.809,-27.832,-4.395
1688303468.980,-190.430,-21.484,-35.645,-73.242,-196.289
1688303468.984,-34.180,-20.996,-26.367,-40.039,61.035
1688303468.988,113.281,-16.113,-16.602,16.113,165.527
1688303468.992,81.543,-15.625,-26.855,6.348,29.785
1688303468.996,-65.918,-21.973,-28.809,-30.762,-46.875
1688303468.999,-139.160,-20.020,-28.320,-37.109,-187.988
1688303469.003,-22.949,-17.090,-36.133,-28.809,-226.074
1688303469.007,110.352,-20.996,-42.480,-7.812,-83.496
1688303469.011,112.305,-23.438,-44.922,-11.230,34.180
1688303469.015,-33.691,-25.391,-45.410,-27.832,-71.289
1688303469.019,-141.113,-41.016,-43.945,-27.832,-121.582
1688303469.023,-33.203,-31.738,-40.527,-26.855,-72.266
1688303469.026,110.352,-11.230,-40.039,-5.371,100.098
1688303469.030,112.305,-11.230,-48.340,25.879,450.684
1688303469.034,-6.348,-8.301,-33.203,4.395,148.438
1688303469.038,-133.301,-9.277,-24.902,-43.457,-235.840
1688303469.042,-75.684,-21.973,-36.621,-39.551,-165.527
1688303469.043,87.891,-15.625,-40.527,10.254,-39.551
1688303469.047,124.512,-1.953,-44.434,31.738,44.434
1688303469.051,-2.930,-13.184,-39.551,8.789,55.664
1688303469.055,-145.996,-38.574,-39.551,-41.992,34.180
1688303469.059,-102.539,-40.527,-45.898,-33.203,-84.961
1688303469.063,75.195,-33.691,-41.016,9.277,18.555
1688303469.067,139.160,-18.555,-22.461,22.949,182.129
1688303469.070,26.855,-14.648,-12.207,22.949,343.262
1688303469.074,-136.230,-35.156,-15.625,-21.973,334.961
1688303469.078,-119.629,-41.992,-33.203,-52.734,-165.527
1688303469.082,60.547,-21.973,-42.969,-18.066,-237.793
1688303469.086,138.184,-1.953,-29.297,7.324,-20.508
1688303469.105,57.129,5.859,-8.301,6.348,-64.453
1688303469.109,-116.211,-19.531,-19.531,-17.578,-175.293
1688303469.113,-145.020,-38.574,-36.621,-54.688,-202.637
1688303469.117,24.902,-22.461,-33.203,-36.133,-88.867
1688303469.121,132.812,-13.184,-29.297,3.906,4.883
1688303469.125,66.406,-23.926,-24.414,-12.207,69.824
1688303469.129,-101.074,-37.109,-22.461,-42.969,126.465
1688303469.132,-125.977,-41.016,-29.297,-44.922,136.719
1688303469.136,32.227,-14.648,-40.039,-22.949,-35.156
1688303469.140,123.047,-6.348,-37.598,8.789,2.930
1688303469.144,55.664,-22.461,-23.926,11.719,144.043
1688303469.148,-95.215,-36.133,-23.926,-25.391,38.574
1688303469.133,-142.578,-31.738,-19.531,-52.246,-236.328
1688303469.137,4.395,-14.648,-27.344,-27.832,-229.980
1688303469.141,119.141,-20.020,-30.762,6.836,90.332
1688303469.145,66.406,-25.391,-19.043,-0.977,79.590
1688303469.149,-90.332,-26.855,-19.043,-45.410,-140.625
1688303469.153,-167.480,-32.715,-30.762,-64.941,-80.078
1688303469.157,-38.574,-25.879,-26.855,-38.574,129.395
1688303469.160,108.398,-10.742,-16.113,9.766,53.223
1688303469.164,91.309,4.395,-28.809,4.395,-17.090
1688303469.168,-59.570,-4.883,-30.762,-32.227,-40.039
1688303469.172,-158.691,-43.457,-21.484,-35.156,120.117
1688303469.176,-61.035,-41.016,-36.621,-23.438,195.801
1688303469.181,78.125,-13.672,-41.992,-17.090,-34.668
1688303469.185,97.656,-9.766,-31.738,10.742,5.371
1688303469.189,-24.902,-20.996,-27.832,11.719,30.273
1688303469.193,-160.156,-39.551,-22.461,-45.410,-224.609
1688303469.197,-91.309,-47.852,-28.320,-62.012,-272.949
1688303469.201,93.262,-25.879,-34.180,-11.719,68.359
1688303469.205,125.000,-11.230,-34.668,-5.859,288.574
1688303469.208,-4.395,-12.207,-31.250,-28.809,67.871
1688303469.212,-137.207,-21.484,-32.715,-48.828,-219.238
1688303469.216,-86.914,-21.973,-34.180,-39.062,-156.738
1688303469.220,63.965,-20.996,-46.875,-8.789,59.570
1688303469.224,88.867,-15.137,-50.781,-6.836,9.277
1688303469.238,-19.531,-16.602,-37.598,-19.531,-59.570
1688303469.242,-150.391,-38.086,-27.344,-50.781,-86.426
1688303469.246,-112.793,-38.574,-22.949,-66.895,-120.117
1688303469.250,64.941,-21.973,-28.320,-18.555,-35.156
1688303469.254,127.930,-29.785,-16.602,30.273,113.281
1688303469.258,36.133,-30.762,-5.371,21.973,337.891
1688303469.262,-117.676,-24.902,-13.672,-20.020,505.371
1688303469.265,-129.395,-19.531,-27.344,-34.668,41.992
1688303469.269,32.715,-4.395,-32.715,-4.883,-181.641
1688303469.273,130.371,0.977,-15.137,36.621,10.254
1688303469.277,61.523,-25.391,-18.555,34.668,-13.672
1688303469.281,-110.352,-42.969,-40.039,-38.574,-124.512
1688303469.283,-145.996,-30.273,-26.367,-68.359,-198.730
1688303469.287,15.625,-11.230,-20.996,-29.297,-119.141
1688303469.291,129.883,-5.371,-29.785,26.367,28.809
1688303469.295,63.965,-22.461,-20.020,36.133,26.367
1688303469.299,-104.004,-37.109,-2.930,-4.883,-79.590
1688303469.303,-145.020,-35.156,-6.836,-46.387,-84.473
1688303469.307,14.648,-14.160,-17.090,-27.832,-52.246
1688303469.310,120.117,1.465,-23.438,18.066,43.945
1688303469.314,83.008,-2.930,-19.043,27.832,160.645
1688303469.318,-64.941,-26.367,-11.719,-5.859,310.059
1688303469.322,-170.410,-29.785,-23.438,-50.293,-29.785
1688303469.326,-32.715,-10.742,-37.598,-21.484,-225.586
1688303469.328,124.512,6.836,-29.297,38.574,-36.621
1688303469.332,94.238,-9.277,-23.926,28.809,-13.672
1688303469.336,-66.406,-36.621,-28.809,-7.812,-51.758
1688303469.340,-166.992,-48.828,-26.367,-29.785,-93.750
1688303469.344,-52.246,-41.504,-23.926,-9.277,57.129
1688303469.348,99.121,-16.602,-31.738,13.184,195.801
1688303469.352,113.770,-7.812,-26.855,8.789,125.488
1688303469.355,-23.438,-20.996,-19.531,-22.461,-49.316
1688303469.359,-144.043,-27.344,-18.555,-30.762,91.309
1688303469.363,-59.570,-10.742,-21.973,-20.508,144.531
1688303469.367,84.473,-13.672,-28.809,-10.254,-80.566
1688303469.371,105.469,-26.367,-27.344,2.930,-20.996
1688303469.374,-13.184,-18.066,-22.461,-5.371,5.371
1688303469.378,-145.996,-21.484,-32.715,-47.852,-120.605
1688303469.382,-68.359,-19.043,-25.391,-39.551,-204.590
1688303469.386,92.285,-12.695,-29.785,14.648,-81.543
1688303469.390,108.398,-14.160,-46.875,27.344,105.469
1688303469.394,-17.090,-27.832,-30.762,7.324,75.684
1688303469.398,-150.879,-40.527,-20.020,-17.578,-117.188
1688303469.401,-109.863,-40.527,-12.695,-24.902,-76.660
1688303469.405,57.617,-22.461,-10.254,14.160,257.324
1688303469.409,103.516,-6.348,-28.809,28.809,123.047
1688303469.413,18.555,-21.484,-20.996,1.953,-58.594
1688303469.417,-129.395,-47.852,-25.879,-38.574,-70.312
1688303469.418,-139.160,-39.551,-30.762,-47.852,-162.109
1688303469.422,26.855,-18.066,-24.902,-10.254,-156.250
1688303469.426,116.699,-18.066,-32.227,14.160,-26.855
1688303469.430,54.199,-27.832,-35.645,15.625,250.000
1688303469.434,-111.328,-32.227,-31.738,-25.879,104.980
1688303469.438,-146.973,-27.832,-21.973,-38.086,-127.930
1688303469.442,26.855,-21.973,-27.344,-6.348,26.855
1688303469.445,118.164,-34.180,-24.414,34.668,308.594
1688303469.449,44.922,-31.250,-20.996,10.254,259.766
1688303469.453,-109.863,-26.855,-36.621,-46.875,-134.766
1688303469.457,-158.691,-40.039,-39.551,-56.641,-248.535
1688303469.461,-0.488,-36.133,-31.738,-32.227,-141.602
1688303469.467,116.699,-23.438,-34.180,-4.395,-46.875
1688303469.471,66.406,-25.391,-32.227,-5.371,27.344
1688303469.475,-96.680,-30.273,-22.461,-38.086,11.230
1688303469.479,-167.969,-40.039,-25.391,-68.848,-74.707
1688303469.483,-29.785,-24.902,-29.785,-50.293,-80.566
1688303469.487,113.770,-5.371,-20.508,5.371,0.488
1688303469.491,91.309,-13.672,-13.184,26.367,183.594
1688303469.494,-71.777,-34.180,-25.879,-16.113,311.035
1688303469.498,-165.527,-35.156,-32.715,-56.641,-121.582
1688303469.502,-44.434,-21.973,-18.555,-35.645,-245.117
1688303469.506,98.145,-18.555,-24.902,4.883,-3.418
1688303469.510,83.984,-22.461,-39.551,12.207,44.434
1688303469.508,-49.805,-27.832,-31.250,2.930,-88.379
1688303469.512,-155.762,-34.180,-17.090,-34.668,-188.477
1688303469.516,-66.406,-25.879,-20.020,-40.039,-73.242
1688303469.520,82.031,-9.766,-26.367,3.906,77.637
1688303469.524,82.520,-9.277,-32.227,1.953,81.055
1688303469.528,-37.109,-27.344,-33.691,-26.367,44.434
1688303469.532,-153.320,-27.832,-19.531,-43.457,200.195
1688303469.535,-97.656,-28.320,-26.855,-43.945,344.727
1688303469.539,59.570,-23.926,-40.039,-15.137,53.711
1688303469.543,112.305,-15.625,-26.367,40.039,-139.160
1688303469.547,4.883,-21.973,-16.602,43.945,-79.590
1688303469.551,-145.020,-31.250,-21.973,-24.902,-212.402
1688303469.570,-105.957,-29.297,-25.391,-71.289,-327.148
1688303469.574,54.199,-9.766,-33.203,-38.574,-116.211
1688303469.578,105.957,1.953,-38.086,4.395,69.336
1688303469.582,-0.977,-10.254,-25.879,-9.277,-14.160
1688303469.586,-153.809,-37.598,-28.320,-62.988,-163.086
1688303469.590,-100.586,-37.109,-27.344,-55.664,-7.324
1688303469.594,63.965,-11.719,-26.367,-4.883,206.055
1688303469.597,120.605,-1.465,-25.391,21.484,164.551
1688303469.601,33.691,-22.949,-7.812,-0.977,8.301
1688303469.605,-114.258,-54.688,-2.441,-29.785,17.090
1688303469.609,-149.902,-62.500,-24.902,-51.758,108.887
1688303469.613,-11.719,-25.879,-29.785,-43.457,-102.539
1688303469.613,113.281,4.395,-10.742,6.348,-73.242
1688303469.617,66.406,-4.883,-1.953,14.160,50.781
1688303469.621,-99.609,-32.715,-12.695,-42.480,-58.594
1688303469.625,-168.457,-40.527,-28.809,-74.707,-176.270
1688303469.629,-20.508,-14.160,-30.762,-30.273,-83.008
1688303469.633,119.141,-1.953,-23.926,9.277,280.762
1688303469.637,66.406,-6.836,-31.738,5.371,240.234
1688303469.640,-99.121,-18.066,-37.109,-24.902,-107.910
1688303469.644,-157.715,-35.156,-28.320,-52.734,-215.332
1688303469.648,-18.066,-41.992,-36.133,-14.160,206.543
1688303469.652,95.215,-38.574,-34.180,15.137,516.113
1688303469.656,52.734,-30.273,-21.484,-14.648,177.246
1688303469.658,-81.055,-30.762,-21.973,-45.898,-78.125
1688303469.662,-153.809,-27.344,-21.484,-74.219,-170.410
1688303469.666,-30.273,-11.230,-25.879,-53.223,-228.516
1688303469.670,124.023,3.418,-40.039,0.000,-115.234
1688303469.674,104.004,0.977,-31.738,7.812,-4.395
1688303469.678,-32.227,-7.324,1.465,-14.160,-2.441
1688303469.682,-139.648,-20.020,-8.301,-45.410,-99.609
1688303469.685,-58.105,-23.926,-33.691,-46.387,-230.957
1688303469.689,103.516,-4.883,-19.531,15.137,-29.297
1688303469.693,108.887,-4.883,-22.461,41.992,323.242
1688303469.697,-46.875,-21.973,-33.691,-36.621,52.734
1688303469.701,-167.969,-42.969,-18.555,-77.637,-184.082
1688303469.703,-87.402,-37.598,-3.906,-43.457,-29.297
1688303469.707,69.336,-9.766,-21.973,-0.488,47.852
1688303469.711,103.027,-11.719,-45.898,13.184,37.109
1688303469.715,-1.953,-31.250,-31.250,9.766,75.195
1688303469.719,-137.207,-37.109,-7.324,2.930,121.094
1688303469.723,-105.957,-41.992,-28.809,-20.996,-6.836
1688303469.727,43.457,-26.855,-38.086,-6.348,-86.914
1688303469.730,117.676,7.812,-9.766,30.762,26.855
1688303469.734,27.344,-4.883,-9.277,10.742,204.590
1688303469.738,-152.344,-34.180,-31.738,-53.711,26.367
1688303469.742,-151.367,-38.086,-36.133,-70.801,-306.152
1688303469.746,33.203,-31.738,-31.250,-14.648,-165.039
1688303469.750,108.398,-25.391,-25.391,32.715,3.906
1688303469.754,21.484,-17.090,-27.832,32.227,-8.789
1688303469.758,-110.352,-14.160,-40.527,-5.371,-24.902
1688303469.762,-130.859,-15.625,-35.645,-44.922,-102.539
1688303469.766,17.090,-11.230,-31.738,-17.578,-20.508
1688303469.770,109.863,-10.254,-23.438,4.883,100.586
1688303469.774,33.691,-20.508,-19.043,-5.859,62.988
1688303469.777,-114.746,-43.457,-17.578,-23.926,3.418
1688303469.781,-139.648,-56.152,-17.578,-29.297,111.816
1688303469.785,-11.719,-22.949,-33.203,-17.090,-65.918
1688303469.789,105.469,9.277,-31.738,13.672,-84.473
1688303469.793,67.383,-10.254,-21.973,5.859,83.496
1688303469.808,-87.402,-36.133,-25.879,-35.156,-33.203
1688303469.812,-143.555,-34.180,-32.715,-65.430,-230.957
1688303469.816,-15.625,-17.090,-24.414,-43.457,-164.551
1688303469.820,108.887,-3.906,-16.602,11.230,249.512
1688303469.824,66.406,0.488,-24.902,16.602,286.133
1688303469.828,-86.426,-11.230,-21.484,-33.203,-20.996
1688303469.832,-171.387,-21.484,-20.020,-79.102,-145.020
1688303469.835,-49.316,-19.531,-31.738,-59.570,145.020
1688303469.839,93.750,-6.348,-37.598,-20.996,385.254
1688303469.843,73.242,15.625,-24.902,-19.531,54.199
1688303469.847,-93.750,19.531,-20.020,-70.801,-130.859
1688303469.851,-215.332,6.348,-18.555,-114.258,-196.289
1688303469.840,-114.258,5.859,-21.973,-93.262,-237.305
1688303469.844,32.227,21.973,-31.250,-62.500,-71.777
1688303469.848,28.320,27.832,-20.996,-51.758,22.949
1688303469.852,-110.840,5.371,-25.879,-86.426,7.324
1688303469.856,-236.816,-6.836,-29.297,-125.488,-192.871
1688303469.860,-159.668,-9.277,-16.113,-108.398,-178.711
1688303469.864,17.578,-7.812,-6.348,-52.734,151.855
1688303469.867,60.059,6.348,-5.371,-20.020,256.348
1688303469.871,-53.711,2.441,-5.859,-44.434,34.180
1688303469.875,-187.012,-19.043,-12.695,-82.031,-186.035
1688303469.879,-130.371,-25.879,-22.949,-69.824,-93.750
1688303469.883,42.969,-24.902,-26.855,-16.602,266.602
1688303469.884,93.750,-11.719,-35.645,-3.418,126.953
1688303469.888,-8.789,-11.719,-34.668,-23.926,-51.758
1688303469.892,-158.203,-38.574,-35.645,-59.082,-37.109
1688303469.896,-137.207,-46.875,-36.133,-68.848,-59.082
1688303469.900,33.691,-27.832,-36.133,-27.344,-8.301
1688303469.904,105.957,-12.207,-34.668,0.488,123.535
1688303469.908,37.109,-26.855,-23.926,7.812,351.074
1688303469.911,-110.840,-53.223,-33.691,-42.480,324.707
1688303469.915,-128.418,-54.688,-45.898,-67.871,-107.422
1688303469.919,47.363,-47.363,-40.039,-16.602,-124.023
1688303469.923,141.113,-55.176,-33.203,23.438,163.574
1688303469.927,63.965,-54.199,-22.949,23.926,7.812
1688303469.931,-99.609,-38.086,-20.996,-18.066,-229.492
1688303469.935,-147.949,-30.762,-35.156,-56.641,-222.168
1688303469.939,16.113,-20.508,-34.668,-25.391,-148.438
1688303469.943,127.441,-21.484,-30.762,28.809,-73.730
1688303469.947,75.684,-24.902,-26.367,39.062,-44.922
1688303469.951,-72.266,-55.664,-13.184,10.742,8.789
1688303469.955,-125.488,-77.637,-13.672,-12.695,41.504
1688303469.958,13.672,-40.039,-23.438,0.488,-84.473
1688303469.962,128.418,-19.531,-37.109,42.969,-77.148
1688303469.966,97.656,-31.250,-27.832,60.547,142.090
1688303469.970,-53.223,-39.062,-9.766,27.832,165.039
1688303469.974,-138.184,-43.945,-28.809,-18.066,-181.641
1688303470.003,-20.996,-43.457,-32.227,-23.438,-159.668
1688303470.007,119.141,-28.809,-22.949,29.785,104.980
1688303470.011,107.910,-37.598,-24.902,48.340,155.273
1688303470.015,-43.457,-48.828,-21.973,17.578,21.973
1688303470.019,-152.832,-42.480,-27.344,-29.785,-156.738
1688303470.023,-26.367,-42.480,-24.414,-8.301,149.414
1688303470.027,134.277,-32.715,-23.926,46.875,486.816
1688303470.030,118.652,-20.996,-34.180,33.203,160.645
1688303470.034,-17.578,-34.668,-36.621,-13.672,-101.074
1688303470.038,-138.184,-43.457,-25.879,-48.340,-180.176
1688303470.042,-56.152,-28.320,-24.902,-30.762,-254.883
1688303470.046,111.328,-17.578,-24.414,18.555,-142.090
1688303470.034,133.301,-23.438,-19.531,45.410,29.297
1688303470.038,-4.395,-41.992,-36.621,12.695,27.344
1688303470.042,-133.301,-43.457,-39.551,-21.973,-143.066
1688303470.046,-88.867,-36.133,-35.645,-21.484,-261.719
1688303470.050,76.660,-25.879,-38.574,11.719,-92.773
1688303470.054,129.883,-33.691,-41.992,38.086,151.855
1688303470.058,20.508,-39.062,-36.621,15.137,35.156
1688303470.061,-110.352,-18.555,-17.578,-5.859,-185.547
1688303470.065,-83.008,-28.809,-9.766,-8.301,-154.297
1688303470.069,58.105,-41.504,-30.762,-7.812,17.578
1688303470.073,108.398,-27.344,-43.457,0.000,19.043
1688303470.077,18.066,-21.484,-24.902,-12.207,-54.199
1688303470.079,-124.023,-23.438,-10.742,-22.461,36.133
1688303470.083,-134.277,-16.113,-26.367,-49.805,112.793
1688303470.087,17.578,1.953,-37.598,-28.809,-35.645
1688303470.091,116.699,8.301,-27.832,28.809,59.082
1688303470.095,49.316,-31.738,-18.555,25.879,241.211
1688303470.099,-111.328,-74.707,-7.812,-25.391,158.691
1688303470.103,-140.137,-43.945,-16.113,-41.504,-50.781
1688303470.106,26.367,-8.301,-26.367,-6.348,-93.750
1688303470.110,136.719,-7.324,-34.668,19.043,219.238
1688303470.114,68.848,-10.254,-41.504,24.902,303.711
1688303470.118,-104.980,-36.621,-29.785,-26.367,-104.004
1688303470.122,-157.715,-45.410,-17.578,-56.152,-278.320
1688303470.124,0.488,-38.086,-28.809,-3.906,-164.062
1688303470.128,127.441,-53.711,-20.996,33.691,-13.672
1688303470.132,81.055,-41.016,-13.184,15.137,-1.465
1688303470.136,-67.871,-12.207,-21.484,-21.973,-45.410
1688303470.140,-163.086,-18.555,-35.645,-54.688,-141.602
1688303470.144,-38.574,-25.391,-41.504,-42.969,-85.449
1688303470.148,114.258,-14.648,-25.391,16.113,69.336
1688303470.151,86.914,-19.531,-16.602,36.133,201.660
1688303470.155,-49.805,-41.016,-19.531,11.230,379.395
1688303470.159,-156.738,-42.969,-30.762,-42.480,-11.719
1688303470.163,-42.480,-16.113,-21.973,-27.344,-335.938
1688303470.167,112.305,-11.230,-25.879,3.906,-58.105
1688303470.168,86.914,-28.320,-39.551,-2.441,58.105
1688303470.172,-52.734,-37.598,-26.367,-27.832,-108.887
1688303470.176,-157.227,-42.969,-25.879,-54.688,-207.520
1688303470.180,-76.660,-35.645,-28.320,-40.527,8.789
1688303470.184,77.637,-26.855,-19.043,-2.441,92.285
1688303470.188,105.957,-22.949,-11.719,19.043,65.430
1688303470.192,-9.277,-17.090,-14.160,8.789,62.500
1688303470.195,-141.113,-23.926,-20.020,-17.090,121.094
1688303470.199,-103.027,-30.273,-37.598,-38.086,69.336
1688303470.203,62.988,-13.184,-56.152,-3.418,-51.270
1688303470.207,122.559,-20.996,-46.387,35.156,82.031
1688303470.211,3.906,-39.062,-25.391,25.391,52.734
1688303470.216,-166.992,-38.086,-26.855,-18.555,-190.430
1688303470.220,-137.207,-24.414,-30.762,-42.969,-312.012
1688303470.224,46.387,-15.137,-42.480,-20.996,-170.898
1688303470.228,116.699,-13.672,-33.691,9.277,71.777
1688303470.232,32.227,-22.949,-20.020,7.324,136.230
1688303470.236,-125.000,-30.273,-22.949,-25.879,-94.238
1688303470.240,-125.977,-25.391,-26.855,-43.945,-65.430
1688303470.243,49.316,-17.578,-20.508,3.906,300.293
1688303470.247,123.535,2.930,-15.625,22.461,143.066
1688303470.251,40.039,-6.836,-39.551,-9.277,-59.082
1688303470.255,-117.188,-37.598,-49.316,-47.363,-49.316
1688303470.259,-141.602,-38.574,-26.855,-68.848,-99.121
1688303470.259,27.344,-16.113,-16.113,-34.668,-61.523
1688303470.263,115.234,-4.883,-26.367,1.953,47.363
1688303470.267,59.570,-27.344,-36.621,5.371,178.711
1688303470.271,-78.613,-30.273,-31.250,-33.203,96.191
1688303470.275,-138.672,-18.555,-28.809,-52.246,-156.250
1688303470.279,0.000,-25.391,-29.785,-17.578,-66.406
1688303470.283,104.004,-34.668,-25.391,6.836,399.414
1688303470.286,72.754,-28.809,-26.367,8.301,579.102
1688303470.290,-75.195,-28.320,-40.527,-29.785,57.617
1688303470.294,-176.270,-37.598,-23.926,-66.406,-276.367
1688303470.298,-49.316,-20.508,-15.625,-50.781,-145.508
1688303470.302,101.562,-6.348,-25.391,-4.883,-22.949
1688303470.319,81.543,-22.949,-24.902,27.832,-8.301
1688303470.323,-72.266,-28.320,-19.043,6.348,-80.566
1688303470.327,-157.227,-27.344,-21.484,-59.082,-148.438
1688303470.331,-51.758,-34.668,-44.922,-51.270,-85.938
1688303470.335,97.168,-18.555,-36.621,9.277,-76.172
1688303470.339,108.887,-8.789,-8.301,15.625,78.613
1688303470.343,-40.039,-31.250,-9.277,-6.836,497.559
1688303470.346,-171.387,-51.270,-27.344,-59.570,144.531
1688303470.350,-77.637,-37.598,-32.227,-58.594,-215.332
1688303470.354,74.707,-20.508,-23.438,-1.953,20.508
1688303470.358,102.051,-11.719,-35.645,2.930,74.219
1688303470.362,4.883,-13.184,-33.691,-1.465,-95.703
1688303470.364,-141.602,-30.762,-12.207,-23.926,-210.449
1688303470.368,-100.586,-39.062,-18.066,-34.668,-170.410
1688303470.372,61.523,-26.855,-29.297,-6.836,-30.762
1688303470.376,108.887,-14.648,-10.254,18.555,42.480
1688303470.380,-7.324,-23.438,-3.418,8.789,-23.438
1688303470.384,-153.320,-58.105,-9.277,-20.508,173.828
1688303470.388,-113.281,-66.895,-22.949,-27.832,166.504
1688303470.391,62.500,-33.203,-25.879,1.953,-12.695
1688303470.395,117.188,-21.973,-14.160,16.113,18.555
1688303470.399,23.926,-38.574,-10.742,14.648,293.457
1688303470.403,-140.625,-54.688,-35.645,-19.531,190.918
1688303470.407,-140.137,-53.223,-42.969,-37.598,-220.703
1688303470.408,47.852,-33.203,-20.020,14.160,-120.605
1688303470.412,119.141,-29.297,-12.695,35.645,20.020
1688303470.416,36.133,-34.668,-20.020,17.578,-25.879
1688303470.420,-114.746,-35.645,-17.578,-4.395,-163.086
1688303470.424,-139.648,-45.898,-20.020,-15.137,-204.102
1688303470.428,11.719,-35.645,-35.156,-15.137,9.277
1688303470.432,103.027,-19.531,-33.203,-6.836,137.695
1688303470.435,50.781,-6.836,-14.648,9.766,20.508
1688303470.439,-98.633,-20.020,-12.695,-15.625,20.508
1688303470.443,-149.902,-49.316,-32.227,-42.969,190.918
1688303470.447,-10.742,-31.738,-39.062,-16.602,25.879
1688303470.451,110.352,-7.812,-24.902,17.578,-37.109
1688303470.453,77.148,-17.578,-14.160,19.531,89.844
1688303470.457,-75.684,-37.598,-10.254,-12.695,-23.438
1688303470.461,-153.809,-40.527,-27.832,-39.551,-214.844
1688303470.465,-18.066,-27.344,-41.016,-23.438,-136.719
1688303470.469,126.953,-23.926,-20.996,24.414,147.949
1688303470.473,84.961,-29.297,-20.508,28.809,215.332
1688303470.477,-84.961,-42.969,-36.621,-27.832,-14.648
1688303470.480,-164.062,-37.109,-25.879,-50.781,-186.523
1688303470.484,-34.180,-16.602,-22.949,-18.555,-30.762
1688303470.488,106.934,0.977,-26.367,22.949,21.484
1688303470.492,97.656,-14.648,-29.297,32.227,-24.902
1688303470.496,-42.969,-34.180,-27.344,-11.230,-26.367
1688303470.498,-158.203,-38.086,-22.461,-46.387,117.188
1688303470.502,-74.707,-38.086,-22.461,-35.156,-32.227
1688303470.506,95.215,-24.414,-25.879,10.254,-150.391
1688303470.510,113.770,-13.184,-31.250,25.391,-14.160
1688303470.514,-34.180,-18.066,-28.809,-6.348,-11.719
1688303470.518,-151.855,-29.785,-21.973,-30.762,-63.477
1688303470.522,-85.938,-34.180,-21.973,-47.363,-189.941
1688303470.525,69.336,-21.973,-28.320,-27.832,-1.465
1688303470.529,117.676,-9.277,-36.621,19.531,375.977
1688303470.533,-14.648,-13.672,-47.852,-13.184,122.070
1688303470.537,-166.992,-26.367,-38.574,-72.754,-150.391
1688303470.541,-97.656,-24.414,-23.926,-60.547,-91.797
1688303470.544,76.172,-26.367,-38.574,-35.645,-29.297
1688303470.548,117.676,-16.602,-31.738,-5.859,39.062
1688303470.552,20.508,-17.090,-24.414,-24.414,-0.977
1688303470.556,-124.512,-37.109,-20.020,-49.316,222.656
1688303470.560,-123.535,-33.203,-24.902,-39.062,154.785
1688303470.564,39.062,-30.762,-37.598,-6.348,-110.352
1688303470.568,123.535,-15.625,-24.902,30.273,-17.578
1688303470.571,33.691,-15.625,-18.555,16.602,208.984
1688303470.575,-127.441,-33.691,-30.762,-33.203,63.477
1688303470.579,-153.809,-26.855,-42.480,-44.922,-255.859
1688303470.583,7.324,-7.812,-36.621,-5.859,-103.516
1688303470.587,106.445,-9.277,-33.691,22.949,107.910
1688303470.590,38.574,-26.855,-26.855,20.020,-17.578
1688303470.594,-114.258,-39.551,-30.273,-37.598,-229.492
1688303470.598,-155.273,-40.039,-30.762,-61.035,-227.051
1688303470.602,-10.254,-29.297,-22.461,-21.973,-15.137
1688303470.606,107.422,-12.695,-30.762,22.461,45.410
1688303470.610,82.031,-2.930,-24.414,53.223,54.688
1688303470.614,-66.895,-18.555,-10.742,37.109,127.441
1688303470.617,-159.668,-46.387,-31.738,-10.254,248.047
1688303470.621,-32.227,-37.109,-50.781,-40.527,12.695
1688303470.625,119.141,-7.324,-26.855,-9.766,-82.031
1688303470.629,90.332,-6.348,-15.625,0.000,-13.672
1688303470.633,-76.660,-21.973,-18.066,-46.875,-131.348
1688303470.633,-157.715,-31.250,-14.648,-58.594,-244.629
1688303470.637,-39.062,-39.062,-26.367,-30.762,-244.629
1688303470.641,102.539,-29.785,-29.297,11.719,-10.742
1688303470.645,92.773,-1.953,-16.113,27.832,95.703
1688303470.649,-64.453,-0.488,-14.648,-23.926,-64.453
1688303470.653,-172.852,-24.902,-24.902,-59.082,-140.625
1688303470.657,-51.758,-28.320,-20.508,-10.254,242.676
1688303470.660,96.680,-21.484,-25.391,20.508,593.750
1688303470.664,95.215,-24.902,-39.551,16.113,204.102
1688303470.668,-25.391,-27.344,-30.762,1.953,-127.441
1688303470.672,-162.598,-32.715,-35.645,-48.828,-208.984
1688303470.676,-95.703,-29.785,-46.387,-40.527,-248.047
1688303470.695,80.566,-5.371,-41.504,28.320,-125.000
1688303470.699,126.465,-9.766,-27.832,46.387,-0.977
1688303470.703,15.137,-31.250,-18.555,6.836,53.223
1688303470.707,-141.113,-29.297,-23.438,-45.410,-101.074
1688303470.711,-111.816,-27.832,-24.902,-48.828,-168.457
1688303470.715,77.637,-22.461,-6.836,27.344,89.355
1688303470.719,139.648,-13.672,-5.371,60.059,281.738
1688303470.722,18.555,-33.203,-31.738,20.020,99.121
1688303470.726,-136.230,-38.574,-25.391,-31.250,-104.492
1688303470.730,-126.465,-29.785,-21.973,-51.270,-69.336
1688303470.734,35.645,-20.508,-29.785,-15.137,145.508
1688303470.738,111.816,-7.324,-35.156,13.672,7.324
1688303470.753,33.691,-21.484,-42.969,-2.441,-113.281
1688303470.757,-117.676,-39.062,-30.762,-39.551,-150.879
1688303470.761,-152.832,-38.086,-15.137,-49.805,-207.520
1688303470.765,7.812,-31.250,-16.602,-17.090,-88.867
1688303470.769,117.676,-25.391,-12.207,32.227,37.109
1688303470.773,58.594,-29.297,-15.625,16.602,176.758
1688303470.777,-103.027,-41.016,-27.832,-34.668,73.242
1688303470.780,-155.273,-45.898,-35.156,-42.969,-185.059
1688303470.784,0.977,-28.809,-34.668,-23.926,-157.227
1688303470.788,125.488,-20.508,-28.809,15.137,322.266
1688303470.792,66.406,-35.645,-35.156,9.277,567.383
1688303470.796,-105.957,-47.852,-40.527,-38.574,59.570
1688303470.783,-157.715,-51.758,-31.738,-51.270,-220.703
1688303470.787,-18.555,-46.875,-27.832,-35.645,-11.230
1688303470.791,104.004,-26.367,-31.738,-9.766,33.203
1688303470.795,81.055,-9.277,-27.832,3.906,-32.715
1688303470.799,-71.777,-20.996,-19.043,-14.648,-79.102
1688303470.803,-170.410,-41.992,-38.574,-55.664,-48.828
1688303470.807,-43.457,-22.949,-42.969,-26.855,-56.152
1688303470.810,96.680,-6.836,-32.715,12.695,-56.152
1688303470.814,71.777,-30.762,-41.992,-2.930,65.918
1688303470.818,-75.195,-63.477,-40.039,-37.109,10.742
1688303470.822,-182.129,-65.430,-36.621,-62.988,-201.172
1688303470.826,-66.406,-31.250,-40.039,-42.480,-234.375
1688303470.829,97.656,-13.672,-29.297,12.695,83.008
1688303470.833,106.445,-16.113,-26.367,24.902,478.516
1688303470.837,-28.320,-9.766,-21.973,-10.254,127.441
1688303470.841,-162.598,-31.250,-30.762,-59.082,-182.129
1688303470.845,-80.566,-34.180,-44.434,-51.270,2.930
1688303470.849,99.609,-15.137,-34.180,4.883,80.078
1688303470.853,102.539,-24.414,-18.066,7.324,-17.090
1688303470.856,-42.480,-36.621,-17.578,-18.066,-70.312
1688303470.860,-175.293,-49.805,-20.996,-55.664,35.645
1688303470.864,-135.254,-44.434,-12.695,-74.219,-15.625
1688303470.868,34.180,-24.414,-23.926,-38.574,-135.254
1688303470.872,92.285,-25.879,-20.020,7.812,-40.527
1688303470.874,-12.207,-29.297,-6.836,-4.395,-17.090
1688303470.878,-164.062,-38.086,-23.926,-53.711,-153.320
1688303470.882,-139.160,-40.039,-26.855,-63.965,-253.906
1688303470.886,31.738,-27.344,-17.578,-25.879,-82.520
1688303470.890,92.773,-20.508,-18.555,5.859,80.078
1688303470.894,8.301,-30.762,-14.160,6.836,106.445
1688303470.898,-139.160,-48.340,-23.926,-25.391,-9.277
1688303470.901,-142.578,-56.641,-48.340,-44.434,-98.633
1688303470.905,32.227,-39.551,-53.711,-6.836,262.207
1688303470.909,113.770,-34.668,-37.598,21.484,158.203
1688303470.913,35.156,-43.945,-14.160,7.324,-119.629
1688303470.917,-122.559,-32.715,-15.137,-39.551,-81.055
1688303470.918,-169.922,-28.320,-25.879,-69.336,-161.621
1688303470.922,-1.953,-9.277,-29.297,-26.855,-157.715
1688303470.926,113.281,0.488,-29.785,22.949,34.668
1688303470.930,61.523,-12.695,-11.230,13.672,293.457
1688303470.934,-93.262,-26.855,-6.348,-27.344,72.266
1688303470.938,-172.852,-43.945,-32.715,-43.945,-135.254
1688303470.942,-35.645,-32.715,-43.457,-26.367,9.277
1688303470.945,98.633,-21.973,-37.109,22.461,369.141
1688303470.949,65.430,-33.203,-37.598,23.926,468.262
1688303470.953,-84.473,-33.203,-23.926,-26.367,-5.371
1688303470.957,-168.945,-56.152,-15.625,-49.805,-249.512
1688303470.961,-37.109,-59.570,-26.367,-35.645,-158.203
1688303470.965,107.910,-11.719,-22.949,-0.488,-59.570
1688303470.969,83.496,1.465,-10.254,10.254,-38.574
1688303470.973,-46.875,-12.207,3.906,-3.906,-81.055
1688303470.977,-150.879,-30.762,-13.672,-33.691,-162.598
1688303470.981,-62.012,-33.203,-38.086,-41.992,-96.680
1688303470.985,80.078,-25.879,-38.086,-6.836,78.125
1688303470.989,85.449,-24.902,-22.949,16.113,197.754
1688303470.992,-41.016,-26.367,-20.996,-6.348,274.414
1688303470.996,-156.738,-32.715,-33.203,-40.527,-67.383
1688303471.000,-75.684,-35.645,-35.156,-35.156,-242.188
1688303471.004,97.656,-17.578,-23.438,20.508,-13.184
1688303471.008,116.699,-7.324,-20.020,38.086,61.523
1688303471.008,-18.066,-14.648,-23.926,6.348,-93.262
1688303471.012,-153.320,-32.715,-28.320,-26.855,-226.562
1688303471.016,-103.516,-41.016,-36.133,-46.875,-94.238
1688303471.020,81.543,-22.461,-18.555,-1.465,113.281
1688303471.024,125.488,-20.508,-16.113,26.367,86.426
1688303471.028,-1.953,-35.645,-23.926,-14.648,73.730
1688303471.032,-133.789,-33.203,-11.719,-45.410,247.559
1688303471.035,-119.629,-28.320,-21.484,-47.363,251.953
1688303471.039,48.340,-11.719,-39.062,-5.859,-43.457
1688303471.043,132.812,12.207,-33.691,25.879,-69.824
1688303471.047,8.301,6.836,-30.273,-3.906,15.625
1688303471.051,-154.297,-20.508,-33.203,-65.430,-90.820
1688303471.056,-144.043,-21.973,-32.227,-75.684,-241.211
1688303471.060,29.785,-9.766,-41.992,-33.203,-107.910
1688303471.064,118.164,-2.930,-47.363,-5.859,125.977
1688303471.068,40.527,7.324,-43.945,-13.184,48.340
1688303471.072,-123.047,-12.695,-35.645,-59.570,-122.070
1688303471.076,-152.832,-30.762,-26.367,-73.242,-124.023
1688303471.080,18.555,-17.090,-34.668,-28.320,70.801
1688303471.083,117.676,5.371,-47.363,2.930,41.992
1688303471.087,72.266,8.301,-37.109,0.000,-62.012
1688303471.091,-86.914,-21.484,-43.457,-37.598,-87.891
1688303471.095,-169.434,-38.086,-53.223,-71.777,-103.516
1688303471.099,-26.855,-26.855,-39.551,-41.016,-165.039
1688303471.113,114.746,-10.742,-16.113,17.578,-87.402
1688303471.117,87.891,-17.578,-9.766,33.203,117.188
1688303471.121,-74.707,-32.227,-30.273,-22.461,13.672
1688303471.125,-161.133,-27.344,-40.039,-66.406,-192.871
1688303471.129,-23.438,-10.742,-41.016,-52.246,-167.969
1688303471.133,118.164,-13.184,-30.762,-3.418,339.844
1688303471.137,96.191,-7.324,-11.719,32.227,700.195
1688303471.140,-37.598,-8.301,-14.648,3.906,126.953
1688303471.144,-139.648,-47.363,-35.156,-36.133,-238.770
1688303471.148,-43.945,-54.199,-36.621,-21.973,-139.648
1688303471.152,101.562,-20.020,-32.227,17.578,-80.566
1688303471.156,91.309,1.953,-40.527,21.484,-53.223
1688303471.158,-44.922,-16.602,-39.551,-4.395,-47.852
1688303471.162,-155.762,-36.621,-31.738,-41.504,-107.910
1688303471.166,-76.660,-43.945,-29.297,-41.992,-171.875
1688303471.170,92.285,-38.574,-19.531,3.906,-83.008
1688303471.174,136.719,-5.371,-7.812,32.227,107.910
1688303471.178,6.836,0.488,-16.602,-2.930,221.680
1688303471.182,-147.461,-27.344,-28.809,-65.430,57.129
1688303471.185,-107.422,-37.598,-29.297,-62.988,-143.066
1688303471.189,64.941,-36.133,-36.621,-1.953,-6.836
1688303471.193,118.652,-26.367,-45.898,31.738,315.430
1688303471.197,-10.742,-16.113,-25.391,-2.441,63.965
1688303471.201,-158.691,-36.621,-9.766,-51.270,-226.562
1688303471.203,-125.977,-42.480,-27.832,-63.965,-131.348
1688303471.207,40.039,-27.344,-45.898,-24.902,-56.641
1688303471.211,100.586,-22.949,-30.273,11.719,-26.367
1688303471.215,-1.953,-29.785,-13.672,7.812,26.367
1688303471.219,-133.301,-40.039,-15.137,-31.738,74.707
1688303471.223,-123.047,-35.645,-22.949,-47.363,9.277
1688303471.227,20.996,-10.742,-34.668,-20.020,-48.828
1688303471.230,104.980,-4.883,-26.367,0.977,87.891
1688303471.234,41.992,-13.184,-16.113,3.418,328.613
1688303471.238,-125.488,-21.973,-34.180,-52.246,231.445
1688303471.242,-156.250,-24.414,-36.133,-76.172,-214.844
1688303471.246,6.348,-5.859,-20.508,-28.809,-242.676
1688303471.249,95.703,4.395,-24.902,-12.695,-53.223
1688303471.253,22.461,-0.488,-33.203,-34.180,-28.809
1688303471.257,-146.973,-16.113,-30.273,-86.426,-127.930
1688303471.261,-201.660,-14.648,-24.414,-125.000,-200.684
1688303471.265,-70.801,11.719,-35.645,-100.586,-97.168
1688303471.269,34.180,53.711,-38.574,-62.500,99.609
1688303471.273,-6.836,63.965,-28.320,-76.172,103.516
1688303471.276,-158.203,26.855,-32.715,-124.512,52.734
1688303471.280,-236.816,11.719,-51.758,-155.273,201.172
1688303471.284,-118.164,15.625,-65.430,-154.785,62.988
1688303471.288,25.879,27.344,-50.781,-116.699,-47.363
1688303471.292,37.598,12.695,-32.715,-85.938,124.512
1688303471.293,-100.098,-13.672,-33.203,-107.422,62.500
1688303471.297,-201.660,-5.371,-45.410,-138.184,-224.609
1688303471.301,-77.148,20.508,-45.410,-111.816,-260.254
1688303471.305,75.684,28.320,-42.480,-56.152,101.562
1688303471.309,80.566,20.508,-49.316,-25.391,187.012
1688303471.313,-62.012,-8.789,-47.852,-36.133,38.574
1688303471.317,-163.086,-32.715,-47.852,-64.941,-90.332
1688303471.320,-53.711,-30.762,-59.082,-41.504,66.895
1688303471.324,89.355,6.836,-58.594,4.883,221.191
1688303471.328,115.234,32.227,-47.852,14.648,-28.809
1688303471.332,29.785,4.395,-32.715,13.184,-121.094
1688303471.336,-75.195,-6.836,-35.645,-1.953,-127.930
1688303471.340,-17.578,1.465,-50.781,-11.719,-208.008
1688303471.344,123.535,-20.996,-42.969,25.391,-67.871
1688303471.348,163.086,-25.391,-35.645,77.637,117.188
1688303471.352,62.500,0.977,-43.457,52.246,136.719
1688303471.356,-61.035,-10.254,-49.805,0.000,-77.148
1688303471.360,-10.254,-20.508,-56.641,33.691,-189.941
1688303471.364,130.371,-18.066,-58.594,80.078,72.266
1688303471.367,180.176,-20.996,-50.293,81.055,437.500
1688303471.371,87.891,-20.020,-38.574,61.035,142.090
1688303471.375,-47.363,-24.902,-35.156,22.461,-268.555
1688303471.379,-29.297,-20.996,-33.203,13.184,-228.516
1688303471.383,119.141,-5.371,-38.574,48.828,-105.469
1688303471.384,167.480,4.395,-47.363,89.355,-34.668
1688303471.388,100.586,-1.465,-42.969,88.379,14.648
1688303471.392,-29.785,-32.715,-29.297,42.480,89.844
1688303471.396,-59.570,-50.293,-36.133,10.254,-5.859
1688303471.400,80.078,-34.180,-47.852,50.293,-80.566
1688303471.404,172.852,-16.602,-35.645,88.867,89.844
1688303471.408,116.211,-6.836,-20.508,94.727,422.363
1688303471.411,-27.832,-16.113,-27.832,50.293,373.535
1688303471.415,-83.984,-15.625,-29.297,-11.719,-172.852
1688303471.419,37.598,-9.277,-24.902,21.973,-246.094
1688303471.423,132.324,-12.207,-26.367,73.242,-14.648
1688303471.427,101.074,-10.254,-20.508,69.824,6.348
1688303471.430,-20.508,-20.996,-18.066,21.484,-110.840
1688303471.434,-87.891,-50.293,-26.855,-17.578,-272.461
1688303471.438,8.789,-58.594,-33.691,11.230,-174.316
1688303471.442,109.375,-54.688,-27.344,55.664,26.855
1688303471.446,85.938,-46.387,-26.367,59.570,64.941
1688303471.450,-39.551,-39.062,-26.367,2.930,134.277
1688303471.454,-120.117,-49.316,-27.832,-47.852,312.988
1688303471.457,-30.273,-45.410,-42.969,-38.086,-19.043
1688303471.461,92.773,-31.738,-36.133,18.066,-184.570
1688303471.465,71.289,-27.832,-35.156,28.320,29.297
1688303471.469,-41.504,-27.344,-38.086,-22.949,-2.930
1688303471.473,-121.582,-37.598,-30.273,-72.266,-223.145
1688303471.488,-48.828,-54.199,-34.668,-55.664,-235.840
1688303471.492,76.172,-58.594,-26.855,19.043,9.766
1688303471.496,76.660,-39.062,-18.555,42.480,147.461
1688303471.500,-22.949,-46.875,-24.414,-5.371,102.051
1688303471.504,-141.113,-71.289,-33.691,-64.453,-167.480
1688303471.508,-79.102,-71.777,-18.555,-35.645,62.988
1688303471.512,56.152,-57.129,-2.441,38.086,547.852
1688303471.515,51.758,-39.551,-15.625,41.504,247.070
1688303471.519,-43.457,-45.898,-18.555,2.441,-21.973
1688303471.523,-138.672,-76.172,-11.230,-54.688,-29.785
1688303471.527,-112.305,-64.941,-20.020,-68.359,-239.258
1688303471.531,23.926,-40.527,-13.672,2.441,-228.027
1688303471.533,73.242,-40.527,-15.625,45.898,23.926
1688303471.537,1.953,-32.715,-23.438,13.184,83.984
1688303471.541,-118.652,-41.016,-19.531,-64.941,-136.230
1688303471.545,-113.281,-57.617,-15.137,-75.684,-294.922
1688303471.549,17.578,-56.152,-18.066,3.418,-136.230
1688303471.553,69.336,-53.711,-29.297,40.527,150.391
1688303471.557,10.742,-44.922,-19.043,13.672,177.734
1688303471.560,-100.098,-50.293,-11.230,-59.082,-176.270
1688303471.564,-119.141,-62.012,-16.113,-82.520,-207.031
1688303471.568,3.418,-51.270,-14.160,-3.906,394.531
1688303471.572,72.266,-60.059,-17.090,34.180,293.945
1688303471.576,27.344,-69.336,-14.648,5.371,-52.246
1688303471.578,-74.219,-124.512,-6.348,-43.457,-105.469
1688303471.582,-110.352,-136.230,-15.137,-83.008,-262.207
1688303471.586,-21.484,-27.832,-26.855,-34.668,-213.867
1688303471.590,50.781,22.461,-29.297,32.227,62.012
1688303471.594,28.320,-4.883,-26.855,29.785,350.586
1688303471.598,-71.777,-46.387,-20.996,-39.062,171.387
1688303471.602,-126.465,-61.523,-27.344,-88.867,-255.371
1688303471.605,-29.297,-52.246,-31.250,-46.387,-185.547
1688303471.609,68.848,-55.176,-20.996,24.902,257.324
1688303471.613,42.969,-46.875,-23.926,32.227,295.410
1688303471.617,-61.523,-56.152,-20.996,-26.367,-98.145
1688303471.621,-102.539,-99.121,-22.949,-71.289,-258.301
1688303471.623,-29.785,-97.656,-32.715,-34.668,-111.328
1688303471.627,35.156,-34.668,-30.762,30.273,10.742
1688303471.631,24.414,-14.160,-28.320,34.180,83.008
1688303471.635,-55.176,-47.852,-16.113,-12.207,-6.348
1688303471.639,-117.188,-76.172,-21.484,-65.430,-218.750
1688303471.643,-54.688,-62.012,-36.133,-50.293,-174.805
1688303471.647,70.801,-51.758,-38.574,15.625,62.012
1688303471.650,90.820,-50.781,-27.344,44.922,232.910
1688303471.654,-27.832,-35.156,-34.668,-9.277,323.730
1688303471.658,-133.301,-42.969,-48.828,-97.168,-143.555
1688303471.662,-90.820,-59.082,-39.062,-83.008,-370.605
1688303471.666,22.461,-36.621,-40.039,-2.930,-43.457
1688303471.669,49.805,-26.367,-45.898,22.949,155.762
1688303471.673,-17.578,-39.062,-35.156,-13.184,22.461
1688303471.677,-113.770,-60.059,-41.992,-81.543,-230.469
1688303471.681,-89.844,-90.820,-49.805,-77.148,23.926
1688303471.685,35.156,-96.680,-44.922,12.207,300.781
1688303471.689,79.590,-72.754,-51.758,46.875,179.199
1688303471.693,-7.812,-74.219,-59.570,-10.254,157.715
1688303471.696,-106.445,-65.430,-37.598,-72.266,84.961
1688303471.700,-93.262,-47.363,-32.715,-91.797,-169.434
1688303471.704,6.348,-36.621,-38.574,-29.785,-209.473
1688303471.708,65.918,-36.621,-26.855,39.551,39.062
1688303471.712,16.602,-67.871,-22.461,17.578,56.641
1688303471.716,-96.191,-85.938,-30.273,-68.848,-192.871
1688303471.720,-109.863,-73.242,-40.039,-95.703,-342.285
1688303471.724,-7.812,-54.688,-51.758,-27.832,-192.871
1688303471.728,58.105,-57.617,-48.340,44.434,73.730
1688303471.732,25.879,-61.523,-32.715,29.297,140.625
1688303471.736,-94.238,-59.082,-23.438,-68.848,-133.789
1688303471.740,-130.859,-57.617,-28.809,-113.770,-225.098
1688303471.743,-11.719,-84.473,-37.598,-24.414,274.414
1688303471.747,69.824,-66.406,-33.691,37.109,294.434
1688303471.751,21.973,-18.555,-26.367,12.695,-20.508
1688303471.755,-88.379,-30.762,-33.691,-47.363,-171.387
1688303471.759,-137.207,-56.152,-42.480,-99.609,-321.777
1688303471.758,-46.387,-54.688,-42.480,-46.875,-247.559
1688303471.762,59.082,-42.480,-41.016,41.504,29.785
1688303471.766,51.270,-48.340,-35.156,42.969,201.172
1688303471.770,-56.152,-73.242,-26.855,-28.809,54.688
1688303471.774,-136.719,-83.984,-34.180,-79.102,-271.484
1688303471.778,-52.246,-63.965,-33.691,-33.691,-199.707
1688303471.782,63.965,-49.316,-20.020,52.246,441.895
1688303471.785,62.012,-49.316,-20.996,58.594,780.273
1688303471.789,-48.340,-65.918,-33.203,-36.621,190.430
1688303471.793,-127.930,-69.336,-29.785,-104.004,-307.129
1688303471.797,-44.922,-33.203,-21.484,-60.059,-186.523
1688303471.801,65.918,-8.789,-27.344,24.902,-6.348
1688303471.820,69.824,-26.855,-30.273,50.293,61.523
1688303471.824,-21.973,-65.918,-16.113,-0.488,-22.949
1688303471.828,-126.953,-76.172,-18.066,-71.777,-249.023
1688303471.832,-86.426,-68.359,-32.715,-62.012,-296.387
1688303471.836,26.367,-49.805,-40.039,25.391,-74.707
1688303471.840,54.199,-21.484,-27.832,66.406,206.543
1688303471.844,-13.184,-37.109,-24.902,20.508,268.066
1688303471.847,-108.887,-58.105,-34.668,-62.012,-93.262
1688303471.851,-96.191,-47.852,-26.367,-73.730,-306.641
1688303471.855,18.066,-39.551,-18.555,17.090,-4.883
1688303471.859,55.664,-42.480,-29.297,54.199,304.688
1688303471.863,-6.348,-40.527,-26.367,13.672,173.828
1688303471.863,-117.676,-50.293,-28.809,-70.801,-198.242
1688303471.867,-104.980,-50.293,-24.414,-72.754,-206.055
1688303471.871,23.926,-33.691,-15.137,25.391,206.543
1688303471.875,88.867,-26.367,-22.949,71.777,297.852
1688303471.879,20.020,-41.016,-20.020,22.949,104.492
1688303471.883,-104.004,-57.617,-16.113,-62.500,-19.043
1688303471.887,-102.539,-61.035,-24.414,-81.055,-163.574
1688303471.890,6.348,-59.570,-30.762,0.977,-191.895
1688303471.894,69.824,-55.176,-23.438,64.941,28.320
1688303471.898,49.805,-61.035,-15.137,55.664,375.488
1688303471.902,-65.430,-78.613,-28.320,-33.203,299.805
1688303471.906,-132.324,-72.266,-35.156,-103.027,-265.137
1688303471.908,-27.832,-37.598,-31.250,-31.250,-131.348
1688303471.912,57.617,-17.090,-32.715,50.781,244.629
1688303471.916,22.461,-21.973,-32.227,23.926,94.238
1688303471.920,-74.707,-34.180,-22.461,-52.246,-221.680
1688303471.924,-101.074,-37.109,-22.461,-81.055,-347.168
1688303471.928,-2.930,-38.086,-33.203,-14.648,-147.949
1688303471.932,61.035,-50.781,-36.133,63.965,123.047
1688303471.935,27.344,-53.223,-36.621,46.875,135.254
1688303471.939,-65.918,-62.988,-18.066,-41.016,-41.992
1688303471.943,-111.328,-76.172,-8.789,-87.402,12.207
1688303471.947,-41.016,-54.688,-28.320,-48.340,-125.977
1688303471.951,43.457,-38.574,-36.133,33.203,-54.688
1688303471.954,41.992,-41.504,-32.715,47.363,156.250
1688303471.958,-40.039,-46.387,-23.926,-25.879,-45.898
1688303471.962,-119.629,-68.359,-34.180,-94.238,-362.793
1688303471.966,-62.988,-60.547,-50.781,-62.988,-346.680
1688303471.970,51.270,-33.691,-34.668,40.039,208.496
1688303471.974,68.359,-43.457,-16.602,65.430,479.004
1688303471.978,-26.367,-58.105,-20.996,-13.672,87.402
1688303471.981,-126.465,-63.477,-33.203,-95.215,-322.266
1688303471.985,-70.801,-58.594,-36.621,-66.406,-128.906
1688303471.989,27.832,-32.715,-33.691,23.926,127.441
1688303471.993,48.828,-14.648,-22.461,52.734,78.613
1688303471.997,-12.207,-24.902,-15.625,1.465,4.395
1688303471.998,-113.281,-41.992,-27.344,-83.496,-235.840
1688303472.002,-79.102,-32.715,-26.855,-73.730,-331.543
1688303472.006,37.109,-11.230,-22.461,36.133,-93.262
1688303472.010,58.594,-27.832,-28.320,62.500,160.156
1688303472.014,-4.395,-62.988,-29.785,-3.906,189.941
1688303472.018,-96.680,-81.055,-30.273,-77.148,-39.551
1688303472.022,-85.449,-72.266,-36.621,-80.078,-202.637
1688303472.025,26.367,-56.152,-46.875,13.672,117.676
1688303472.029,76.660,-33.203,-32.227,88.867,582.520
1688303472.033,19.043,-20.508,-18.555,28.809,280.762
1688303472.037,-98.145,-36.621,-15.137,-74.707,-229.980
1688303472.041,-100.586,-47.363,-28.320,-84.473,-332.031
1688303472.043,10.742,-27.344,-46.387,-12.207,-144.531
1688303472.047,68.359,-8.789,-40.039,57.617,42.480
1688303472.051,31.738,-34.180,-30.273,37.598,28.809
1688303472.055,-68.848,-72.754,-25.391,-40.039,85.449
1688303472.059,-102.051,-85.938,-26.367,-75.195,-78.125
1688303472.063,2.930,-50.293,-23.926,-7.812,-47.363
1688303472.067,77.148,-12.695,-29.297,71.777,244.141
1688303472.070,41.504,-12.695,-28.320,57.129,471.191
1688303472.074,-84.473,-40.527,-37.109,-46.387,300.293
1688303472.078,-119.141,-48.828,-44.434,-89.355,-328.125
1688303472.082,-11.230,-33.691,-29.785,-14.160,-286.133
1688303472.086,67.871,-25.879,-32.715,67.383,123.535
1688303472.090,72.266,-18.555,-20.020,51.758,144.531
1688303472.094,-35.156,-21.484,-1.953,-58.594,-112.793
1688303472.098,-104.004,-27.344,-14.648,-128.418,-342.773
1688303472.102,-30.273,-36.133,-25.879,-79.590,-237.793
1688303472.106,49.805,-15.625,-26.367,12.695,59.082
1688303472.110,55.176,5.859,-13.672,45.898,196.777
1688303472.114,-26.367,-20.996,-22.461,-9.277,191.406
1688303472.117,-114.746,-46.387,-34.668,-91.309,142.578
1688303472.121,-79.102,-38.086,-38.574,-87.402,-134.277
1688303472.125,20.020,-26.855,-33.203,8.301,-75.195
1688303472.129,38.086,-29.297,-21.484,46.387,252.930
1688303472.133,-60.547,-25.391,-52.246,-49.805,170.410
1688303472.133,-144.043,-8.789,-57.129,-130.859,-245.117
1688303472.137,-105.957,-40.527,-11.230,-108.398,-315.918
1688303472.141,3.418,-18.066,-0.488,-17.090,40.039
1688303472.145,39.551,24.902,-32.715,21.484,210.449
1688303472.149,-90.332,-12.207,-19.531,-97.168,43.945
1688303472.153,-212.402,-37.109,10.742,-196.289,-172.852
1688303472.157,-145.508,-41.016,3.418,-126.953,79.590
1688303472.160,-9.766,-33.691,-17.578,-10.254,476.074
1688303472.164,-32.227,1.953,-31.738,-7.812,224.609
1688303472.168,-129.883,-8.789,-20.508,-84.961,-41.992
1688303472.172,-214.844,-48.340,25.391,-143.555,-197.754
1688303472.176,-200.195,-20.508,51.270,-158.203,-333.984
1688303472.181,-105.469,-2.930,19.531,-112.305,-136.719
1688303472.185,-45.898,-21.484,-8.789,-33.203,139.648
1688303472.189,-111.328,-13.672,36.621,-66.895,173.340
1688303472.193,-221.680,-31.738,123.047,-142.578,-179.688
1688303472.197,-196.777,-46.387,7.812,-123.535,-418.457
1688303472.201,-74.219,-23.438,-38.086,-107.422,-86.914
1688303472.205,-9.766,-27.344,26.855,-62.012,288.574
1688303472.208,-64.941,-11.230,-22.949,-68.848,129.883
1688303472.212,-197.754,-110.840,44.434,-188.477,-237.305
1688303472.216,-209.961,-143.066,94.727,-185.547,-287.109
1688303472.220,-42.969,-24.902,30.273,-50.781,81.055
1688303472.224,-14.160,16.113,-7.812,-15.625,142.578
1688303472.239,-49.805,-30.273,-7.812,4.883,42.969
1688303472.243,-85.938,-83.984,-4.395,-33.691,-88.379
1688303472.247,-105.957,-103.027,-21.484,-109.375,-250.488
1688303472.251,-35.156,-106.445,-18.555,-54.199,-111.816
1688303472.255,42.480,-79.590,8.789,39.062,105.957
1688303472.259,42.480,-62.988,0.000,66.406,403.809
1688303472.263,-70.801,-90.820,14.160,-4.883,527.832
1688303472.266,-120.605,-107.910,16.113,-45.898,-7.812
1688303472.270,-14.160,-74.219,-37.109,37.598,-227.051
1688303472.274,83.008,-26.367,-47.852,128.906,-2.441
1688303472.278,27.344,-42.969,-2.441,88.867,34.180
1688303472.282,-86.426,-67.871,-21.484,6.348,-172.852
1688303472.283,-134.766,-55.664,-25.879,-20.508,-344.238
1688303472.287,-75.684,-75.684,-37.598,-17.090,-219.238
1688303472.291,74.219,-94.238,-66.406,77.148,3.418
1688303472.295,63.477,-103.027,-72.754,97.656,81.055
1688303472.299,-94.727,-73.242,-58.594,-3.906,-36.621
1688303472.303,-162.598,-40.039,-66.895,-60.547,-129.395
1688303472.307,-97.168,-24.414,-26.855,-35.156,-64.941
1688303472.310,13.184,-17.090,-38.086,26.367,86.426
1688303472.314,57.617,-36.621,-73.730,84.473,184.570
1688303472.318,-35.645,-44.434,-2.930,61.035,363.770
1688303472.322,-166.504,-49.805,6.348,-47.363,-37.598
1688303472.326,-142.090,-11.719,-34.668,-59.082,-293.457
1688303472.328,-14.648,26.855,-46.387,36.621,-20.996
1688303472.332,21.484,27.344,-59.570,72.266,92.285
1688303472.336,-54.688,10.742,-52.734,45.898,-1.953
1688303472.340,-150.879,-13.672,-41.992,-2.441,-151.367
1688303472.344,-124.512,-33.691,-41.504,-14.160,-49.316
1688303472.348,2.441,-30.762,-36.621,53.711,178.711
1688303472.352,55.176,-15.137,-33.691,87.402,181.641
1688303472.355,-16.113,-32.227,-49.316,24.414,24.902
1688303472.359,-122.559,-51.270,-38.574,-26.855,145.996
1688303472.363,-125.977,-13.184,-39.062,-45.410,143.066
1688303472.367,-39.551,17.090,-32.227,-25.391,-138.672
1688303472.371,22.949,12.207,-33.691,29.297,-50.781
1688303472.374,-5.859,-18.066,-22.461,38.574,25.391
1688303472.378,-137.695,-27.832,-4.395,-37.109,-175.781
1688303472.382,-142.578,0.488,-11.719,-48.340,-289.062
1688303472.386,-0.977,10.742,-13.184,33.691,-116.211
1688303472.390,51.758,-1.465,-12.695,48.340,125.977
1688303472.394,20.508,-20.020,-20.508,25.879,231.934
1688303472.398,-78.613,-25.391,-25.391,-17.578,39.062
1688303472.401,-124.023,-35.156,-18.066,-57.129,-102.539
1688303472.405,-1.953,-56.152,-9.766,-14.648,208.496
1688303472.409,89.355,-27.832,-26.367,20.508,126.465
1688303472.413,56.152,5.371,-17.090,29.785,-26.855
1688303472.417,-73.730,-9.277,1.953,3.906,-24.902
1688303472.418,-138.184,-18.066,-23.926,-57.617,-197.754
1688303472.422,-31.738,-11.719,-52.734,-44.434,-250.000
1688303472.426,67.383,4.395,-31.738,13.184,-22.949
1688303472.430,42.969,-18.555,-15.137,6.348,266.113
1688303472.434,-73.242,-44.922,-50.781,-20.996,112.793
1688303472.438,-134.766,-48.828,-38.086,-50.781,-281.250
1688303472.442,-50.293,-37.598,6.836,-42.969,-203.613
1688303472.445,40.039,-19.043,-4.883,6.836,214.355
1688303472.449,38.574,-7.324,-22.461,22.461,309.570
1688303472.453,-69.824,-11.719,-37.109,-33.203,-66.895
1688303472.457,-152.832,-40.527,-53.223,-83.496,-259.277
1688303472.461,-58.594,-41.504,-34.180,-48.828,-257.812
1688303472.467,66.895,-26.367,-19.043,10.254,-88.867
1688303472.471,71.289,-13.672,-23.926,25.879,120.605
1688303472.475,-28.809,-14.160,-24.414,-0.977,41.016
1688303472.479,-127.441,-26.367,-32.715,-45.898,-74.707
1688303472.483,-74.219,-20.996,-55.176,-36.133,-178.223
1688303472.487,68.359,8.301,-24.414,30.762,-104.492
1688303472.491,108.398,1.465,8.789,43.457,203.613
1688303472.494,24.902,-32.715,10.742,7.324,391.602
1688303472.498,-120.605,-33.691,-15.625,-80.566,-63.965
1688303472.502,-109.863,-28.320,-48.828,-110.840,-285.645
1688303472.506,53.223,-12.207,-55.664,-36.133,-45.410
1688303472.510,120.117,-6.836,-54.688,18.555,75.195
1688303472.508,40.527,-29.297,-35.156,-2.441,-9.277
1688303472.512,-86.914,-54.688,-14.648,-62.988,-145.508
1688303472.516,-65.918,-54.199,-29.297,-62.988,-130.859
1688303472.520,79.102,-34.180,-33.691,13.184,-18.555
1688303472.524,138.184,-0.977,-23.438,73.730,130.371
1688303472.528,80.566,29.297,-11.230,50.781,118.652
1688303472.532,-64.941,9.277,-10.742,-28.320,140.137
1688303472.535,-88.379,-19.531,-11.230,-43.457,258.789
1688303472.539,28.320,-22.461,-20.020,-7.324,33.203
1688303472.543,106.934,-7.324,-26.855,33.691,-29.297
1688303472.547,75.195,-0.977,-41.016,27.832,59.082
1688303472.551,-55.664,-18.555,-38.574,-24.414,-131.836
1688303472.555,-85.938,-27.344,-11.230,-51.270,-282.715
1688303472.559,46.875,-29.785,-21.973,-20.508,-175.293
1688303472.563,144.043,-16.602,-36.621,35.156,51.758
1688303472.567,106.445,-12.695,-17.578,35.156,131.836
1688303472.571,-30.762,-23.438,-9.277,-23.926,-11.230
1688303472.575,-83.496,-18.555,-7.324,-41.504,-77.637
1688303472.579,27.344,10.254,-17.578,2.930,26.367
1688303472.582,145.508,32.227,-28.809,54.199,57.617
1688303472.586,119.629,0.000,-23.926,44.922,74.707
1688303472.590,-34.180,-39.062,-26.367,-20.020,125.977
1688303472.594,-113.770,-29.785,-31.738,-56.641,152.344
1688303472.598,-25.879,-6.836,-39.062,-44.922,-137.695
1688303472.613,104.492,6.348,-22.461,5.371,-104.492
1688303472.617,109.863,5.371,-5.859,26.855,79.590
1688303472.621,-13.672,-18.066,-6.348,-5.371,-8.301
1688303472.625,-118.652,-43.945,-25.391,-40.039,-128.906
1688303472.629,-35.156,-41.992,-25.391,-14.648,-170.898
1688303472.633,109.863,-20.508,-10.742,57.617,233.398
1688303472.637,112.305,-6.836,-8.789,73.242,499.512
1688303472.640,-11.719,-25.391,-20.996,-4.883,38.574
1688303472.644,-121.582,-46.387,-32.715,-66.406,-211.426
1688303472.648,-56.152,-23.926,-37.598,-44.434,-19.531
1688303472.652,85.449,1.465,-47.363,8.301,83.008
1688303472.656,123.047,16.113,-34.668,35.156,38.086
1688303472.647,14.648,11.719,-18.555,-4.395,-49.316
1688303472.651,-128.418,-20.508,-20.508,-71.777,-182.617
1688303472.655,-79.590,-41.504,-21.973,-80.566,-256.348
1688303472.659,68.359,-23.926,-37.598,-38.574,-155.273
1688303472.663,109.375,-2.930,-32.227,1.953,66.406
1688303472.667,35.645,-0.977,-5.859,0.000,147.949
1688303472.671,-99.121,-31.738,-28.809,-51.270,-45.898
1688303472.674,-97.656,-34.180,-57.129,-68.848,-290.039
1688303472.678,50.781,-3.906,-33.691,-12.207,-92.285
1688303472.682,119.629,-12.207,-13.672,25.391,379.883
1688303472.686,50.293,-11.719,-14.160,0.977,184.082
1688303472.690,-89.355,-7.324,-14.160,-41.016,-99.121
1688303472.703,-107.422,-20.508,-18.555,-43.457,-59.082
1688303472.707,36.133,-9.766,-22.461,-10.742,1.953
1688303472.711,122.070,0.977,-22.461,24.414,84.961
1688303472.715,67.383,-6.836,-27.832,30.273,91.797
1688303472.719,-65.430,-26.855,-37.598,-5.859,90.332
1688303472.723,-92.285,-49.805,-39.551,-33.203,211.914
1688303472.727,39.551,-13.184,-29.297,1.953,34.180
1688303472.730,119.141,21.484,-19.531,50.293,-72.266
1688303472.734,62.988,5.371,-27.832,56.641,174.316
1688303472.738,-67.871,-19.531,-37.598,-3.418,44.434
1688303472.742,-131.836,-34.180,-27.832,-62.988,-318.848
1688303472.746,-10.742,-25.391,-28.320,-32.227,-253.906
1688303472.765,119.141,-5.371,-30.273,5.859,-20.508
1688303472.769,95.215,9.277,-32.227,13.184,57.129
1688303472.773,-44.434,-13.672,-34.180,-26.855,-108.887
1688303472.777,-125.000,-34.668,-34.668,-68.359,-241.211
1688303472.781,-24.414,-27.344,-25.879,-44.922,-114.746
1688303472.785,105.469,-17.090,-21.484,19.043,29.785
1688303472.789,108.398,5.859,-20.996,51.270,78.125
1688303472.792,-19.531,-4.395,-19.043,-2.441,41.016
1688303472.796,-124.023,-30.762,-27.344,-60.547,120.605
1688303472.800,-60.547,-19.043,-44.922,-68.359,-55.176
1688303472.804,73.730,0.000,-46.875,-14.648,-72.754
1688303472.808,106.445,-2.441,-22.949,36.133,121.094
1688303472.793,-7.324,-19.531,-22.461,2.441,12.695
1688303472.797,-129.883,-20.020,-48.340,-60.059,-204.590
1688303472.801,-57.129,-13.672,-40.527,-58.105,-176.758
1688303472.805,84.473,-17.578,-36.133,-0.977,212.402
1688303472.809,103.027,-13.672,-23.926,22.949,281.250
1688303472.813,-12.207,-11.719,-11.230,-19.043,46.387
1688303472.817,-139.648,-19.531,-18.555,-67.871,-82.031
1688303472.820,-87.402,-21.484,-29.297,-49.316,-56.641
1688303472.824,59.082,-10.254,-39.551,0.000,-22.949
1688303472.828,93.262,-0.977,-47.852,11.719,9.766
1688303472.832,-5.859,-11.230,-45.898,-17.090,-28.320
1688303472.836,-133.789,-32.227,-32.715,-47.852,125.000
1688303472.840,-100.586,-27.832,-20.996,-52.734,204.102
1688303472.844,50.293,0.000,-20.996,-21.973,-18.555
1688303472.848,102.051,-1.953,-27.344,17.090,29.297
1688303472.852,31.250,-16.602,-20.996,22.461,36.133
1688303472.856,-95.703,-33.691,-16.602,-26.367,-145.020
1688303472.860,-95.215,-47.363,-34.668,-61.035,-166.016
1688303472.864,43.457,-27.832,-38.574,-17.090,44.434
1688303472.867,119.629,-20.020,-25.879,31.738,535.156
1688303472.871,47.852,-20.996,-15.137,14.160,349.121
1688303472.875,-92.285,-15.137,-20.020,-36.621,-164.062
1688303472.879,-122.559,-8.789,-36.621,-54.199,-257.324
1688303472.883,10.742,2.930,-40.527,-39.551,-170.410
1688303472.883,111.328,4.395,-25.879,-7.324,-96.191
1688303472.887,84.473,-9.766,-2.441,13.672,-65.430
1688303472.891,-40.527,-16.113,-2.441,-11.230,-99.121
1688303472.895,-113.281,-23.926,-20.020,-54.199,-231.445
1688303472.899,-6.836,-29.785,-32.715,-41.504,-155.762
1688303472.903,112.793,-11.230,-32.227,15.137,96.191
1688303472.907,87.402,-11.719,-25.391,22.461,388.672
1688303472.910,-61.523,-46.387,-25.879,-23.438,429.199
1688303472.914,-142.090,-64.941,-27.344,-72.266,-55.176
1688303472.918,-20.508,-40.039,-32.227,-51.758,-108.887
1688303472.922,101.562,-2.930,-42.480,1.953,151.367
1688303472.926,70.312,4.395,-39.551,10.254,25.391
1688303472.931,-47.852,-15.625,-30.762,-24.902,-141.602
1688303472.935,-127.930,-28.809,-34.668,-52.734,-233.398
1688303472.939,-38.086,-38.574,-27.832,-20.020,-207.031
1688303472.943,97.656,-42.969,-29.785,30.273,-6.836
1688303472.947,96.680,-20.508,-29.785,37.598,32.715
1688303472.951,-30.273,-18.555,-24.414,-1.953,71.777
1688303472.955,-130.371,-32.715,-29.297,-49.805,61.035
1688303472.958,-63.477,2.441,-40.039,-51.758,-163.574
1688303472.962,73.242,11.230,-43.457,-25.879,-143.555
1688303472.966,95.215,-35.645,-31.250,0.000,35.156
1688303472.970,-5.859,-35.645,-24.902,-3.906,143.555
1688303472.974,-127.441,-14.648,-16.113,-41.016,-42.969
1688303472.975,-87.402,-25.879,-17.578,-60.059,-207.031
1688303472.979,73.730,-21.484,-24.902,-12.695,-27.344
1688303472.983,110.352,-11.719,-34.180,9.277,149.414
1688303472.987,-4.395,-18.066,-35.645,-21.484,159.180
1688303472.991,-118.164,-21.484,-16.602,-50.293,-85.938
1688303472.995,-69.336,-49.316,-12.207,-43.945,71.289
1688303472.999,64.453,-64.453,-39.062,-4.395,545.410
1688303473.002,95.703,-11.719,-56.641,22.949,288.086
1688303473.006,11.230,13.184,-36.133,-0.977,-44.922
1688303473.010,-131.836,-20.996,-21.484,-74.219,-157.227
1688303473.014,-140.137,-36.621,-33.203,-99.609,-250.488
1688303473.018,13.184,-27.344,-43.457,-42.969,-177.734
1688303473.036,97.656,-43.457,-37.598,16.113,-71.289
1688303473.040,35.645,-58.594,-23.926,6.836,8.301
1688303473.044,-101.562,-50.293,-16.113,-40.039,-91.309
1688303473.048,-146.973,-35.645,-36.621,-72.266,-288.086
1688303473.052,-13.184,-15.625,-60.547,-44.434,-137.695
1688303473.056,105.469,-21.484,-49.316,16.113,277.344
1688303473.060,53.223,-18.555,-15.625,14.648,165.039
1688303473.063,-104.004,-7.324,-13.184,-42.480,-153.809
1688303473.067,-150.879,-17.578,-22.461,-62.988,-162.598
1688303473.071,-18.066,-26.367,-34.668,-31.250,62.012
1688303473.075,88.867,-13.672,-38.574,-2.441,68.359
1688303473.079,54.688,-33.691,-13.184,0.000,-6.836
1688303473.078,-64.941,-56.152,-6.836,-17.578,-38.574
1688303473.082,-130.371,-50.293,-27.832,-46.387,-160.645
1688303473.086,-38.574,-37.109,-54.688,-36.133,-199.707
1688303473.090,78.125,-13.184,-44.922,7.324,43.945
1688303473.094,90.332,-22.949,-20.020,24.414,314.941
1688303473.098,-40.039,-39.551,-13.672,-8.789,192.871
1688303473.102,-154.297,-20.996,-38.086,-62.988,-108.398
1688303473.105,-55.176,-3.418,-54.688,-43.945,-226.074
1688303473.109,90.332,-1.465,-40.527,20.508,106.445
1688303473.113,92.285,-7.324,-30.762,35.156,465.332
1688303473.117,-36.133,-28.320,-29.297,-12.207,104.492
1688303473.121,-140.625,-39.062,-23.926,-55.176,-264.648
1688303473.125,-46.875,-29.297,-15.137,-47.363,-173.828
1688303473.129,89.355,-16.113,-24.902,-10.254,-63.477
1688303473.133,88.867,-5.371,-33.203,1.953,-34.668
1688303473.137,-23.926,-16.602,-25.391,-17.578,-104.492
1688303473.141,-129.883,-20.996,-21.973,-42.480,-179.688
1688303473.145,-61.035,-20.508,-31.250,-29.297,-83.008
1688303473.149,85.938,-22.949,-41.992,18.066,-21.973
1688303473.152,118.164,-5.859,-43.945,49.805,120.605
1688303473.156,7.812,-19.043,-34.180,33.203,428.711
1688303473.160,-142.090,-35.645,-31.250,-34.180,85.938
1688303473.164,-114.746,-29.297,-24.414,-55.176,-229.004
1688303473.168,40.039,-15.625,-21.973,-10.742,-36.133
1688303473.169,84.961,-8.301,-25.391,16.113,57.129
1688303473.173,-0.488,-13.184,-23.926,-0.488,-30.273
1688303473.177,-103.516,-25.391,-19.043,-29.297,-123.535
1688303473.181,-86.914,-47.363,-20.508,-40.527,-19.531
1688303473.185,44.434,-39.551,-33.203,-2.930,-20.508
1688303473.189,113.281,-17.578,-40.039,33.691,80.078
1688303473.193,38.574,-25.391,-28.809,15.137,132.812
1688303473.196,-89.844,-47.852,-3.906,6.836,166.992
1688303473.200,-124.023,-46.875,-12.695,-14.648,271.973
1688303473.204,-15.137,-22.461,-45.410,-19.531,62.988
1688303473.208,88.867,-7.324,-41.016,16.602,20.020
1688303473.212,48.340,-9.766,-27.832,5.371,166.016
1688303473.215,-107.422,-29.785,-28.809,-45.410,-61.035
1688303473.219,-155.273,-40.039,-21.973,-69.336,-309.570
1688303473.223,-0.488,-23.926,-13.672,-21.484,-181.152
1688303473.227,122.559,-26.367,-19.531,40.527,-15.137
1688303473.231,65.430,-27.832,-34.180,23.438,-27.344
1688303473.235,-80.566,-16.113,-28.320,-36.133,-63.965
1688303473.239,-134.277,-26.855,-24.414,-68.359,-69.824
1688303473.242,-9.766,-27.344,-16.602,-27.832,163.574
1688303473.246,94.727,-16.602,-25.879,13.184,97.168
1688303473.250,70.801,-23.926,-30.762,20.996,-51.758
1688303473.254,-26.367,-17.090,-9.766,-3.418,-80.566
1688303473.258,-117.676,-32.715,-18.555,-60.547,-192.871
1688303473.274,-28.809,-50.293,-31.250,-38.574,-131.348
1688303473.278,112.793,-9.277,-39.062,21.973,-21.973
1688303473.282,93.750,8.301,-22.949,25.879,185.059
1688303473.286,-47.363,-13.672,0.488,-10.254,206.543
1688303473.290,-160.156,-37.598,-8.789,-62.988,-99.121
1688303473.294,-82.520,-32.227,-23.926,-56.152,-132.812
1688303473.298,58.594,-32.227,-41.016,-4.395,326.660
1688303473.301,76.172,-50.293,-43.945,1.465,554.199
1688303473.305,-39.062,-32.715,-35.156,-31.738,68.359
1688303473.309,-144.043,-16.113,-28.809,-56.152,-216.309
1688303473.313,-75.684,-30.762,-24.902,-39.062,-165.527
1688303473.317,66.406,-31.250,-33.691,0.977,-35.156
1688303473.306,91.309,-28.809,-32.227,9.766,-7.324
1688303473.310,-3.418,-38.574,-17.090,-3.906,-32.715
1688303473.314,-116.699,-40.527,-16.113,-29.297,-28.320
1688303473.318,-103.027,-31.738,-31.250,-62.012,-206.543
1688303473.322,36.133,-17.578,-38.574,-34.180,-195.312
1688303473.326,92.773,-23.438,-34.180,13.184,99.121
1688303473.330,-3.418,-46.387,-48.828,-6.348,144.531
1688303473.333,-135.254,-56.641,-43.945,-55.664,-155.762
1688303473.337,-113.770,-56.152,-25.879,-56.641,-320.801
1688303473.341,42.969,-33.203,-20.996,2.930,-115.234
1688303473.345,104.004,-15.137,-16.602,50.781,370.605
1688303473.349,26.855,-17.090,-16.602,24.414,226.074
1688303473.364,-114.258,-17.090,-21.484,-33.203,-148.926
1688303473.368,-135.742,-19.043,-14.160,-51.270,-136.719
1688303473.372,9.277,-17.578,-18.066,-18.555,-73.242
1688303473.376,96.191,-29.785,-28.320,19.531,46.387
1688303473.380,33.203,-38.574,-41.992,0.000,77.148
1688303473.384,-85.449,-38.086,-48.828,-42.480,179.199
1688303473.388,-117.676,-52.734,-39.551,-48.340,437.012
1688303473.391,-15.137,-49.316,-31.738,-27.832,115.723
1688303473.395,83.496,-22.461,-18.555,17.578,-46.387
1688303473.399,58.105,-2.930,-2.441,21.973,130.371
1688303473.403,-85.449,-10.254,-18.066,-34.668,-115.723
1688303473.407,-140.137,-23.438,-35.156,-55.664,-325.195
1688303473.409,-4.395,-22.461,-34.180,-8.301,-209.473
1688303473.413,112.305,-14.648,-25.391,41.016,5.371
1688303473.417,59.570,-20.508,-20.996,31.738,0.977
1688303473.421,-76.172,-26.855,-29.785,-12.695,-151.367
1688303473.425,-144.531,-39.551,-36.133,-48.828,-235.840
1688303473.429,-46.387,-46.387,-27.344,-41.504,-73.730
1688303473.433,98.633,-21.973,-8.789,6.348,109.863
1688303473.436,101.074,-8.301,-13.672,16.602,61.035
1688303473.440,-38.086,-30.273,-21.484,-16.113,2.930
1688303473.444,-138.672,-40.039,-17.090,-37.109,165.039
1688303473.448,-75.195,-27.344,-35.645,-27.832,-8.301
1688303473.452,78.613,-3.906,-31.738,18.066,-135.742
1688303473.454,107.422,-15.625,-38.574,14.648,19.043
1688303473.458,-18.555,-52.734,-40.039,-20.508,-29.785
1688303473.462,-145.508,-48.828,-27.832,-71.777,-192.383
1688303473.466,-91.797,-24.414,-21.973,-73.730,-176.758
1688303473.470,56.641,-16.602,-26.855,-14.160,124.023
1688303473.474,104.004,-3.418,-22.949,17.578,294.434
1688303473.478,13.184,-20.508,5.371,18.066,25.879
1688303473.481,-128.906,-41.016,-9.277,-34.180,-214.844
1688303473.485,-99.609,-28.320,-62.012,-61.523,-3.906
1688303473.489,48.828,-25.391,-64.941,-16.113,211.914
1688303473.493,89.355,-12.207,-20.020,11.230,109.375
1688303473.497,-5.371,-21.973,-8.301,-10.742,-17.090
1688303473.498,-124.512,-54.688,-11.719,-36.621,-55.176
1688303473.502,-71.777,-16.602,2.441,-4.883,-234.863
1688303473.506,66.895,10.254,-13.184,32.715,-237.793
1688303473.510,87.402,-8.789,-38.086,31.250,-21.973
1688303473.514,9.766,-38.574,-49.805,12.695,-0.488
1688303473.518,-104.980,-65.430,-65.430,-30.273,-13.672
1688303473.522,-104.492,-51.270,-20.020,-42.480,-8.789
1688303473.525,38.574,-21.484,10.742,-8.789,48.340
1688303473.529,110.352,-18.066,-29.785,17.090,248.047
1688303473.533,43.945,-3.418,-24.414,-9.766,111.328
1688303473.537,-119.629,-24.414,-2.930,-79.102,-142.578
1688303473.541,-167.969,-46.387,-11.719,-106.445,-145.508
1688303473.559,-26.367,-27.344,-26.367,-56.641,-1.465
1688303473.563,58.105,-13.672,-26.855,-19.531,-2.930
1688303473.567,10.254,-25.391,-26.855,-31.250,-60.547
1688303473.571,-107.422,-43.945,-35.645,-61.523,136.719
1688303473.575,-159.668,-50.293,-23.926,-88.379,168.945
1688303473.579,-46.387,-34.668,-14.160,-71.777,-84.961
1688303473.583,59.082,-19.043,-27.832,-29.297,20.508
1688303473.586,27.344,-12.695,-40.039,-9.277,350.098
1688303473.590,-103.027,-22.949,-37.598,-29.297,246.094
1688303473.594,-156.738,-23.926,-39.551,-61.035,-172.852
1688303473.598,-35.156,-16.602,-29.785,-48.340,-178.711
1688303473.602,88.867,-5.859,-22.461,11.719,13.672
1688303473.605,77.148,-0.977,-36.133,33.691,55.176
1688303473.609,-50.293,-32.715,-41.992,-5.859,-53.223
1688303473.613,-145.020,-60.547,-16.113,-57.617,-164.062
1688303473.617,-44.922,-33.691,-6.348,-50.293,-62.012
1688303473.621,83.984,6.836,-24.902,9.766,37.109
1688303473.625,83.008,4.395,-24.414,31.738,38.086
1688303473.629,-34.668,-14.160,-6.836,4.395,37.598
1688303473.632,-136.230,-47.852,-16.602,-38.086,41.016
1688303473.636,-54.199,-57.617,-18.555,-41.504,-115.234
1688303473.640,93.262,-43.457,-24.902,11.230,-91.309
1688303473.644,127.441,-22.461,-43.457,51.758,138.672
1688303473.648,17.090,-0.977,-20.020,23.926,334.961
1688303473.648,-125.977,-1.953,-12.695,-41.992,4.395
1688303473.652,-85.449,-13.672,-21.484,-50.781,-257.812
1688303473.656,68.359,-10.742,-8.789,-2.930,-0.977
1688303473.660,104.980,-17.090,-10.742,23.926,165.527
1688303473.664,8.301,-35.645,-18.555,11.719,24.414
1688303473.668,-116.699,-60.059,-22.461,-26.855,-114.746
1688303473.672,-76.172,-66.895,-41.992,-21.973,134.766
1688303473.675,59.570,-43.457,-42.480,11.719,224.121
1688303473.679,98.145,-8.301,-16.602,20.996,26.855
1688303473.683,30.762,12.207,-2.441,7.812,-41.992
1688303473.687,-99.121,-24.414,-14.648,-17.090,103.516
1688303473.691,-104.492,-39.062,-26.855,-17.090,179.688
1688303473.680,33.203,-31.250,-46.387,-12.207,-56.152
1688303473.684,105.469,-32.715,-45.410,7.324,-43.945
1688303473.688,31.250,-18.066,-31.738,8.301,6.348
1688303473.692,-103.516,-24.414,-21.973,-36.621,-168.945
1688303473.696,-124.512,-45.410,-22.949,-58.594,-204.590
1688303473.700,20.020,-36.621,-23.926,-13.184,13.672
1688303473.704,113.281,-14.648,-18.555,24.902,144.043
1688303473.707,52.246,-20.996,-32.227,18.555,59.570
1688303473.711,-83.984,-22.461,-41.992,-12.207,-140.625
1688303473.715,-120.117,-21.484,-30.762,-42.480,-181.152
1688303473.719,18.555,-22.949,-17.090,-11.230,190.918
1688303473.723,109.375,-14.648,-28.809,14.160,170.410
1688303473.753,49.805,-19.531,-41.504,-9.277,-34.180
1688303473.757,-83.496,-32.227,-36.133,-43.945,-105.469
1688303473.761,-135.254,-44.434,-29.785,-62.500,-179.688
1688303473.765,-21.484,-31.250,-26.367,-34.668,-90.332
1688303473.769,89.844,-21.973,-23.438,-1.465,-62.500
1688303473.773,82.031,-35.156,-20.996,20.996,270.020
1688303473.777,-43.457,-41.504,-17.578,6.836,445.801
1688303473.780,-149.902,-37.598,-31.250,-46.875,-89.844
1688303473.784,-53.223,-24.902,-30.273,-30.762,-260.254
1688303473.788,84.473,-8.789,-15.625,23.438,-9.766
1688303473.792,81.055,-8.789,-14.160,17.578,91.309
1688303473.796,-41.504,-30.762,-23.926,-26.367,-87.891
1688303473.783,-144.043,-41.992,-22.461,-52.246,-164.551
1688303473.787,-66.406,-24.902,-22.461,-38.574,-21.973
1688303473.791,70.312,1.465,-32.227,-5.371,-37.598
1688303473.795,95.703,-4.395,-14.648,29.297,-44.434
1688303473.799,-15.137,-44.434,-12.207,11.719,-64.453
1688303473.803,-148.926,-62.988,-21.973,-51.270,-106.934
1688303473.807,-88.867,-40.039,-24.414,-44.922,-54.199
1688303473.810,58.105,-22.461,-46.387,1.465,10.254
1688303473.814,85.449,-17.090,-43.457,11.719,128.418
1688303473.818,-4.883,-12.207,-23.438,-7.812,98.633
1688303473.822,-128.906,-23.438,-31.250,-48.828,-141.113
1688303473.826,-104.004,-26.855,-31.250,-64.941,-261.719
1688303473.829,46.875,-20.508,-19.043,-17.578,23.438
1688303473.833,108.398,-32.227,-8.301,41.992,465.332
1688303473.837,8.301,-36.133,-10.742,32.227,197.754
1688303473.841,-129.395,-27.832,-19.043,-20.020,-63.965
1688303473.845,-111.328,-15.137,-15.625,-40.527,-2.441
1688303473.849,33.203,-7.812,-25.879,-4.883,82.520
1688303473.853,97.168,-6.348,-46.387,10.254,97.656
1688303473.856,35.156,1.465,-40.527,-6.348,-1.465
1688303473.860,-83.008,-12.207,-18.066,-17.090,58.105
1688303473.864,-108.398,-28.320,-18.066,-25.879,8.789
1688303473.868,11.719,-19.531,-22.461,-8.789,-134.766
1688303473.872,78.613,-29.297,-20.020,10.254,-13.184
1688303473.874,9.766,-41.992,-20.996,-5.371,39.551
1688303473.878,-125.000,-51.270,-31.250,-56.152,-151.367
1688303473.882,-151.367,-55.176,-13.672,-72.266,-280.762
1688303473.886,-30.273,-57.129,-3.418,-43.457,-81.543
1688303473.890,64.453,-48.828,-18.555,-7.812,99.121
1688303473.894,31.738,-30.273,-21.973,10.254,156.738
1688303473.898,-108.398,-47.363,-19.531,-21.973,38.574
1688303473.901,-164.551,-82.031,-10.254,-55.664,-109.375
1688303473.905,-34.668,-68.848,-2.441,-15.625,164.551
1688303473.909,81.543,-23.438,-3.906,32.227,159.180
1688303473.913,51.270,-26.367,-4.883,21.484,-46.875
1688303473.917,-82.031,-65.430,-23.438,-26.367,-31.738
1688303473.918,-162.109,-65.918,-29.785,-54.688,-139.648
1688303473.922,-74.219,-39.551,-22.461,-51.270,-248.047
1688303473.926,48.340,-36.621,-35.156,-13.672,-116.699
1688303473.930,74.219,-20.020,-27.832,26.367,120.605
1688303473.934,-43.945,-22.949,-11.719,-6.348,27.832
1688303473.938,-156.738,-56.641,-17.090,-48.828,-183.105
1688303473.942,-64.453,-55.664,-15.625,-34.668,-148.438
1688303473.945,89.844,-41.992,-10.742,10.742,273.438
1688303473.949,121.582,-36.621,-8.789,57.129,549.316
1688303473.953,-13.184,-41.992,-21.973,14.648,62.500
1688303473.957,-152.344,-45.898,-43.945,-52.246,-305.176
1688303473.961,-94.727,-30.273,-32.227,-46.387,-228.027
1688303473.965,44.922,-3.418,-20.996,-17.090,-148.926
1688303473.969,76.660,-2.930,-24.902,5.859,-55.176
1688303473.973,-7.812,-30.273,-17.578,2.930,2.441
1688303473.977,-135.254,-54.199,-5.859,-41.992,-122.559
1688303473.981,-105.469,-44.434,-5.859,-60.059,-244.141
1688303473.985,56.152,-25.879,-18.555,-17.578,-125.488
1688303473.989,117.188,-4.883,-17.578,17.578,94.238
1688303473.992,30.762,-1.953,-16.113,14.160,375.000
1688303473.996,-120.117,-34.668,-30.273,-35.645,83.984
1688303474.000,-106.445,-34.668,-37.598,-38.574,-277.344
1688303474.004,55.176,-12.695,-34.180,14.160,-91.797
1688303474.008,100.098,-29.785,-34.180,20.508,96.680
1688303474.008,26.855,-24.414,-31.250,-5.371,-10.254
1688303474.012,-95.215,-11.719,-25.879,-32.227,-186.035
1688303474.016,-115.234,-12.695,-14.648,-41.016,-142.090
1688303474.020,15.137,-22.461,-21.484,-12.695,30.762
1688303474.024,98.633,-28.320,-35.645,13.672,53.223
1688303474.028,64.453,-20.020,-24.902,13.672,91.309
1688303474.032,-76.172,-48.828,-25.879,-15.137,308.594
1688303474.035,-122.559,-61.523,-29.297,-21.484,333.496
1688303474.039,10.254,-15.625,-33.203,-8.789,-51.270
1688303474.043,93.262,1.953,-41.992,-18.555,-149.902
1688303474.047,42.480,0.000,-36.133,-17.578,-10.254
1688303474.051,-92.773,-16.113,-24.414,-43.945,-131.348
1688303474.055,-162.598,-42.480,-21.484,-73.242,-305.664
1688303474.059,-28.809,-38.086,-21.484,-40.527,-165.527
1688303474.063,98.145,-21.973,-18.555,6.348,148.438
1688303474.067,59.570,-12.207,-25.391,5.859,110.840
1688303474.071,-68.848,-25.879,-33.691,-21.484,-128.906
1688303474.075,-144.043,-47.363,-28.320,-40.039,-155.273
1688303474.079,-55.664,-59.082,-36.621,-25.391,134.277
1688303474.082,84.961,-31.250,-48.340,16.602,130.859
1688303474.086,92.773,-5.859,-36.133,24.902,-46.387
1688303474.090,-48.340,-29.785,-29.785,-1.465,-40.039
1688303474.094,-145.996,-42.969,-35.645,-24.414,-113.770
1688303474.098,-55.664,-26.367,-25.391,-23.926,-263.184
1688303474.100,71.777,-22.949,-11.719,4.395,-105.957
1688303474.104,87.891,-23.926,-10.742,15.625,116.211
1688303474.108,-28.809,-27.832,-20.020,-12.695,127.441
1688303474.112,-136.719,-38.086,-22.949,-45.898,3.418
1688303474.116,-59.082,-36.133,-17.090,-28.809,-120.605
1688303474.120,81.543,-29.785,-35.645,4.883,188.477
1688303474.124,105.469,-4.883,-35.156,15.625,410.645
1688303474.127,-6.836,-2.930,-32.227,-20.508,49.805
1688303474.131,-139.160,-34.668,-37.598,-62.012,-159.668
1688303474.135,-78.125,-42.969,-29.785,-44.922,81.055
1688303474.139,90.332,-14.648,-21.973,4.395,99.609
1688303474.143,122.559,-14.648,-23.926,23.926,-22.949
1688303474.158,13.184,-27.344,-30.762,0.977,4.883
1688303474.162,-123.535,-29.785,-32.715,-33.203,-71.777
1688303474.166,-93.262,-29.297,-25.879,-33.203,-170.410
1688303474.170,62.988,-7.812,-17.578,13.672,-120.605
1688303474.174,108.398,2.930,-25.391,35.645,91.309
1688303474.178,25.879,-11.230,-30.762,15.137,349.121
1688303474.182,-110.352,-38.086,-30.762,-38.086,134.277
1688303474.185,-133.789,-46.387,-29.297,-65.430,-208.496
1688303474.189,20.996,-25.879,-22.461,-2.930,-92.285
1688303474.193,118.652,-10.254,-10.254,62.012,269.043
1688303474.197,24.902,-34.180,-28.320,22.949,117.676
1688303474.201,-112.793,-43.945,-35.156,-35.156,-163.574
1688303474.203,-119.141,-28.320,-25.391,-48.828,-156.738
1688303474.207,9.766,-19.531,-24.902,-23.926,-71.289
1688303474.211,101.562,-7.324,-29.785,15.625,33.691
1688303474.215,58.105,-13.672,-38.086,11.230,117.676
1688303474.219,-83.008,-31.250,-26.855,-26.367,79.102
1688303474.223,-149.902,-37.598,-16.113,-64.941,-23.926
1688303474.227,-33.203,-35.645,-22.949,-56.152,-61.523
1688303474.230,93.750,-17.578,-28.809,0.000,47.852
1688303474.234,77.637,-21.973,-18.555,25.879,316.895
1688303474.238,-78.613,-52.246,-21.973,-19.043,347.656
1688303474.242,-171.875,-47.363,-39.551,-60.547,-157.715
1688303474.246,-47.363,-23.926,-40.039,-30.762,-238.770
1688303474.249,86.426,-12.207,-56.152,4.883,-14.648
1688303474.253,68.848,-22.461,-57.129,3.906,-57.617
1688303474.257,-52.246,-35.156,-22.949,-24.414,-208.496
1688303474.261,-139.160,-43.457,-11.230,-52.734,-274.414
1688303474.265,-51.758,-31.250,-14.648,-33.691,-200.684
1688303474.269,87.891,-7.324,-23.438,13.672,7.812
1688303474.273,104.492,10.254,-20.508,23.438,134.766
1688303474.276,-9.766,1.465,-1.465,6.348,92.773
1688303474.280,-136.719,-42.480,-17.578,-25.391,262.207
1688303474.284,-82.031,-46.387,-46.387,-40.039,62.500
1688303474.288,70.801,-13.184,-37.598,2.441,-102.539
1688303474.292,107.910,-0.488,-30.762,32.715,43.945
1688303474.293,-6.348,-19.531,-33.203,-4.883,23.926
1688303474.297,-138.184,-35.645,-26.855,-48.340,-138.184
1688303474.301,-83.984,-30.273,-27.344,-38.574,-217.773
1688303474.305,68.848,-27.344,-32.227,1.465,32.227
1688303474.309,98.145,-23.438,-41.504,6.836,130.371
1688303474.313,7.812,-14.160,-37.109,-9.277,54.199
1688303474.317,-121.582,-38.086,-24.414,-28.320,-11.230
1688303474.320,-89.355,-48.340,-15.137,-20.020,90.332
1688303474.324,65.430,-13.672,-21.973,5.371,208.984
1688303474.328,101.562,14.160,-33.203,6.836,-34.180
1688303474.332,21.484,4.395,-25.879,4.395,-75.684
1688303474.336,-104.492,-8.301,-31.250,-29.785,-10.254
1688303474.340,-120.117,-19.043,-41.504,-66.895,-151.367
1688303474.344,31.738,-17.090,-34.668,-23.926,-162.109
1688303474.348,116.211,-17.090,-29.297,18.066,-31.738
1688303474.352,37.598,-30.273,-29.785,0.000,47.363
1688303474.356,-114.258,-41.992,-35.156,-47.363,-76.172
1688303474.360,-134.277,-34.668,-26.855,-60.547,-190.918
1688303474.364,5.859,-30.273,-34.668,-31.738,44.922
1688303474.367,94.238,-31.738,-46.875,9.277,441.895
1688303474.371,34.180,-24.414,-36.621,-12.207,196.777
1688303474.375,-104.980,-30.762,-34.668,-59.082,-135.742
1688303474.379,-136.230,-31.738,-38.086,-57.129,-168.945
1688303474.383,1.953,-10.742,-33.203,-25.391,-118.652
1688303474.384,96.680,-10.742,-29.297,3.418,11.719
1688303474.388,55.176,-26.367,-20.020,8.789,132.324
1688303474.392,-76.660,-34.668,-26.367,-15.625,145.508
1688303474.396,-141.602,-29.785,-39.062,-32.715,25.879
1688303474.400,-22.949,-10.742,-33.691,-20.508,-105.957
1688303474.404,92.285,-5.859,-33.691,7.324,-22.949
1688303474.408,68.359,-25.879,-39.062,14.648,237.305
1688303474.411,-59.082,-35.645,-42.480,-11.230,377.930
1688303474.415,-148.926,-35.645,-54.199,-44.922,-62.500
1688303474.419,-47.852,-37.109,-37.109,-21.484,-214.355
1688303474.423,88.379,-24.902,-17.090,25.391,-11.719
1688303474.427,95.703,-1.465,-8.301,44.434,-31.738
1688303474.430,-26.367,-5.371,-14.648,2.441,-94.727
1688303474.434,-141.113,-37.109,-42.480,-62.500,-126.465
1688303474.438,-60.059,-36.621,-38.574,-41.504,-141.602
1688303474.442,83.984,-29.785,-49.316,6.836,-69.336
1688303474.446,95.215,-28.320,-44.434,20.508,-18.066
1688303474.450,-6.836,-14.160,2.930,9.766,70.312
1688303474.454,-132.324,-39.062,-2.441,-26.367,321.289
1688303474.457,-92.285,-32.227,-24.414,-47.852,116.699
1688303474.461,73.730,-1.465,-24.902,-16.113,-134.277
1688303474.465,104.492,-15.137,-31.250,10.254,-13.184
1688303474.469,-16.113,-26.367,-32.227,-16.113,8.789
1688303474.473,-149.902,-33.203,-42.480,-60.547,-196.777
1688303474.488,-118.652,-38.086,-47.852,-66.406,-291.016
1688303474.492,45.410,-26.367,-43.945,-23.438,-94.238
1688303474.496,117.188,-16.113,-24.902,23.438,73.242
1688303474.500,39.062,-34.180,-0.488,18.066,86.426
1688303474.504,-112.793,-60.547,-7.812,-29.785,-116.211
1688303474.508,-108.398,-51.758,-27.832,-23.438,49.316
1688303474.512,48.340,-17.090,-37.598,17.090,349.609
1688303474.515,111.816,4.883,-31.738,29.785,138.672
1688303474.519,40.039,1.953,-20.508,23.926,-51.758
1688303474.523,-103.516,-37.109,-21.973,-27.344,20.020
1688303474.527,-145.996,-52.246,-28.809,-66.406,-79.590
1688303474.531,7.812,-20.020,-24.902,-25.879,-211.914
1688303474.535,118.164,-2.930,-30.273,24.414,-64.941
1688303474.539,48.828,-11.230,-32.227,19.531,78.125
1688303474.543,-97.168,-36.621,-17.090,-24.902,-62.500
1688303474.547,-140.137,-54.199,-14.160,-54.688,-232.910
1688303474.551,4.883,-41.992,-29.297,-14.648,-130.859
1688303474.555,132.324,-24.414,-36.133,41.016,155.273
1688303474.559,83.008,-22.461,-23.926,32.227,191.406
1688303474.562,-74.707,-26.367,-14.648,-15.625,-98.633
1688303474.566,-138.672,-32.227,-33.203,-38.086,-184.082
1688303474.570,-22.461,-31.250,-37.109,-8.301,41.992
1688303474.574,77.637,-17.090,-31.738,28.320,17.578
1688303474.578,56.152,-13.184,-32.227,28.809,-29.785
1688303474.578,-60.547,-31.738,-16.113,-20.508,53.223
1688303474.582,-141.602,-35.645,-9.766,-50.293,98.633
1688303474.586,-37.598,-20.508,-36.621,-19.531,-38.574
1688303474.590,107.422,-17.578,-38.574,16.602,82.031
1688303474.594,102.539,-20.020,-17.090,16.602,247.070
1688303474.598,-55.176,-34.180,-15.625,-41.992,105.469
1688303474.602,-157.227,-42.480,-25.879,-80.078,-104.492
1688303474.605,-60.547,-39.551,-48.828,-56.152,-182.129
1688303474.609,72.754,-36.621,-43.457,-4.883,145.996
1688303474.613,79.102,-45.410,-18.066,9.766,450.684
1688303474.617,-48.340,-45.410,-14.648,-30.273,48.340
1688303474.621,-159.180,-42.480,-19.043,-56.152,-150.391
1688303474.623,-89.844,-42.480,-30.762,-42.969,-35.156
1688303474.627,56.641,-30.273,-39.062,-7.324,-123.047
1688303474.631,86.426,-31.250,-27.344,9.766,-101.562
1688303474.635,-2.441,-31.250,-11.719,1.953,-80.566
1688303474.639,-121.094,-30.762,-23.438,-30.762,-158.691
1688303474.643,-98.633,-32.715,-31.250,-40.039,-96.680
1688303474.647,44.434,-26.367,-37.598,-14.648,-48.828
1688303474.650,90.820,-23.926,-36.133,1.953,65.918
1688303474.654,12.207,-23.926,-14.648,7.812,335.938
1688303474.658,-127.930,-27.344,-16.602,-31.738,-19.043
1688303474.662,-130.371,-49.316,-21.973,-62.500,-309.082
1688303474.666,22.461,-43.945,-20.996,-19.531,-27.832
1688303474.669,86.426,-24.902,-30.273,15.137,100.586
1688303474.673,23.438,-32.715,-39.551,3.906,8.301
1688303474.677,-100.098,-30.762,-25.879,-8.301,-91.797
1688303474.681,-113.770,-27.344,-8.301,-1.953,1.953
1688303474.685,17.578,-29.785,-23.926,-6.836,187.988
1688303474.689,101.562,-13.672,-36.621,0.488,84.961
1688303474.693,60.059,-3.906,-32.715,13.672,10.742
1688303474.696,-74.219,-18.066,-33.691,-28.320,135.742
1688303474.700,-121.582,-27.344,-48.340,-74.219,19.043
1688303474.704,19.531,-14.648,-38.086,-40.039,-203.125
1688303474.708,117.676,-18.066,-19.531,5.859,-112.793
1688303474.712,63.965,-29.297,-14.160,-3.906,-8.789
1688303474.715,-78.613,-34.180,-22.461,-25.879,-114.258
1688303474.719,-134.766,-41.016,-32.715,-43.945,-231.934
1688303474.723,-6.836,-32.227,-40.039,-23.438,-146.484
1688303474.727,108.398,-19.531,-42.969,22.949,35.645
1688303474.731,71.777,-22.949,-27.832,24.902,152.344
1688303474.735,-68.359,-40.527,-13.184,-13.184,51.270
1688303474.739,-150.391,-41.504,-20.996,-45.410,-36.133
1688303474.742,-37.109,-25.391,-20.508,-28.320,217.285
1688303474.746,89.844,-4.883,-22.949,6.348,227.539
1688303474.750,78.613,4.883,-30.762,25.879,20.020
1688303474.754,-47.852,-9.766,-9.277,10.254,-13.672
1688303474.758,-156.250,-24.414,6.348,-26.367,-151.855
1688303474.773,-69.824,-28.320,-17.090,-46.875,-205.566
1688303474.777,81.543,-26.367,-21.484,-15.137,-89.355
1688303474.781,102.539,-24.902,-20.996,33.691,54.688
1688303474.785,-12.207,-17.578,-26.855,20.996,38.086
1688303474.789,-140.625,-30.273,-24.902,-29.785,-132.324
1688303474.793,-90.332,-36.133,-21.973,-47.852,-108.887
1688303474.797,70.312,-17.090,-1.953,4.395,198.730
1688303474.800,107.910,-18.066,-2.441,30.273,544.434
1688303474.804,-10.742,-15.137,-21.484,-16.602,209.961
1688303474.808,-129.883,-17.090,-20.996,-58.105,-229.980
1688303474.812,-72.266,-28.320,-17.090,-40.039,-193.359
1688303474.816,77.637,-19.043,-19.043,1.953,-107.422
1688303474.805,108.887,7.324,-25.391,5.371,-60.547
1688303474.809,0.000,4.883,-29.297,-22.461,-39.551
1688303474.813,-149.414,-25.391,-23.926,-56.152,-127.930
1688303474.817,-137.207,-29.297,-29.785,-69.336,-217.285
1688303474.821,18.066,-9.277,-41.504,-47.363,-143.066
1688303474.825,93.750,-8.301,-37.598,-6.348,110.352
1688303474.829,20.996,-22.461,-40.039,-14.648,255.371
1688303474.832,-133.301,-26.367,-37.598,-75.195,-31.738
1688303474.836,-156.738,-20.508,-36.133,-98.145,-225.098
1688303474.840,-2.441,-23.438,-42.969,-50.781,-36.621
1688303474.844,101.562,-25.391,-27.344,9.766,394.043
1688303474.848,33.691,-17.578,-19.043,-1.465,216.797
1688303474.864,-117.188,-20.996,-24.414,-63.965,-163.574
1688303474.868,-152.832,-20.020,-32.227,-78.125,-188.965
1688303474.872,-14.160,-10.254,-57.129,-32.227,-111.816
1688303474.876,94.238,-4.395,-39.062,15.625,60.547
1688303474.880,46.387,-3.906,-14.160,19.531,59.082
1688303474.884,-98.145,-26.855,-6.836,-3.906,228.027
1688303474.888,-149.414,-50.293,-9.277,-39.062,302.734
1688303474.891,-14.160,-35.156,-24.902,-25.879,-124.023
1688303474.895,104.492,-9.766,-35.645,9.766,-126.465
1688303474.899,77.148,-0.977,-27.832,-12.695,57.617
1688303474.903,-71.777,-3.906,-17.578,-42.969,-107.910
1688303474.907,-161.621,-20.020,-24.414,-69.824,-249.512
1688303474.897,-38.086,-39.062,-47.852,-55.664,-153.320
1688303474.901,111.816,-23.438,-39.551,5.859,79.102
1688303474.905,88.379,6.836,-14.648,15.137,49.316
1688303474.909,-53.711,-5.371,-18.066,-25.879,-118.164
1688303474.913,-154.297,-34.668,-16.113,-56.152,-187.988
1688303474.917,-57.617,-26.855,-9.766,-34.668,-72.754
1688303474.921,95.703,-5.371,-15.137,11.719,66.895
1688303474.924,103.516,-15.625,-10.742,25.879,-13.672
1688303474.928,-22.461,-44.434,-15.625,8.301,-34.668
1688303474.932,-140.137,-61.035,-35.156,-39.551,186.035
1688303474.936,-78.125,-35.645,-32.715,-56.152,-50.293
1688303474.940,87.402,-2.930,-26.855,0.000,-173.828
1688303474.969,117.188,3.418,-25.391,27.832,41.016
1688303474.973,-13.184,-5.371,-13.672,1.953,-3.906
1688303474.977,-154.785,-29.785,-17.578,-33.203,-146.484
1688303474.981,-104.492,-33.203,-30.762,-43.457,-167.480
1688303474.985,74.219,-17.578,-20.996,-12.695,182.617
1688303474.989,116.211,-24.902,-6.348,20.508,527.344
1688303474.993,5.859,-38.574,-12.207,6.836,137.695
1688303474.996,-127.930,-37.109,-14.160,-35.645,-240.723
1688303475.000,-92.773,-20.996,-22.461,-35.645,-55.664
1688303475.004,61.523,1.953,-44.922,18.066,19.043
1688303475.008,119.629,10.742,-31.250,57.129,-99.121
1688303475.012,31.250,-16.602,-19.043,34.180,-56.641
1688303474.999,-121.582,-59.570,-20.996,-45.410,-116.211
1688303475.003,-128.906,-52.246,-20.020,-82.520,-275.391
1688303475.007,27.344,-12.695,-20.020,-35.156,-162.109
1688303475.011,102.539,-7.812,-21.484,-2.441,30.762
1688303475.015,15.625,-27.344,-12.207,-12.207,85.449
1688303475.019,-129.883,-28.320,-26.855,-53.711,0.000
1688303475.023,-152.832,-28.809,-38.086,-65.918,-134.766
1688303475.026,10.254,-25.879,-23.438,-30.273,-72.266
1688303475.030,105.469,-12.207,-55.176,-0.488,79.590
1688303475.034,56.641,-8.789,-53.711,19.043,92.773
1688303475.038,-61.035,-23.438,-2.930,14.648,-82.520
1688303475.042,-130.859,-33.203,2.441,-39.551,-93.750
1688303475.043,-11.230,-27.832,-16.602,-41.016,291.992
1688303475.047,91.797,-13.672,-38.574,-21.973,205.566
1688303475.051,64.453,-14.160,-44.434,-21.484,3.906
1688303475.055,-56.641,-25.391,-41.992,-47.852,117.188
1688303475.059,-137.207,-18.555,-46.387,-79.590,0.977
1688303475.063,-32.715,-14.648,-58.105,-57.617,-49.805
1688303475.067,90.820,6.348,-42.969,-11.230,44.434
1688303475.070,79.590,23.926,-16.602,12.207,303.711
1688303475.074,-56.641,-10.742,-40.039,-9.277,388.672
1688303475.078,-161.621,-45.898,-55.176,-55.664,-134.277
1688303475.082,-71.777,-21.973,-47.852,-53.223,-231.445
1688303475.086,56.641,-13.672,-53.223,-10.254,-28.809
1688303475.090,65.918,-23.926,-41.504,7.324,-40.039
1688303475.094,-37.109,-8.301,-30.762,-18.555,-131.836
1688303475.098,-148.926,-13.184,-27.344,-66.406,-228.027
1688303475.102,-75.195,-32.715,-17.578,-56.641,-179.688
1688303475.106,103.516,-13.184,-36.133,13.184,-27.344
1688303475.110,112.793,2.930,-38.574,25.879,130.371
1688303475.114,-26.855,-8.301,-29.297,-13.672,178.223
1688303475.117,-142.090,-43.457,-34.180,-39.551,222.656
1688303475.121,-53.223,-49.316,-34.668,-22.949,-5.859
1688303475.125,114.746,-34.180,-16.113,31.250,-65.918
1688303475.129,112.793,-8.789,-20.996,22.461,81.055
1688303475.133,-14.160,5.859,-52.246,-14.648,82.520
1688303475.133,-127.441,-20.996,-30.273,-34.180,-138.184
1688303475.137,-102.539,-19.043,-8.789,-21.973,-248.047
1688303475.141,49.316,-19.043,-46.387,16.602,-45.898
1688303475.145,117.676,-45.898,-53.711,27.344,121.094
1688303475.149,15.625,-7.324,-19.531,-12.207,76.172
1688303475.153,-140.625,12.695,-33.203,-56.152,-27.832
1688303475.157,-125.000,-0.977,-23.926,-52.734,174.316
1688303475.160,46.387,-5.371,-2.930,-5.859,438.477
1688303475.164,127.441,-1.953,-8.301,16.113,160.156
1688303475.168,41.992,-12.695,-15.625,8.789,-46.875
1688303475.172,-104.004,-36.621,-32.715,-20.020,-53.223
1688303475.176,-110.840,-43.457,-40.527,-37.109,-198.730
1688303475.181,22.949,-28.809,-37.109,-8.301,-154.297
1688303475.185,111.816,-17.090,-26.855,20.020,-25.391
1688303475.189,50.781,-28.320,-22.461,11.719,79.590
1688303475.193,-95.215,-27.832,-15.625,-26.367,-72.754
1688303475.197,-134.766,-20.508,-24.902,-45.410,-277.832
1688303475.201,1.953,-16.113,-45.898,-3.418,-24.414
1688303475.205,111.816,-14.648,-40.039,29.297,430.176
1688303475.208,76.660,-18.066,-34.668,16.113,185.547
1688303475.212,-68.848,-25.391,-39.062,1.465,-138.184
1688303475.216,-139.160,-13.672,-37.109,-18.066,-152.344
1688303475.220,-19.531,-5.371,-23.926,-13.672,-88.379
1688303475.224,109.863,-1.465,-33.203,6.348,-52.734
1688303475.239,90.332,-15.137,-38.574,16.602,-32.227
1688303475.243,-57.129,-25.391,-14.648,-7.812,-35.156
1688303475.247,-152.832,-31.250,-23.438,-46.875,-80.566
1688303475.251,-56.152,-47.363,-40.039,-42.969,-113.770
1688303475.255,77.148,-17.090,-36.133,9.277,-10.254
1688303475.259,92.773,6.836,-29.785,39.551,262.207
1688303475.263,-27.832,-18.555,-21.484,-4.883,487.793
1688303475.266,-156.738,-24.902,-33.691,-67.871,33.203
1688303475.270,-70.801,-2.441,-35.156,-54.199,-315.430
1688303475.274,80.566,3.906,-14.648,2.930,-69.336
1688303475.278,88.379,-21.484,-19.531,14.160,19.531
1688303475.282,-35.156,-39.062,-47.363,-20.996,-118.652
1688303475.283,-151.367,-40.527,-66.406,-42.480,-198.730
1688303475.287,-86.914,-34.180,-36.133,-31.738,-157.227
1688303475.291,45.898,-15.137,-19.043,-13.672,-116.699
1688303475.295,81.543,1.953,-19.043,-10.254,-43.945
1688303475.299,-4.395,-9.277,-14.160,-9.766,-14.648
1688303475.303,-134.277,-39.551,-38.574,-34.668,3.906
1688303475.307,-91.797,-30.762,-26.855,-24.902,-29.297
1688303475.310,79.102,-6.348,-7.812,29.785,-54.199
1688303475.314,99.609,-17.578,-29.297,32.227,86.426
1688303475.318,-16.113,-41.504,-40.527,11.719,356.445
1688303475.322,-143.555,-65.430,-46.387,-24.902,58.105
1688303475.326,-125.977,-43.457,-47.852,-60.547,-223.633
1688303475.328,33.691,-4.883,-43.945,-37.109,-39.551
1688303475.332,94.727,-1.953,-42.480,-8.789,23.926
1688303475.336,10.742,-15.137,-32.715,-12.207,-38.086
1688303475.340,-142.090,-53.223,-25.879,-47.852,-107.422
1688303475.344,-169.434,-55.664,-25.879,-67.383,-26.367
1688303475.348,0.977,-19.531,-24.414,-32.715,103.027
1688303475.352,107.422,-14.648,-30.273,-4.395,108.887
1688303475.355,48.828,-25.879,-35.156,3.418,76.172
1688303475.359,-91.309,-28.809,-20.996,-9.766,114.746
1688303475.363,-152.344,-51.270,-32.715,-53.223,133.301
1688303475.367,-9.277,-35.645,-39.062,-37.109,-112.305
1688303475.371,106.934,-9.277,-27.832,4.395,-101.074
1688303475.373,43.945,-13.672,-40.039,3.906,40.527
1688303475.377,-105.957,-22.461,-47.852,-34.668,-95.215
1688303475.381,-160.645,-40.527,-37.598,-62.500,-212.891
1688303475.385,-28.809,-30.762,-22.461,-40.527,-155.762
1688303475.389,90.332,-17.578,-25.879,-10.742,6.348
1688303475.393,73.242,-24.902,-32.227,-8.301,141.602
1688303475.397,-52.734,-32.715,-35.156,-35.645,108.398
1688303475.400,-131.348,-34.668,-32.715,-47.852,12.695
1688303475.404,-28.809,-55.664,-16.113,-19.531,177.246
1688303475.408,88.867,-30.762,-3.906,2.930,193.848
1688303475.412,60.547,-6.836,-17.090,0.488,146.973
1688303475.416,-66.895,-45.410,-29.785,-21.484,35.645
1688303475.433,-149.414,-76.660,-49.316,-41.504,-174.316
1688303475.437,-54.688,-39.551,-50.293,-27.832,-265.137
1688303475.441,89.844,-6.836,-26.367,-8.789,-118.164
1688303475.445,90.332,-11.230,-13.672,16.602,211.914
1688303475.449,-47.363,-26.855,-27.344,-12.695,149.414
1688303475.453,-157.227,-49.316,-43.457,-70.312,-173.828
1688303475.457,-88.379,-30.273,-33.203,-61.523,-111.816
1688303475.460,63.477,-16.602,-18.555,-11.719,133.301
1688303475.464,98.633,-32.715,-33.203,10.742,163.574
1688303475.468,-9.766,-26.855,-33.203,-15.625,-114.746
1688303475.472,-140.137,-28.320,-27.344,-54.199,-260.742
1688303475.476,-104.004,-25.879,-36.133,-62.012,-185.547
1688303475.481,56.641,-10.254,-42.969,-26.367,-32.227
1688303475.485,107.910,-16.113,-28.809,13.672,-31.738
1688303475.489,25.391,-19.531,-6.348,24.414,-15.625
1688303475.493,-125.488,-27.344,-22.949,-17.090,-12.695
1688303475.497,-126.953,-37.598,-31.250,-43.457,-192.383
