timestamps,TP9,AF7,AF8,TP10,Right AUX
1688304138.888,-24.902,-29.785,-28.809,-24.414,-93.262
1688304138.892,-22.461,-27.832,-31.738,-11.719,51.270
1688304138.896,-13.672,-22.461,-31.250,-26.855,-110.352
1688304138.900,-13.184,-20.508,-35.645,-38.086,-249.023
1688304138.904,-21.973,-23.438,-36.621,-20.508,-119.141
1688304138.908,-35.645,-27.344,-36.133,-29.297,72.754
1688304138.912,-39.062,-28.809,-33.691,-21.484,70.312
1688304138.915,-33.691,-24.902,-28.809,-32.715,-35.645
1688304138.919,-26.367,-26.367,-28.320,-41.992,-65.430
1688304138.923,-25.879,-36.133,-25.879,0.000,253.418
1688304138.927,-41.504,-26.855,-25.879,-9.766,157.227
1688304138.931,-49.805,-25.879,-31.738,-22.949,-104.004
1688304138.933,-41.016,-34.180,-31.250,-19.531,-101.562
1688304138.937,-10.254,-15.137,-31.250,0.488,-154.785
1688304138.941,6.836,0.488,-31.738,-8.789,-151.855
1688304138.945,-36.133,-16.113,-29.785,-21.484,-112.305
1688304138.949,-69.336,-30.273,-27.344,-19.043,17.578
1688304138.953,-65.918,-22.461,-30.762,-43.945,77.148
1688304138.957,-62.500,-16.602,-35.156,-70.801,-28.320
1688304138.960,-72.754,-13.184,-30.762,-90.332,-157.715
1688304138.964,-62.500,-7.324,-18.555,-87.402,160.645
1688304138.968,-76.172,3.418,-23.438,-93.750,322.266
1688304138.972,-99.609,-3.906,-26.367,-104.492,-80.566
1688304138.976,-90.820,-10.254,-16.113,-104.004,-193.848
1688304138.977,-121.094,-6.348,-15.625,-127.930,-176.758
1688304138.981,-149.902,-12.695,-9.277,-152.344,-206.055
1688304138.985,-165.039,-16.113,-8.301,-143.066,-140.625
1688304138.989,-169.434,-18.066,-3.906,-143.555,-76.660
1688304138.993,-147.949,-27.344,-3.418,-143.555,-106.934
1688304138.997,-120.605,-31.738,-9.766,-127.930,-41.504
1688304139.001,-104.980,-39.062,-15.137,-109.375,9.277
1688304139.004,-103.516,-53.223,-13.672,-85.938,143.066
1688304139.008,-107.422,-62.500,-3.906,-70.801,518.555
1688304139.012,-70.801,-51.270,-8.789,-44.922,336.426
1688304139.016,-39.062,-41.016,-19.531,-42.480,-166.504
1688304139.020,-46.387,-56.152,-19.043,-48.828,-187.012
1688304139.023,-43.457,-63.477,-21.484,-23.926,-110.352
1688304139.027,-24.902,-61.523,-26.367,9.277,-156.738
1688304139.031,-18.066,-66.895,-27.344,-2.441,-198.242
1688304139.035,-10.742,-71.289,-30.273,-6.348,-167.969
1688304139.039,4.883,-62.988,-29.297,14.160,-143.555
1688304139.043,8.789,-57.129,-25.391,20.996,-29.297
1688304139.047,-10.254,-59.082,-27.344,28.809,90.820
1688304139.050,7.812,-57.617,-31.738,28.320,324.219
1688304139.054,28.320,-42.969,-34.668,22.949,287.598
1688304139.058,23.438,-38.086,-33.691,35.156,-169.434
1688304139.062,13.672,-51.270,-33.691,17.090,-202.148
1688304139.066,-5.371,-57.129,-40.039,7.812,-22.949
1688304139.067,4.883,-46.875,-40.039,22.461,-138.672
1688304139.071,18.066,-39.551,-37.598,7.324,-255.371
1688304139.075,22.461,-46.875,-40.527,16.113,-196.777
1688304139.079,9.277,-43.945,-40.039,24.414,-98.145
1688304139.083,-5.859,-46.387,-39.551,8.301,-30.273
1688304139.087,5.859,-47.852,-42.480,15.137,-43.945
1688304139.091,11.719,-38.086,-38.086,-1.953,-51.758
1688304139.094,4.883,-39.551,-34.668,0.977,381.836
1688304139.098,4.883,-33.691,-37.598,14.648,246.582
1688304139.102,3.906,-29.785,-36.621,9.766,-126.465
1688304139.106,-3.418,-33.691,-33.691,14.160,-18.555
1688304139.110,0.488,-30.273,-34.668,9.277,-76.172
1688304139.128,7.812,-22.461,-34.668,-5.371,-235.352
1688304139.132,0.488,-24.414,-36.133,8.789,-157.227
1688304139.136,-1.465,-36.621,-35.645,27.344,8.301
1688304139.140,-5.371,-34.668,-36.133,0.488,-45.898
1688304139.144,5.859,-25.879,-40.527,-6.348,-155.273
1688304139.148,8.301,-29.297,-42.969,25.391,-62.012
1688304139.152,-10.254,-37.598,-42.480,5.859,181.641
1688304139.155,-28.320,-31.250,-34.180,-8.301,161.621
1688304139.159,-26.855,-23.438,-25.391,-4.883,-111.328
1688304139.163,-21.484,-21.484,-28.809,-7.324,-165.039
1688304139.167,-20.996,-22.949,-29.297,-7.324,-135.254
1688304139.171,-19.531,-30.273,-21.973,-9.277,-159.668
1688304139.158,-27.344,-33.203,-21.484,-14.648,-97.656
1688304139.162,-36.133,-35.156,-20.508,-7.812,10.254
1688304139.166,-14.160,-32.227,-18.555,12.207,62.012
1688304139.170,-2.441,-17.090,-30.762,-11.719,-156.738
1688304139.174,-50.293,-12.207,-38.086,-40.527,-229.004
1688304139.178,-87.891,-28.809,-28.809,-50.293,68.848
1688304139.182,-104.492,-29.297,-21.973,-62.012,253.418
1688304139.185,-103.516,-11.230,-25.391,-101.074,33.203
1688304139.189,-87.402,-0.977,-32.227,-123.047,-164.551
1688304139.193,-99.609,-3.906,-37.598,-119.141,-106.934
1688304139.197,-115.723,-9.766,-35.156,-90.820,294.434
1688304139.201,-133.789,0.977,-39.062,-117.188,157.227
1688304139.218,-130.371,3.906,-44.434,-145.996,-196.777
1688304139.222,-110.352,3.906,-42.480,-148.926,-182.617
1688304139.226,-103.027,9.277,-40.527,-147.461,-120.605
1688304139.230,-131.836,12.695,-40.527,-136.230,-127.441
1688304139.234,-144.043,6.348,-38.574,-146.973,-132.812
1688304139.238,-121.094,-1.465,-42.480,-132.324,159.180
1688304139.242,-104.980,2.441,-44.434,-123.535,193.848
1688304139.245,-95.215,9.766,-38.086,-128.906,-101.074
1688304139.249,-73.242,2.441,-37.109,-103.516,-44.922
1688304139.253,-71.777,-11.230,-36.133,-82.031,156.738
1688304139.257,-85.449,-6.348,-27.832,-88.867,-0.977
1688304139.261,-65.430,-10.254,-29.297,-88.379,-187.012
1688304139.262,-44.434,-24.902,-31.250,-69.824,-129.395
1688304139.266,-44.434,-21.973,-26.855,-65.918,-50.293
1688304139.270,-49.316,-25.879,-31.738,-34.668,-54.688
1688304139.274,-27.832,-34.668,-39.551,-28.809,-110.840
1688304139.278,0.000,-28.320,-38.574,-49.316,-95.215
1688304139.282,2.930,-24.902,-36.621,-31.250,16.602
1688304139.286,-16.602,-30.273,-29.297,-28.320,36.621
1688304139.289,-38.574,-23.926,-30.762,-17.578,2.930
1688304139.293,-22.461,-31.250,-38.086,-1.953,59.570
1688304139.297,6.348,-30.273,-36.621,-11.719,260.742
1688304139.301,10.254,-9.277,-33.203,-29.785,20.020
1688304139.305,-8.301,-13.672,-30.273,-21.484,-230.957
1688304139.308,-33.691,-34.180,-36.133,-12.695,-23.438
1688304139.312,-28.320,-34.668,-35.156,-14.160,66.895
1688304139.316,-5.371,-25.391,-26.855,-12.207,-166.504
1688304139.320,5.859,-44.922,-22.461,-3.906,-229.980
1688304139.324,-11.230,-64.941,-20.508,0.488,-107.422
1688304139.328,-22.461,-42.480,-24.414,-1.465,-2.441
1688304139.332,-14.160,-15.625,-33.203,-7.324,30.273
1688304139.335,0.000,-19.531,-32.715,-5.859,-47.363
1688304139.339,12.695,-33.691,-30.273,7.812,149.414
1688304139.343,1.465,-24.902,-35.645,3.906,221.191
1688304139.347,-19.043,-19.043,-39.062,3.906,-121.582
1688304139.351,-20.508,-24.414,-31.250,-2.441,-164.062
1688304139.352,-3.418,-22.949,-26.367,-7.324,-116.699
1688304139.356,9.766,-25.879,-23.438,-18.555,-190.430
1688304139.360,6.836,-24.902,-23.438,-22.461,-211.426
1688304139.364,-17.090,-21.973,-31.250,10.254,-100.098
1688304139.368,-33.691,-29.297,-32.715,5.371,27.344
1688304139.372,-15.625,-31.738,-29.785,-4.883,23.438
1688304139.376,6.836,-24.414,-28.320,6.836,-55.664
1688304139.379,3.906,-31.250,-24.414,-6.836,-48.828
1688304139.383,-7.812,-41.992,-24.414,-3.418,339.844
1688304139.387,-39.062,-27.832,-26.855,-8.301,249.023
1688304139.391,-28.320,-20.020,-25.879,-6.836,-111.816
1688304139.395,-5.859,-20.508,-26.855,3.906,-101.074
1688304139.412,-6.348,-19.043,-28.320,14.160,-111.328
1688304139.416,-13.184,-28.809,-32.715,17.578,-170.410
1688304139.420,-36.133,-39.551,-40.527,1.953,-103.516
1688304139.424,-19.531,-43.457,-35.156,-10.742,-8.789
1688304139.428,-3.906,-37.598,-25.879,-10.254,-47.363
1688304139.432,-2.930,-45.898,-19.531,0.000,-64.453
1688304139.436,-12.695,-55.664,-17.578,7.324,-26.855
1688304139.439,-29.785,-43.457,-27.832,12.207,217.773
1688304139.443,-38.086,-14.160,-27.344,-7.324,199.707
1688304139.447,-36.621,-4.395,-15.625,-29.785,-119.629
1688304139.451,-20.996,-21.484,-29.785,-20.508,-186.523
1688304139.455,-27.344,-36.133,-38.574,-3.906,-119.141
1688304139.443,-47.852,-33.203,-27.344,-20.508,-53.711
1688304139.447,-47.852,-22.461,-21.973,-18.066,-74.219
1688304139.451,-18.066,-22.461,-19.531,-13.672,-128.418
1688304139.455,-14.648,-19.531,-18.066,-19.531,-65.430
1688304139.459,-20.508,-28.320,-16.113,1.465,-63.965
1688304139.463,-29.297,-38.574,-16.602,-8.789,-15.137
1688304139.467,-51.270,-36.621,-23.926,-23.926,103.027
1688304139.470,-29.785,-39.062,-28.809,-14.160,306.152
1688304139.474,-22.949,-20.996,-28.809,-21.484,29.297
1688304139.478,-36.621,-9.277,-36.621,-18.066,-261.719
1688304139.482,-45.410,-21.484,-41.016,-6.836,-67.871
1688304139.486,-41.016,-25.879,-30.762,-9.766,255.371
1688304139.489,-26.855,-22.949,-29.297,-12.695,-19.043
1688304139.493,-26.367,-23.926,-40.039,-31.738,-295.898
1688304139.497,-16.113,-29.785,-42.969,-26.367,-73.730
1688304139.501,-24.414,-35.156,-35.156,-21.973,9.277
1688304139.505,-40.527,-32.715,-29.297,-26.855,-128.418
1688304139.509,4.883,-40.039,-34.668,-16.602,-102.051
1688304139.513,9.766,-46.875,-29.785,-29.297,238.770
1688304139.516,-33.691,-27.832,-18.066,-42.480,360.840
1688304139.520,-64.453,-8.789,-20.508,-43.945,-28.320
1688304139.524,-100.098,-13.672,-23.438,-47.363,-114.746
1688304139.528,-96.680,-22.949,-24.902,-57.129,-55.176
1688304139.532,-58.105,-27.832,-24.414,-62.988,-165.039
1688304139.532,-71.777,-26.855,-22.461,-69.824,-208.984
1688304139.536,-92.773,-30.273,-23.438,-55.664,-131.348
1688304139.540,-70.801,-37.109,-19.043,-46.387,-40.039
1688304139.544,-49.316,-40.527,-18.555,-31.738,-91.797
1688304139.548,-28.809,-29.297,-18.066,-11.230,-225.586
1688304139.552,-13.672,-21.973,-23.438,-22.949,-68.359
1688304139.556,-38.086,-40.527,-28.320,-20.020,338.867
1688304139.559,-56.641,-45.898,-20.996,-23.438,213.379
1688304139.563,-48.828,-35.156,-27.832,-33.203,-106.445
1688304139.567,-30.762,-30.273,-41.016,-25.391,-95.703
1688304139.571,-30.273,-31.250,-30.273,-20.996,189.941
1688304139.575,-33.203,-21.973,-26.855,-26.367,1.465
1688304139.593,-47.363,-23.926,-41.016,-17.578,-191.406
1688304139.597,-37.109,-38.086,-40.039,-16.113,-85.449
1688304139.601,-19.043,-36.621,-27.344,-18.066,-102.051
1688304139.605,-29.785,-31.250,-21.484,-29.785,-219.238
1688304139.609,-21.484,-27.344,-16.113,-30.762,-194.824
1688304139.613,-28.809,-32.227,-20.996,-11.230,74.219
1688304139.617,-20.508,-31.250,-33.203,-25.391,113.281
1688304139.620,-12.695,-23.926,-30.273,-36.621,-116.211
1688304139.624,-22.461,-30.273,-27.344,-15.137,-176.270
1688304139.628,-20.020,-39.551,-42.969,5.371,168.457
1688304139.632,-42.480,-32.227,-48.340,-5.371,246.582
1688304139.636,-45.898,-23.438,-38.086,-20.508,-74.707
1688304139.637,-26.367,-20.508,-31.738,-24.902,-138.672
1688304139.641,-23.438,-20.996,-28.809,-14.160,-136.719
1688304139.645,-26.855,-29.785,-27.832,-26.855,-136.719
1688304139.649,-41.016,-41.504,-27.832,-12.207,-64.453
1688304139.653,-52.246,-39.062,-22.949,-5.371,-44.922
1688304139.657,-23.926,-29.297,-22.461,-35.156,-9.766
1688304139.661,-13.672,-31.738,-23.438,-28.809,-62.500
1688304139.664,-22.949,-36.621,-32.715,-27.344,-72.266
1688304139.668,-31.250,-44.434,-46.875,-35.645,65.430
1688304139.672,-35.645,-46.875,-40.039,-22.949,411.133
1688304139.676,-29.785,-34.668,-32.227,-25.391,258.789
1688304139.680,-28.320,-26.367,-32.227,-50.293,-179.199
1688304139.683,-18.066,-33.203,-26.367,-39.062,-156.738
1688304139.687,-18.555,-38.574,-25.879,-15.625,-60.059
1688304139.691,-51.758,-32.715,-37.598,-30.762,-124.512
1688304139.695,-37.598,-28.809,-37.598,-53.711,-184.570
1688304139.699,-25.391,-33.203,-33.691,-41.504,-46.387
1688304139.703,-18.066,-36.133,-27.344,-31.738,26.367
1688304139.707,-34.180,-33.691,-22.949,-10.742,-62.012
1688304139.710,-54.688,-31.250,-31.738,-24.902,-104.980
1688304139.714,-27.344,-27.344,-30.273,-55.176,97.656
1688304139.718,-26.855,-27.344,-34.668,-41.504,57.617
1688304139.722,-19.531,-34.180,-52.734,-23.926,-195.801
1688304139.726,-31.738,-33.691,-50.781,-35.645,-131.836
1688304139.727,-49.805,-29.297,-33.203,-26.367,-38.574
1688304139.731,-30.273,-22.461,-22.949,-21.973,-40.527
1688304139.735,-22.461,-29.297,-24.414,-31.738,-180.176
1688304139.739,-20.996,-46.875,-28.320,-19.531,-158.203
1688304139.743,-26.367,-49.316,-27.344,-19.043,-11.230
1688304139.747,-37.598,-27.832,-25.391,-27.832,-24.902
1688304139.751,-35.156,-17.090,-30.273,-38.574,15.137
1688304139.754,-28.320,-14.160,-30.273,-51.270,132.324
1688304139.758,-24.414,-9.277,-24.902,-40.527,386.230
1688304139.762,-40.039,-9.766,-27.832,-36.621,225.098
1688304139.766,-46.387,-24.414,-36.133,-12.207,-60.547
1688304139.770,-34.180,-36.133,-38.086,-30.273,-62.988
1688304139.773,-20.020,-34.668,-30.273,-48.340,-128.418
1688304139.777,-17.578,-31.738,-35.156,-22.461,-176.270
1688304139.781,-16.602,-23.926,-44.922,-23.926,-153.809
1688304139.785,-39.062,-27.832,-39.062,-45.410,13.672
1688304139.789,-48.828,-32.715,-23.926,-37.109,7.812
1688304139.793,-30.273,-30.273,-18.066,-39.551,-110.840
1688304139.797,-21.973,-41.016,-32.227,-32.227,-107.422
1688304139.800,-37.109,-50.293,-48.340,-29.297,147.949
1688304139.804,-54.688,-36.133,-41.992,-32.715,252.441
1688304139.808,-53.223,-36.621,-42.480,-15.137,-74.707
1688304139.812,-24.902,-42.480,-41.016,-15.625,-153.320
1688304139.816,-26.367,-25.391,-33.203,-35.156,-90.820
1688304139.832,-51.270,-17.578,-28.320,-45.410,-159.668
1688304139.836,-62.500,-25.391,-19.531,-43.457,-183.594
1688304139.840,-59.082,-32.715,-17.578,-41.504,-80.566
1688304139.844,-26.855,-25.391,-24.902,-48.340,-90.820
1688304139.848,-8.301,-18.066,-30.273,-37.598,-133.789
1688304139.852,-20.996,-31.738,-27.832,-22.461,-34.180
1688304139.856,-54.199,-43.457,-28.809,-45.410,69.336
1688304139.859,-60.547,-37.109,-39.062,-39.551,347.656
1688304139.863,-44.434,-20.996,-43.945,-33.691,226.562
1688304139.867,-23.438,-11.230,-40.039,-53.223,-176.758
1688304139.871,-10.254,-20.020,-28.320,-32.715,-122.559
1688304139.875,-45.410,-30.762,-31.738,-10.254,39.551
1688304139.878,-68.359,-39.551,-33.691,-31.738,-99.121
1688304139.882,-30.762,-34.180,-14.648,-56.641,-199.219
1688304139.886,-22.949,-29.785,-10.742,-45.898,-94.727
1688304139.890,-27.344,-25.879,-18.066,-37.109,-122.070
1688304139.894,-44.434,-15.137,-32.227,-46.875,-127.930
1688304139.898,-65.430,-18.066,-43.457,-46.387,91.309
1688304139.902,-46.875,-23.926,-35.645,-47.363,223.145
1688304139.905,-12.207,-27.344,-24.414,-44.922,-31.250
1688304139.909,-10.742,-36.621,-21.973,-41.016,-130.371
1688304139.913,-35.156,-49.805,-27.344,-42.480,-118.652
1688304139.917,-48.828,-55.176,-26.367,-39.551,216.309
1688304139.921,-52.246,-25.391,-24.414,-39.062,293.945
1688304139.907,-31.738,0.000,-25.391,-46.387,-126.465
1688304139.911,-20.996,-5.371,-28.809,-42.969,-225.098
1688304139.915,-43.457,-21.484,-36.621,-40.527,-129.883
1688304139.919,-56.641,-21.973,-39.551,-34.180,-58.105
1688304139.923,-60.059,-23.438,-38.086,-25.879,-73.242
1688304139.927,-36.621,-30.762,-28.320,-25.391,22.461
1688304139.931,-0.977,-36.621,-25.879,-1.953,129.395
1688304139.934,-14.648,-65.430,-45.410,-18.555,12.695
1688304139.938,-62.012,-56.641,-50.781,-40.039,-126.465
1688304139.942,-62.012,-19.531,-22.461,-39.551,-34.668
1688304139.946,-30.273,-11.230,-6.836,-37.109,234.863
1688304139.950,-15.137,-18.066,-6.836,-30.273,0.977
1688304139.970,-28.809,-17.578,-17.578,-14.160,-221.191
1688304139.974,-59.570,-28.809,-28.809,-25.391,-12.207
1688304139.978,-46.875,-24.902,-29.785,-48.828,43.457
1688304139.982,-15.137,-20.508,-30.762,-32.227,-123.535
1688304139.986,-16.113,-34.180,-29.785,-18.066,-156.250
1688304139.990,-22.949,-28.320,-27.832,-30.762,57.617
1688304139.994,-46.875,-16.602,-38.574,-37.109,102.051
1688304139.997,-60.547,-17.578,-43.945,-41.504,-87.402
1688304140.001,-33.691,-20.508,-31.250,-31.738,-110.840
1688304140.005,-5.371,-41.992,-27.344,-34.668,90.820
1688304140.009,-18.066,-50.781,-35.645,-34.180,81.543
1688304140.013,-40.039,-32.227,-39.062,-30.273,-139.160
1688304140.012,-43.945,-32.227,-34.668,-26.855,-130.859
1688304140.016,-34.668,-34.668,-27.344,-37.598,-78.125
1688304140.020,-18.066,-28.809,-29.297,-54.199,-150.391
1688304140.024,-8.789,-37.109,-34.668,-42.969,-174.316
1688304140.028,-18.555,-52.734,-36.621,-24.414,-66.895
1688304140.032,-47.852,-70.312,-38.574,-21.973,64.453
1688304140.036,-41.992,-51.758,-35.645,-32.715,6.348
1688304140.039,-21.484,-10.742,-37.598,-21.484,-100.098
1688304140.043,-17.090,-16.602,-31.738,-28.809,-53.711
1688304140.047,-40.527,-40.527,-29.297,-25.391,369.629
1688304140.051,-70.312,-18.066,-24.414,-31.738,355.957
1688304140.055,-69.824,6.348,-15.137,-40.039,-125.000
1688304140.073,-35.645,0.000,-15.625,-15.137,-146.973
1688304140.077,-17.090,-28.320,-28.320,-28.320,-151.367
1688304140.081,-47.363,-44.434,-34.180,-29.785,-255.859
1688304140.085,-54.688,-34.668,-19.531,-10.742,-192.871
1688304140.089,-33.691,-34.668,-20.996,-30.273,16.602
1688304140.093,-31.738,-29.297,-32.227,-52.734,65.430
1688304140.097,-42.969,-6.836,-30.273,-50.293,-59.082
1688304140.100,-47.363,-8.789,-24.414,-30.762,-162.109
1688304140.104,-49.805,-30.273,-27.832,-46.875,71.777
1688304140.108,-40.039,-36.621,-45.898,-43.457,125.000
1688304140.112,-21.484,-20.996,-44.434,-26.367,-153.320
1688304140.116,-17.090,-7.324,-21.484,-52.734,-165.527
1688304140.102,-29.297,-8.789,-14.160,-55.176,-82.520
1688304140.106,-46.875,-25.391,-26.367,-33.203,-84.473
1688304140.110,-40.527,-37.598,-32.715,-28.320,-107.422
1688304140.114,-22.461,-30.762,-24.414,-42.480,-76.172
1688304140.118,-2.930,-26.367,-19.531,-47.363,11.719
1688304140.122,-19.531,-30.273,-22.949,-39.551,-45.898
1688304140.126,-60.547,-37.598,-27.832,-46.387,-65.430
1688304140.129,-54.688,-39.551,-30.273,-34.180,91.797
1688304140.133,-31.250,-35.156,-40.527,-41.016,41.992
1688304140.137,-17.090,-32.715,-39.551,-45.898,-145.996
1688304140.141,-28.809,-42.969,-28.320,-25.391,-189.453
1688304140.145,-46.875,-50.293,-26.855,-21.973,-50.293
1688304140.163,-53.711,-41.504,-39.062,-30.762,411.621
1688304140.167,-38.574,-13.184,-31.250,-33.203,345.703
1688304140.171,-26.855,-3.418,-13.672,-27.832,-96.191
1688304140.175,-31.250,-26.855,-23.926,-23.926,-122.559
1688304140.179,-56.152,-32.227,-38.574,-33.691,-82.031
1688304140.183,-54.688,-25.879,-35.645,-40.527,-46.387
1688304140.187,-22.949,-48.828,-31.738,-36.133,-12.207
1688304140.190,1.953,-52.734,-34.668,-41.016,97.168
1688304140.194,-5.859,-12.695,-28.809,-44.922,58.105
1688304140.198,-63.965,0.977,-28.320,-30.762,-171.875
1688304140.202,-72.266,-20.508,-27.832,-29.785,-145.508
1688304140.206,-29.785,-22.949,-19.043,-28.809,45.410
1688304140.192,-21.973,-22.949,-29.297,-44.434,-102.051
1688304140.196,-20.020,-23.438,-35.156,-50.781,-246.582
1688304140.200,-48.828,-29.297,-24.414,-39.062,-119.629
1688304140.204,-64.941,-50.293,-20.996,-32.715,-50.293
1688304140.208,-36.621,-41.992,-24.902,-20.996,-91.797
1688304140.212,-22.949,-37.109,-30.762,-27.344,-55.664
1688304140.216,-24.902,-26.855,-35.645,-38.574,-9.277
1688304140.219,-43.945,-17.090,-38.574,-36.133,81.055
1688304140.223,-48.828,-26.855,-46.875,-28.809,77.637
1688304140.227,-20.996,-27.832,-43.945,-25.391,-83.008
1688304140.231,-15.625,-22.461,-24.902,-35.156,-33.691
1688304140.235,-27.832,-33.203,-7.324,-38.574,404.297
1688304140.239,-43.457,-31.250,-2.441,-14.648,333.008
1688304140.243,-67.871,-11.719,-6.348,-17.090,-105.957
1688304140.247,-50.293,-14.160,-18.066,-13.672,-89.355
1688304140.251,-31.738,-13.672,-16.602,-19.043,-117.188
1688304140.255,-34.180,-17.090,-19.043,-46.875,-208.496
1688304140.259,-31.738,-42.480,-36.621,-62.012,-58.105
1688304140.263,-43.457,-53.223,-35.645,-48.828,190.430
1688304140.266,-50.781,-29.785,-27.832,-49.805,157.227
1688304140.270,-21.484,-8.789,-19.531,-61.523,-148.438
1688304140.274,-16.113,-9.277,-20.020,-56.641,-239.258
1688304140.278,-37.109,-20.020,-27.832,-36.621,-179.199
1688304140.282,-56.152,-38.574,-30.762,-38.086,-145.020
1688304140.283,-54.199,-36.133,-29.785,-50.293,-120.605
1688304140.287,-26.367,-24.414,-27.344,-25.391,-79.102
1688304140.291,-13.672,-26.367,-50.293,-34.180,0.000
1688304140.295,-6.348,-41.504,-48.828,-31.250,-54.688
1688304140.299,-36.621,-54.688,-26.367,-29.785,-64.453
1688304140.303,-53.711,-33.691,-25.879,-44.434,118.652
1688304140.307,-38.086,-13.672,-23.438,-37.598,463.867
1688304140.310,-39.062,-10.742,-23.926,-47.363,268.066
1688304140.314,-38.574,-10.742,-23.926,-50.781,-171.875
1688304140.318,-42.480,-16.113,-42.969,-26.855,-108.398
1688304140.322,-58.105,-33.691,-58.594,-29.297,41.992
1688304140.326,-33.203,-43.457,-41.992,-41.504,-146.484
1688304140.343,-14.160,-40.527,-17.090,-17.578,-230.469
1688304140.347,-16.113,-34.668,-13.184,-17.090,-117.676
1688304140.351,-45.410,-23.926,-21.973,-30.762,-45.410
1688304140.355,-76.660,-20.020,-24.902,-49.805,-84.473
1688304140.359,-54.199,-12.695,-25.391,-60.547,-79.102
1688304140.363,-30.273,-15.625,-36.133,-40.039,170.410
1688304140.367,-19.043,-36.133,-46.875,-4.883,229.980
1688304140.370,-47.852,-29.785,-42.480,-15.625,-161.621
1688304140.374,-53.711,-21.973,-25.391,-56.641,-187.012
1688304140.378,-24.902,-21.484,-16.602,-60.547,46.387
1688304140.382,-6.348,-12.207,-21.484,-53.223,-88.867
1688304140.386,-6.348,-9.766,-29.785,-35.156,-224.609
1688304140.387,-16.113,-22.949,-37.598,-23.438,-133.789
1688304140.391,-26.367,-30.762,-36.621,-51.758,-3.906
1688304140.395,-28.809,-21.973,-35.645,-59.082,-37.109
1688304140.399,0.000,-20.996,-35.156,-38.574,-145.996
1688304140.403,1.953,-30.762,-38.574,-23.926,-95.215
1688304140.407,-35.645,-47.363,-40.527,-32.715,115.723
1688304140.411,-62.988,-35.645,-28.320,-47.363,81.543
1688304140.414,-51.270,-15.137,-17.090,-35.645,-41.016
1688304140.418,-30.273,-24.414,-33.691,-30.762,13.672
1688304140.422,-31.738,-25.879,-35.645,-34.180,308.594
1688304140.426,-55.664,-26.367,-20.508,-43.457,239.258
1688304140.430,-77.148,-31.250,-23.438,-47.363,-147.949
1688304140.433,-62.988,-31.738,-33.203,-50.293,-201.660
1688304140.437,-29.297,-23.926,-29.785,-46.875,-177.246
1688304140.441,-18.555,-19.531,-27.832,-26.855,-217.285
1688304140.445,-31.250,-33.203,-43.457,-34.180,-181.152
1688304140.449,-63.477,-33.691,-44.922,-46.387,-51.758
1688304140.453,-63.965,-30.273,-33.203,-30.762,-37.109
1688304140.457,-36.621,-24.902,-16.113,-19.531,-69.824
1688304140.460,-23.438,-30.273,-10.254,-17.090,-100.586
1688304140.464,-19.043,-44.434,-30.762,5.859,129.883
1688304140.468,-47.363,-28.809,-42.480,6.836,263.672
1688304140.472,-48.340,-10.254,-38.086,-22.949,-110.352
1688304140.476,-27.344,-18.555,-29.297,-40.527,-166.992
1688304140.477,-20.508,-26.367,-26.367,-46.387,5.859
1688304140.481,-17.090,-15.625,-25.879,-43.945,-124.512
1688304140.485,-41.016,-23.438,-28.809,-26.367,-151.855
1688304140.489,-58.105,-28.809,-33.203,-4.395,-52.246
1688304140.493,-22.461,-17.578,-39.062,0.000,-70.312
1688304140.497,-4.883,-11.719,-42.480,-34.668,-40.039
1688304140.501,-15.137,-23.438,-36.133,-27.832,-20.020
1688304140.504,-40.527,-46.875,-10.742,-17.578,22.949
1688304140.508,-60.547,-48.340,-21.973,-42.969,329.102
1688304140.512,-39.062,-17.090,-41.016,-51.758,162.109
1688304140.516,-12.695,-4.395,-34.668,-40.527,-220.703
1688304140.520,8.301,-8.789,-50.781,-15.137,-153.320
1688304140.523,-26.367,-15.137,-36.133,-15.625,-99.609
1688304140.527,-58.105,-28.809,-10.254,-28.320,-171.387
1688304140.531,-40.527,-52.246,-17.090,-37.109,-183.105
1688304140.535,-11.230,-61.035,-14.160,-20.996,-96.680
1688304140.539,-20.020,-31.738,-20.508,7.812,-92.773
1688304140.543,-44.922,-21.973,-49.805,-15.625,-69.824
1688304140.547,-60.547,-33.691,-63.477,-37.109,-7.324
1688304140.550,-39.062,-38.086,-55.176,-27.832,174.805
1688304140.554,-9.766,-21.973,-44.434,-13.184,142.578
1688304140.558,-8.789,-18.555,-49.805,-23.438,-133.789
1688304140.562,-32.227,-31.250,-35.156,-17.090,-133.301
1688304140.566,-18.555,-19.531,-24.902,9.277,-61.035
1688304140.582,19.531,-8.301,-26.855,-7.812,-73.242
1688304140.586,-0.488,-25.391,-4.395,-46.875,-165.039
1688304140.590,-33.691,-32.227,-18.066,-32.227,-96.680
1688304140.594,-37.109,-22.949,-62.988,-13.184,74.707
1688304140.598,-67.871,-33.203,-44.434,-62.500,35.645
1688304140.602,-75.684,-28.809,-4.395,-72.266,9.277
1688304140.606,-51.758,-25.879,-7.324,-53.711,93.750
1688304140.609,-27.344,-73.730,-4.883,-57.129,347.168
1688304140.613,-62.988,-71.289,-5.859,-77.148,143.066
1688304140.617,-124.512,-44.922,-47.852,-102.051,-168.945
1688304140.621,-92.773,-59.082,-20.996,-67.383,-58.105
1688304140.625,-85.449,-65.918,26.367,-74.219,43.945
1688304140.614,-107.910,-50.293,14.160,-96.680,-140.625
1688304140.618,-118.164,-30.273,-19.531,-62.012,-188.965
1688304140.622,-127.441,-47.363,-21.973,-71.289,-56.641
1688304140.626,-120.605,-74.219,0.977,-95.215,-79.590
1688304140.630,-83.008,-73.242,-5.859,-69.824,-147.461
1688304140.634,-59.570,-66.406,-13.184,-62.988,-68.359
1688304140.638,-63.477,-65.430,-16.602,-55.664,146.973
1688304140.641,-74.219,-62.988,-27.344,-29.785,98.145
1688304140.645,-78.613,-48.340,-20.508,-21.484,-105.469
1688304140.649,-33.203,-41.992,-1.465,-18.066,-118.652
1688304140.653,5.859,-51.758,-11.719,-13.184,147.949
1688304140.657,-1.465,-48.340,-23.438,-5.371,109.375
1688304140.657,-25.879,-45.898,-37.598,5.859,-175.293
1688304140.661,-43.945,-37.109,-73.730,-10.742,-91.309
1688304140.665,0.000,-17.578,-32.227,3.418,26.855
1688304140.669,28.320,-13.672,10.254,26.855,-118.652
1688304140.673,-15.137,-36.133,-4.395,-17.090,-200.684
1688304140.677,-42.969,-40.527,-28.809,-32.227,71.289
1688304140.681,-50.781,-40.039,-38.086,-26.367,357.422
1688304140.684,-18.555,-38.574,-27.344,-27.344,145.996
1688304140.688,3.418,-37.109,-22.949,-26.855,-164.551
1688304140.692,-3.906,-46.875,-29.785,-37.109,-129.883
1688304140.696,-24.414,-47.852,-41.016,-51.758,221.191
1688304140.700,-47.363,-38.574,-61.523,-45.898,58.594
1688304140.718,-27.344,-29.297,-61.035,-33.691,-209.473
1688304140.722,2.930,-4.883,-29.297,-29.785,-152.832
1688304140.726,-1.465,2.930,-31.250,-32.715,-150.879
1688304140.730,-19.531,-11.719,-25.879,-27.832,-202.637
1688304140.734,-45.898,-25.391,-25.879,-16.602,-123.047
1688304140.738,-27.344,-38.574,-57.129,-17.090,31.250
1688304140.742,6.836,-43.457,-65.430,-26.367,-1.465
1688304140.745,-6.348,-22.949,-40.039,-45.410,-190.918
1688304140.749,-37.109,-2.441,-37.598,-45.410,-196.289
1688304140.753,-68.359,-13.184,-39.551,-23.926,190.918
1688304140.757,-56.152,-15.137,-23.438,-35.645,280.273
1688304140.761,-12.695,-6.348,-10.254,-50.781,-137.207
1688304140.777,1.465,-18.066,-19.043,-42.969,-185.547
1688304140.781,-13.184,-28.809,-35.156,-24.902,-35.156
1688304140.785,-48.340,-22.949,-49.316,-25.879,-53.223
1688304140.789,-48.340,-29.297,-45.410,-44.922,-149.414
1688304140.793,-0.977,-8.789,-32.227,-46.387,-145.508
1688304140.797,-0.977,-3.906,-44.434,-52.734,-35.645
1688304140.801,-29.785,-33.203,-52.246,-25.391,-2.930
1688304140.804,-48.828,-19.043,-37.598,-13.184,31.738
1688304140.808,-66.406,-13.184,-23.438,-63.965,90.820
1688304140.812,-29.785,-39.551,-39.551,-58.105,302.734
1688304140.816,8.301,-38.574,-59.082,-32.715,89.355
1688304140.820,-13.672,-8.301,-24.414,-44.434,-177.734
1688304140.808,-55.176,-8.789,3.418,-54.688,41.992
1688304140.812,-72.266,-15.137,-20.508,-58.105,58.105
1688304140.816,-42.480,-22.461,-53.223,-45.410,-171.387
1688304140.820,-19.043,-39.551,-43.457,-35.156,-180.176
1688304140.824,-28.809,-43.945,-10.742,-38.086,-83.008
1688304140.828,-46.875,-26.855,-18.066,-33.691,40.039
1688304140.832,-62.988,-12.207,-42.969,-50.781,37.109
1688304140.835,-31.738,-5.371,-40.527,-56.641,-131.836
1688304140.839,14.160,-14.160,-28.320,-35.645,-84.961
1688304140.843,-14.648,-24.902,-36.133,-38.086,-101.074
1688304140.847,-76.172,-25.391,-34.668,-38.086,-115.723
1688304140.851,-83.984,-25.391,-34.668,-35.156,-49.805
1688304140.853,-35.645,-40.527,-38.086,-14.648,218.262
1688304140.857,-8.789,-43.457,-29.785,-14.160,147.461
1688304140.861,-16.602,-37.109,-29.297,-32.715,-169.434
1688304140.865,-47.852,-30.762,-39.551,-37.598,-53.711
1688304140.869,-49.316,-16.113,-34.180,-49.316,103.516
1688304140.873,-18.066,-5.859,-18.066,-52.246,50.781
1688304140.877,-3.906,-5.371,-12.695,-38.086,-89.844
1688304140.880,-23.438,-18.066,-9.277,-41.992,-51.758
1688304140.884,-48.828,-35.645,-6.836,-42.969,293.945
1688304140.888,-65.430,-42.969,-12.695,-35.645,208.496
1688304140.892,-57.129,-33.691,-18.555,-25.391,-163.574
1688304140.896,-19.043,-44.922,-24.902,-14.648,-198.730
1688304140.899,-7.812,-45.898,-17.578,-8.789,-223.145
1688304140.903,-31.738,-40.039,-12.695,-4.883,-236.816
1688304140.907,-65.430,-50.781,-13.184,-8.789,-128.906
1688304140.911,-51.270,-41.992,-30.273,-10.742,-88.379
1688304140.915,-12.695,-24.902,-36.621,-12.207,-176.270
1688304140.919,-9.766,-28.320,-24.414,-24.902,-163.574
1688304140.923,-40.039,-25.879,-26.367,-41.992,-34.180
1688304140.926,-55.176,-31.738,-24.902,-19.043,344.238
1688304140.930,-47.363,-40.527,-36.621,-26.855,422.852
1688304140.934,-22.949,-38.086,-40.527,-51.758,-43.457
1688304140.938,-2.441,-30.762,-31.738,-40.527,-192.383
1688304140.942,-19.531,-15.625,-19.531,-34.668,-130.371
1688304140.942,-55.664,-18.555,-14.160,-34.668,-95.703
1688304140.946,-61.035,-29.297,-14.160,-44.922,-68.359
1688304140.950,-31.250,-14.648,-18.066,-48.828,-81.543
1688304140.954,-10.742,-7.812,-25.879,-41.016,-45.410
1688304140.958,-19.043,-23.926,-21.973,-41.992,-114.258
1688304140.962,-50.293,-26.367,-22.461,-30.273,-82.031
1688304140.966,-55.176,-18.066,-31.738,-13.184,105.957
1688304140.969,-31.738,-11.230,-27.344,-7.812,406.250
1688304140.973,-23.926,-20.020,-30.273,-20.020,270.996
1688304140.977,-21.973,-36.133,-43.457,-29.785,-144.531
1688304140.981,-52.734,-38.086,-45.898,-20.508,-123.535
1688304140.985,-57.129,-32.715,-40.527,-22.461,0.977
1688304140.987,-23.926,-20.996,-34.668,-45.898,-171.387
1688304140.991,-4.883,-19.531,-27.832,-66.895,-237.305
1688304140.995,-3.906,-21.484,-26.367,-67.383,-111.328
1688304140.999,-45.898,-30.273,-27.832,-48.340,-88.867
1688304141.003,-60.059,-27.344,-30.273,-37.598,-149.902
1688304141.007,-24.902,-21.484,-31.250,-41.016,-96.191
1688304141.011,-9.766,-33.691,-30.762,-51.758,197.754
1688304141.014,-24.902,-40.039,-46.387,-48.828,185.059
1688304141.018,-44.434,-28.809,-63.477,-34.180,-104.492
1688304141.022,-41.504,-19.043,-43.945,-12.695,-50.781
1688304141.026,-25.879,-17.090,-21.973,-18.555,62.988
1688304141.030,-21.484,-18.066,-19.531,-59.570,-86.914
1688304141.032,-11.230,-19.531,-21.484,-53.711,-177.246
1688304141.036,-31.250,-19.043,-22.949,-21.484,-130.859
1688304141.040,-62.500,-22.461,-24.902,-16.113,12.207
1688304141.044,-40.527,-21.973,-26.367,-38.574,-26.367
1688304141.048,-1.465,-17.090,-26.367,-47.852,-164.062
1688304141.052,5.371,-22.949,-42.969,-41.992,-20.508
1688304141.056,-15.137,-38.574,-49.805,-22.461,280.273
1688304141.059,-51.270,-45.898,-34.668,-32.715,119.629
1688304141.063,-59.082,-37.598,-29.297,-71.289,-123.047
1688304141.067,-29.785,-22.461,-36.621,-75.195,-104.980
1688304141.071,-25.391,-22.949,-47.363,-67.383,96.191
1688304141.075,-52.734,-19.531,-38.574,-63.477,-101.562
1688304141.092,-77.637,-20.508,-22.949,-60.547,-147.461
1688304141.096,-63.477,-24.902,-27.344,-47.852,51.270
1688304141.100,-12.695,-15.625,-31.738,-50.293,19.531
1688304141.104,1.953,-10.742,-33.691,-51.270,-146.484
1688304141.108,-18.555,-27.832,-36.133,-44.922,-154.785
1688304141.112,-48.340,-31.250,-34.668,-39.551,86.914
1688304141.116,-63.477,-27.344,-40.527,-42.480,76.660
1688304141.119,-39.062,-26.855,-45.410,-61.523,-140.137
1688304141.123,-14.648,-17.578,-35.645,-49.805,-198.730
1688304141.127,-19.043,-11.719,-28.809,-5.371,79.590
1688304141.131,-63.965,-22.461,-27.832,-19.043,157.715
1688304141.135,-73.242,-38.086,-27.832,-61.035,-81.055
1688304141.137,-37.598,-57.617,-30.273,-49.805,-118.164
1688304141.141,-15.137,-53.223,-33.203,-28.320,-125.000
1688304141.145,-18.066,-24.902,-30.762,-33.203,-78.125
1688304141.149,-50.293,-17.578,-17.578,-28.320,-32.227
1688304141.153,-68.848,-27.832,-18.066,-16.602,11.719
1688304141.157,-29.297,-31.738,-24.414,-3.418,386.230
1688304141.161,-2.930,-20.508,-27.832,-34.180,236.328
1688304141.164,-13.672,-18.066,-32.227,-48.340,-100.098
1688304141.168,-37.109,-24.902,-29.785,-37.109,-47.363
1688304141.172,-48.828,-25.879,-29.297,-32.227,256.836
1688304141.176,-10.742,-14.160,-37.109,-46.875,54.199
1688304141.180,7.812,-13.672,-36.133,-62.988,-301.758
1688304141.183,-7.812,-29.297,-30.762,-41.504,-202.148
1688304141.187,-39.062,-29.785,-32.227,-5.859,-89.355
1688304141.191,-62.012,-29.297,-43.945,-2.930,-80.566
1688304141.195,-29.785,-28.320,-44.922,-50.293,-110.352
1688304141.199,4.395,-21.484,-26.855,-63.477,-119.141
1688304141.203,5.371,-20.996,-28.809,-63.965,-96.191
1688304141.207,-24.902,-27.344,-35.645,-41.504,-128.418
1688304141.210,-47.852,-24.414,-27.832,-19.531,-113.770
1688304141.214,-27.832,-32.227,-30.762,-29.785,136.230
1688304141.218,-2.441,-37.598,-38.574,-30.273,254.395
1688304141.222,-15.137,-20.996,-39.551,-38.086,-112.305
1688304141.226,-47.363,-33.203,-42.480,-47.363,-178.223
1688304141.227,-56.641,-36.133,-33.203,-37.598,-43.945
1688304141.231,-38.086,-22.949,-32.227,-35.156,-78.613
1688304141.235,-13.184,-30.762,-44.922,-49.805,-133.789
1688304141.239,-8.789,-25.391,-36.133,-40.039,-130.371
1688304141.243,-37.109,-16.113,-27.832,-24.902,-68.359
1688304141.247,-52.734,-19.531,-24.414,-18.066,16.113
1688304141.251,-38.086,-24.902,-25.879,-21.973,52.734
1688304141.254,-7.324,-20.996,-26.367,-41.504,19.531
1688304141.258,-1.465,-21.484,-25.879,-37.109,309.570
1688304141.262,-20.020,-30.273,-29.785,-28.320,355.469
1688304141.266,-41.016,-31.738,-23.438,-23.926,-59.082
1688304141.270,-34.668,-22.949,-22.949,-27.344,-158.691
1688304141.273,7.324,-14.160,-30.762,-42.969,-136.719
1688304141.277,23.926,-23.926,-27.832,-50.781,-245.117
1688304141.281,-6.348,-30.273,-40.039,-41.504,-243.652
1688304141.285,-47.363,-24.902,-43.457,-35.645,-71.777
1688304141.289,-57.129,-25.391,-26.367,-42.480,-52.734
1688304141.293,-27.832,-35.645,-22.461,-23.926,-87.891
1688304141.297,-14.648,-43.457,-29.297,-30.273,33.691
1688304141.300,-38.086,-38.086,-45.410,-44.922,160.156
1688304141.304,-75.195,-25.879,-41.016,-30.762,149.414
1688304141.308,-79.102,-26.367,-20.020,-37.598,-44.922
1688304141.312,-34.180,-33.203,-20.996,-57.617,-82.031
1688304141.316,-17.090,-20.996,-24.414,-38.086,-54.688
1688304141.317,-38.574,-17.090,-28.809,-44.922,-165.527
1688304141.321,-63.965,-25.391,-38.086,-72.266,-226.074
1688304141.325,-65.918,-20.508,-40.039,-62.500,-95.703
1688304141.329,-38.574,-15.625,-36.621,-57.617,40.527
1688304141.333,-13.672,-24.414,-28.320,-72.266,-60.059
1688304141.337,-16.113,-24.414,-18.066,-64.941,-122.070
1688304141.341,-46.387,-24.902,-26.855,-48.340,41.504
1688304141.344,-66.406,-34.180,-33.203,-26.855,470.215
1688304141.348,-39.062,-20.508,-13.184,-26.367,296.875
1688304141.352,-6.836,-21.973,-14.648,-42.480,-159.180
1688304141.356,-18.555,-31.250,-26.367,-47.852,-203.125
1688304141.360,-58.594,-27.344,-32.227,-45.898,-157.715
1688304141.365,-73.242,-30.273,-41.504,-24.902,-89.355
1688304141.369,-33.691,-36.133,-38.574,-10.742,-112.305
1688304141.373,-13.184,-37.598,-34.668,-35.645,-77.148
1688304141.377,-23.438,-39.062,-31.250,-40.039,-39.551
1688304141.381,-29.297,-25.879,-23.438,-25.391,-103.516
1688304141.385,-48.340,-13.184,-18.555,-12.695,-67.383
1688304141.389,-43.945,-18.555,-20.996,-0.977,198.242
1688304141.392,-9.277,-19.043,-29.785,-18.066,239.746
1688304141.396,-0.488,-15.137,-38.086,-55.176,-123.535
1688304141.400,-27.344,-11.719,-46.387,-40.527,-148.926
1688304141.404,-56.152,-21.484,-41.504,-20.508,-27.344
1688304141.408,-38.086,-25.391,-10.742,-51.758,-114.258
1688304141.407,-5.371,-36.621,-3.418,-58.594,-197.754
1688304141.411,-0.488,-41.016,-23.926,-42.480,-131.348
1688304141.415,-28.320,-21.973,-38.574,-49.805,-17.578
1688304141.419,-61.035,-11.230,-40.039,-57.617,-27.832
1688304141.423,-47.363,-11.719,-41.992,-42.969,-130.859
1688304141.427,-2.441,-22.461,-42.480,-44.434,-63.965
1688304141.431,10.254,-27.832,-38.574,-46.387,338.867
1688304141.434,-22.949,-48.340,-40.527,-41.504,313.477
1688304141.438,-52.246,-60.547,-31.250,-32.715,-62.500
1688304141.442,-57.129,-20.996,-27.344,-31.738,-62.988
1688304141.446,-18.066,16.113,-32.227,-45.410,-5.371
1688304141.450,-3.418,4.395,-30.762,-43.945,-160.156
1688304141.468,-32.227,-31.738,-35.156,-34.180,-232.910
1688304141.472,-46.875,-46.875,-37.598,-15.625,-68.848
1688304141.476,-48.828,-32.227,-17.090,-11.230,20.508
1688304141.480,-42.969,-11.230,-9.277,-30.762,-145.508
1688304141.484,-37.109,-8.789,-20.508,-42.969,-191.895
1688304141.488,-37.598,-16.113,-33.203,-38.086,67.871
1688304141.492,-62.500,-27.344,-33.203,-41.016,115.234
1688304141.495,-66.895,-45.898,-37.109,-55.664,-6.836
1688304141.499,-31.738,-36.621,-49.805,-63.965,-73.730
1688304141.503,-17.578,-21.484,-37.109,-46.387,103.516
1688304141.507,-19.531,-25.391,-37.598,-33.203,164.062
1688304141.511,-42.480,-21.484,-25.391,-6.348,-136.719
1688304141.512,-58.105,-20.508,-24.414,0.488,-151.367
1688304141.516,-25.391,-18.066,-44.434,-46.387,-8.301
1688304141.520,-15.137,-25.879,-35.156,-60.547,-153.320
1688304141.524,-28.809,-40.527,-17.578,-43.945,-239.258
1688304141.528,-57.129,-34.668,-19.531,-23.926,-95.703
1688304141.532,-90.820,-33.203,-32.715,-23.926,75.684
1688304141.536,-44.922,-41.992,-34.668,-38.574,32.715
1688304141.539,5.859,-40.039,-50.781,-42.969,-79.102
1688304141.543,-7.324,-29.785,-45.410,-37.598,52.734
1688304141.547,-20.020,-31.250,-20.996,-23.438,362.305
1688304141.551,-46.387,-22.949,-24.902,-8.789,141.113
1688304141.555,-51.758,-4.395,-23.926,-25.879,-180.664
1688304141.558,-35.645,-11.230,-20.996,-72.754,-32.227
1688304141.562,-26.367,-19.531,-20.508,-90.820,163.574
1688304141.566,-36.621,-22.461,-22.949,-73.730,-21.484
1688304141.570,-61.035,-33.691,-40.527,-59.082,-129.395
1688304141.574,-49.805,-40.039,-43.945,-47.363,-34.668
1688304141.578,-16.602,-33.203,-20.508,-51.270,-8.301
1688304141.582,-5.859,-33.203,-10.742,-54.199,-83.984
1688304141.585,-21.484,-36.133,-8.789,-39.551,-127.930
1688304141.589,-60.547,-38.574,-11.230,-17.090,145.020
1688304141.593,-52.246,-23.926,-20.020,-20.996,240.234
1688304141.597,-27.832,-8.789,-26.855,-41.992,-106.934
1688304141.601,-40.527,-22.461,-38.574,-44.434,-156.250
1688304141.602,-48.340,-24.414,-27.832,-28.809,7.812
1688304141.606,-78.125,-24.902,-21.973,-28.320,-48.340
1688304141.610,-104.980,-41.504,-34.180,-21.484,-92.773
1688304141.614,-66.406,-38.086,-20.020,-42.969,-143.555
1688304141.618,-45.898,-15.625,-23.438,-112.305,-124.512
1688304141.622,-80.566,-1.465,-42.480,-131.348,-33.203
1688304141.626,-105.469,6.836,-36.133,-111.816,-5.859
1688304141.629,-99.609,-8.789,-35.645,-132.812,35.156
1688304141.633,-95.215,-9.766,-36.621,-140.625,253.906
1688304141.637,-104.980,16.602,-24.902,-138.184,107.422
1688304141.641,-128.906,14.160,-38.086,-165.527,-221.191
1688304141.645,-168.945,0.977,-4.883,-155.273,-138.672
1688304141.650,-161.133,8.789,4.883,-125.488,-80.078
1688304141.654,-105.957,-5.371,-3.906,-130.371,-126.953
1688304141.658,-80.566,-11.230,6.348,-122.559,-179.199
1688304141.662,-89.355,0.488,-14.160,-112.305,-62.988
1688304141.666,-116.699,8.301,-14.648,-113.281,-7.812
1688304141.670,-125.000,0.000,-16.113,-104.980,-38.574
1688304141.674,-90.332,-12.695,-45.898,-99.121,-63.477
1688304141.677,-49.805,-18.066,-63.965,-86.426,50.781
1688304141.681,-37.598,-46.875,-55.176,-83.008,48.828
1688304141.685,-74.707,-68.848,-20.020,-55.664,-146.973
1688304141.689,-83.008,-42.969,-9.766,-13.672,-45.898
1688304141.693,-49.316,-15.137,-26.367,-8.789,-3.906
1688304141.692,-10.254,-12.695,-22.949,-10.254,-99.121
1688304141.696,5.371,-23.926,-42.480,-25.879,-85.449
1688304141.700,-18.555,-44.434,-63.477,-48.340,-84.473
1688304141.704,-46.387,-33.691,-48.340,-54.688,63.965
1688304141.708,-23.926,-18.066,-25.391,-32.715,117.188
1688304141.712,20.996,-57.129,-15.137,-0.488,-41.504
1688304141.716,26.855,-64.941,-29.785,0.488,-15.625
1688304141.719,-17.578,-36.133,-57.617,-18.066,444.824
1688304141.723,-60.547,-28.320,-53.223,-11.230,479.980
1688304141.727,-34.668,-15.137,-40.527,13.672,-55.176
1688304141.731,10.742,-23.926,-50.293,6.836,-255.371
1688304141.735,28.809,-39.551,-39.062,-5.859,-182.129
1688304141.753,14.648,-48.828,-21.484,-11.719,-165.039
1688304141.757,-18.066,-41.504,-22.949,-3.418,-170.898
1688304141.761,-19.531,-30.273,-36.621,-11.230,-116.699
1688304141.765,18.066,-34.668,-46.387,-12.695,-136.230
1688304141.769,39.551,-42.969,-23.926,-20.020,-192.383
1688304141.773,15.137,-58.105,-13.672,-12.207,-95.703
1688304141.777,-15.625,-70.801,-22.461,14.160,195.312
1688304141.780,-26.855,-61.523,-43.457,7.324,158.691
1688304141.784,-4.883,-20.020,-61.523,-13.184,-153.320
1688304141.788,14.648,1.953,-33.691,-20.508,-182.129
1688304141.792,1.465,-21.484,-1.465,-1.953,-15.137
1688304141.796,-19.531,-58.105,4.883,26.855,-62.012
1688304141.782,-28.320,-71.289,-20.996,29.297,-151.367
1688304141.786,-1.953,-46.387,-40.527,2.441,-125.000
1688304141.790,19.043,-22.949,-23.926,-23.438,160.645
1688304141.794,-2.930,-13.672,-26.855,-53.711,87.891
1688304141.798,-54.688,-17.090,-40.527,-52.246,-136.230
1688304141.802,-48.340,-22.949,-40.039,-20.508,65.918
1688304141.806,-20.508,-24.414,-41.992,-38.086,98.633
1688304141.809,-12.695,-25.879,-53.223,-75.195,-24.902
1688304141.813,6.836,-30.273,-48.828,-44.922,-58.594
1688304141.817,-20.020,-33.691,-34.668,-9.277,-45.898
1688304141.821,-52.734,-39.062,-35.156,-33.691,315.918
1688304141.825,-14.648,-30.273,-44.434,-54.199,348.633
1688304141.842,13.184,3.906,-42.969,-41.504,-101.562
1688304141.846,-9.277,-0.488,-46.387,-51.758,-180.176
1688304141.850,-40.039,-32.715,-48.340,-58.105,-125.000
1688304141.854,-53.223,-18.066,-58.594,-38.574,-138.184
1688304141.858,-28.320,12.207,-62.500,-52.246,-127.441
1688304141.862,-10.254,-6.836,-35.645,-43.945,24.414
1688304141.866,-15.625,-40.039,-29.297,-12.207,-42.480
1688304141.869,-35.156,-46.875,-29.785,-0.977,-187.500
1688304141.873,-66.895,-37.598,-16.602,-51.758,-141.602
1688304141.877,-51.758,-37.598,-20.996,-89.844,96.680
1688304141.881,-1.465,-24.902,-30.273,-65.430,66.406
1688304141.885,3.418,-24.414,-29.785,-59.082,-126.953
1688304141.887,-24.414,-38.086,-34.668,-55.176,-84.961
1688304141.891,-35.645,-28.809,-37.109,-34.668,110.352
1688304141.895,-9.277,-27.344,-38.574,-30.762,11.719
1688304141.899,19.043,-40.039,-42.969,-25.391,-203.125
1688304141.903,13.184,-35.645,-34.180,-18.555,-107.422
1688304141.907,-5.371,-33.691,-25.391,-18.555,152.832
1688304141.911,-35.156,-47.852,-23.926,3.418,58.105
1688304141.914,-55.664,-33.203,-27.832,-16.113,-111.328
1688304141.918,-17.578,-19.531,-27.832,-21.484,-71.777
1688304141.922,10.742,-44.434,-15.625,-3.418,215.820
1688304141.926,-2.930,-55.664,-18.066,-11.719,139.648
1688304141.930,-42.480,-39.062,-29.785,-16.113,-88.867
1688304141.935,-64.941,19.043,-25.879,-29.785,-56.152
1688304141.939,-44.434,14.160,-31.250,-39.551,-79.590
1688304141.943,-18.555,-15.137,-41.016,-56.641,-163.574
1688304141.947,-14.648,-15.625,-41.016,-59.570,-239.746
1688304141.951,-40.527,-11.719,-35.645,-42.480,-19.043
1688304141.955,-61.035,-11.719,-27.344,-34.180,187.988
1688304141.959,-17.578,-32.227,-27.344,-30.273,1.465
1688304141.962,13.672,-42.480,-15.137,-10.742,-172.363
1688304141.966,-10.254,-27.344,-14.648,-4.395,71.777
1688304141.970,-43.945,-20.020,-22.461,-19.043,242.188
1688304141.974,-53.711,-26.855,-15.137,-21.484,-66.895
1688304141.978,-26.367,-66.406,-22.461,-24.902,-168.457
1688304141.977,16.113,-62.988,-28.809,-25.391,-115.723
1688304141.981,8.789,-30.762,-29.785,-28.809,-146.484
1688304141.985,-47.852,-23.438,-29.297,-19.043,-164.551
1688304141.989,-74.219,-32.227,-24.902,-29.785,-98.633
1688304141.993,-41.504,-19.043,-15.625,-23.438,14.648
1688304141.997,-18.066,-19.043,-20.996,-24.902,-0.977
1688304142.001,-17.578,-45.898,-40.527,-59.570,-98.145
1688304142.004,-45.898,-59.570,-34.668,-41.992,-88.379
1688304142.008,-67.871,-50.781,-19.043,-29.297,314.453
1688304142.012,-20.020,-45.898,-20.508,-28.320,339.844
1688304142.016,17.090,-64.941,-26.855,-26.855,-139.160
1688304142.020,-25.879,-38.086,-33.203,-52.246,-217.285
1688304142.023,-62.500,-2.930,-26.367,-41.992,-123.535
1688304142.027,-74.219,-16.602,-17.578,-9.766,-117.188
1688304142.031,-53.711,-42.480,-25.879,-12.695,-116.699
1688304142.035,-9.277,-29.297,-29.785,-14.160,-110.352
1688304142.039,2.930,-15.137,-17.090,-28.320,-85.938
1688304142.043,-33.203,-48.340,-28.809,-52.246,-39.062
1688304142.047,-73.730,-51.758,-45.410,-63.477,-19.531
1688304142.050,-65.430,-15.625,-37.109,-63.965,280.762
1688304142.054,-32.715,-2.930,-35.156,-62.500,381.348
1688304142.058,-6.836,-4.395,-30.273,-52.734,-89.355
1688304142.062,-22.949,-29.297,-13.184,-33.203,-142.090
1688304142.066,-63.965,-39.062,-17.578,-36.621,-29.785
1688304142.067,-52.246,-35.645,-26.855,-54.688,-135.254
1688304142.071,-7.812,-52.246,-25.391,-60.547,-184.082
1688304142.075,-13.184,-49.316,-26.367,-56.641,-162.109
1688304142.079,-31.738,-33.203,-26.367,-50.781,-83.008
1688304142.083,-54.199,-26.367,-30.273,-48.340,-37.109
1688304142.087,-45.898,-23.438,-38.086,-50.781,-20.508
1688304142.091,2.930,-25.391,-49.805,-34.668,55.664
1688304142.094,19.531,-34.180,-52.246,-14.648,352.051
1688304142.098,-19.043,-31.250,-43.457,-23.926,224.121
1688304142.102,-60.059,-25.391,-34.668,-5.371,-77.148
1688304142.106,-52.734,-27.344,-16.113,-21.484,-81.055
1688304142.110,-19.043,-10.742,-9.277,-60.059,-141.602
1688304142.113,-15.137,-11.719,-22.461,-54.199,-238.281
1688304142.117,-35.645,-27.832,-19.531,-31.250,-259.766
1688304142.121,-70.312,-38.086,-22.461,-11.230,-124.512
1688304142.125,-81.543,-41.504,-32.715,-28.809,-79.590
1688304142.129,-43.945,-34.180,-30.762,-74.707,-124.512
1688304142.133,-0.977,-23.926,-33.203,-70.801,-32.715
1688304142.137,-5.859,-36.133,-29.785,-22.461,176.270
1688304142.140,-62.988,-43.945,-20.996,-9.277,180.176
1688304142.144,-87.402,-29.785,-18.555,-29.297,-106.445
1688304142.148,-49.316,-29.785,-17.578,-33.691,-134.277
1688304142.152,-20.508,-35.156,-17.090,-61.523,-55.176
1688304142.156,-21.484,-37.109,-11.719,-59.570,-48.340
1688304142.158,-56.641,-42.480,-10.254,-49.805,-104.980
1688304142.162,-72.754,-48.340,-7.324,-40.039,-115.234
1688304142.166,-44.434,-48.340,-6.348,-24.902,43.457
1688304142.170,-34.668,-47.363,-14.648,-19.531,-112.305
1688304142.174,-42.969,-53.711,-12.695,-13.672,-229.492
1688304142.178,-72.754,-62.988,-14.160,-33.203,2.441
1688304142.182,-89.844,-64.453,-20.508,-18.555,314.941
1688304142.185,-51.270,-50.781,-18.066,-21.973,156.738
1688304142.189,-28.320,-42.969,-13.184,-31.738,-171.387
1688304142.193,-21.484,-44.434,-14.160,-20.508,-175.781
1688304142.197,-41.992,-43.945,-10.742,-24.414,-26.855
1688304142.201,-80.566,-52.734,-11.230,-9.766,-131.836
1688304142.218,-51.270,-62.012,-24.902,-21.484,-242.188
1688304142.222,-12.207,-40.527,-29.785,-51.758,-168.457
1688304142.226,-11.230,-15.137,-15.137,-33.691,-52.246
1688304142.230,-27.832,-17.578,-16.602,-18.555,-104.980
1688304142.234,-55.664,-19.531,-24.414,-12.207,-146.973
1688304142.238,-49.316,-23.926,-20.508,-4.395,161.621
1688304142.242,-16.113,-36.133,-24.414,-15.137,277.832
1688304142.245,5.371,-22.949,-22.949,-22.461,-126.465
1688304142.249,-1.953,-33.203,-13.184,-20.020,-180.664
1688304142.253,-39.062,-52.734,-19.531,-23.438,40.039
1688304142.257,-37.598,-31.250,-24.902,-40.039,-29.297
1688304142.261,-8.301,-29.297,-26.855,-43.457,-176.270
1688304142.262,-10.254,-24.414,-30.762,-38.574,-99.609
1688304142.266,-23.438,4.883,-24.414,-34.180,-24.902
1688304142.270,-41.504,7.812,-20.996,-15.625,-18.555
1688304142.274,-37.598,-28.809,-28.809,-4.883,-34.180
1688304142.278,-11.230,-51.270,-35.156,-15.137,47.852
1688304142.282,-4.883,-44.922,-35.156,-24.414,177.734
1688304142.286,-29.297,-27.832,-36.133,-30.762,92.285
1688304142.289,-58.594,-13.184,-35.645,-30.273,74.219
1688304142.293,-62.012,-15.625,-43.945,-28.320,122.559
1688304142.297,-28.320,-22.949,-45.898,-27.832,320.801
1688304142.301,7.324,-21.484,-29.785,-30.273,131.348
1688304142.305,-1.465,-19.043,-20.996,-39.551,-235.840
1688304142.308,-34.180,-18.555,-27.344,-20.508,-163.574
1688304142.312,-37.598,-26.855,-31.250,0.000,-114.258
1688304142.316,-9.277,-40.039,-36.133,-11.230,-160.645
1688304142.320,7.812,-30.762,-34.180,-60.547,-192.383
1688304142.324,-14.160,-12.207,-24.414,-83.984,-120.117
1688304142.328,-40.039,-11.719,-26.367,-58.594,55.176
1688304142.332,-61.035,-26.855,-21.973,-42.480,126.953
1688304142.335,-31.250,-39.062,-23.926,-36.133,-20.020
1688304142.339,4.883,-43.945,-30.273,-33.691,70.801
1688304142.343,-10.742,-23.438,-15.625,-8.789,322.266
1688304142.347,-54.688,-8.301,-14.648,-9.277,-21.484
1688304142.351,-77.637,-15.137,-22.949,-24.414,-137.207
1688304142.352,-39.551,-18.066,-25.879,-44.434,73.730
1688304142.356,-11.719,-16.113,-20.020,-77.637,-107.422
1688304142.360,-14.648,-24.414,-23.438,-74.219,-244.141
1688304142.364,-36.621,-38.086,-38.086,-40.527,-141.602
1688304142.368,-51.758,-51.758,-33.691,-9.277,-21.973
1688304142.372,-35.156,-49.805,-25.879,-19.043,-21.484
1688304142.376,-11.719,-26.367,-21.973,-23.438,-81.055
1688304142.379,-20.996,-13.672,-23.926,-23.438,27.344
1688304142.383,-49.316,-16.602,-31.250,-30.273,306.641
1688304142.387,-60.547,-20.996,-39.062,-38.086,319.336
1688304142.391,-33.691,-13.672,-39.551,-41.504,-36.133
1688304142.395,-18.066,-12.207,-29.297,-30.273,-178.711
1688304142.399,-22.461,-15.625,-26.367,-19.043,-100.098
1688304142.403,-33.691,-24.414,-31.738,-16.113,-173.828
1688304142.407,-66.406,-57.617,-31.250,-47.363,-141.602
1688304142.411,-62.500,-54.199,-24.414,-69.824,-68.848
1688304142.415,-30.762,-15.137,-28.809,-69.824,-114.258
1688304142.419,-27.344,-12.695,-33.203,-68.359,-119.629
1688304142.423,-36.133,-25.879,-25.391,-54.199,-42.480
1688304142.426,-45.898,-21.973,-21.484,-34.668,145.996
1688304142.430,-50.293,-13.672,-32.227,-29.785,215.820
1688304142.434,-28.809,-11.719,-31.250,-36.133,-90.332
1688304142.438,-16.113,-18.555,-25.391,-36.133,-149.902
1688304142.442,-32.227,-29.785,-27.344,-20.508,-10.254
1688304142.442,-63.965,-34.180,-31.738,-30.762,24.414
1688304142.446,-61.035,-33.203,-22.949,-49.805,-88.867
1688304142.450,-22.949,-37.598,-12.695,-55.664,-113.770
1688304142.454,-11.719,-22.949,-36.133,-55.664,-62.012
1688304142.458,-28.320,-9.277,-55.664,-50.293,-89.355
1688304142.462,-53.223,-26.367,-35.645,-42.969,-16.113
1688304142.466,-62.500,-39.551,-26.367,-31.738,-19.043
1688304142.469,-25.879,-40.039,-23.438,-12.695,333.496
1688304142.473,-3.418,-25.391,-25.391,-21.484,330.078
1688304142.477,-19.531,-16.602,-38.574,-50.781,-145.996
1688304142.481,-41.992,-25.391,-46.875,-48.340,-125.488
1688304142.485,-52.734,-17.578,-37.598,-35.645,-33.691
1688304142.502,-43.945,-22.949,-25.879,-33.203,-156.250
1688304142.506,-13.184,-41.992,-19.531,-18.066,-187.500
1688304142.510,-1.465,-24.414,-26.855,-18.555,9.277
1688304142.514,-29.785,-11.719,-34.180,-32.715,-1.465
1688304142.518,-50.781,-12.695,-25.391,-28.809,-101.074
1688304142.522,-42.480,-21.973,-19.043,-35.156,-42.480
1688304142.526,-16.113,-43.945,-19.043,-45.898,146.484
1688304142.529,-1.953,-33.203,-21.973,-37.598,267.578
1688304142.533,-50.293,-21.973,-36.133,-31.738,-76.172
1688304142.537,-78.613,-30.762,-39.551,-18.555,-177.246
1688304142.541,-47.852,-30.273,-25.391,-22.461,-71.289
1688304142.545,-16.113,-19.043,-16.602,-46.875,-137.695
1688304142.532,-6.836,-20.020,-19.531,-45.410,-139.648
1688304142.536,-26.855,-44.434,-17.578,-38.574,-90.820
1688304142.540,-64.941,-51.758,-24.414,-21.484,-21.484
1688304142.544,-45.410,-41.992,-27.344,-4.395,-39.062
1688304142.548,-7.324,-28.809,-32.227,-18.555,-188.965
1688304142.552,-10.742,-16.602,-43.457,-39.551,-70.801
1688304142.556,-35.156,-19.043,-36.621,-36.621,313.477
1688304142.559,-42.480,-20.508,-27.344,-29.297,201.172
1688304142.563,-37.109,-10.742,-22.461,-35.645,-67.383
1688304142.567,-15.625,-17.578,-26.367,-58.594,-95.215
1688304142.571,-6.348,-31.738,-26.367,-62.500,186.523
1688304142.575,-34.180,-44.434,-37.598,-41.504,-5.371
1688304142.593,-64.941,-66.406,-44.434,-30.762,-206.055
1688304142.597,-69.824,-54.199,-29.785,-30.273,-52.734
1688304142.601,-31.738,-22.461,-22.461,-33.691,-88.379
1688304142.605,1.465,-8.789,-23.926,-33.203,-218.750
1688304142.609,-23.438,-9.277,-30.273,-33.203,-172.363
1688304142.613,-62.988,-24.414,-34.180,-14.648,79.102
1688304142.617,-42.480,-34.668,-26.367,-31.250,89.355
1688304142.620,-13.184,-34.668,-22.949,-42.969,15.625
1688304142.624,-5.371,-39.062,-24.414,-29.785,-78.613
1688304142.628,-18.066,-44.434,-24.414,-24.414,118.652
1688304142.632,-55.664,-40.039,-38.574,-8.789,265.137
1688304142.636,-53.223,-29.297,-40.527,-7.812,-98.145
1688304142.637,-17.578,-23.926,-30.762,-30.273,-153.809
1688304142.641,8.301,-19.043,-31.738,-27.344,-98.633
1688304142.645,-8.301,-20.020,-24.414,-14.648,-166.504
1688304142.649,-44.922,-31.738,-25.879,-27.832,-165.039
1688304142.653,-52.246,-34.180,-44.922,-48.828,-66.895
1688304142.657,-22.949,-30.273,-39.551,-65.430,31.250
1688304142.661,5.371,-12.207,-19.043,-58.594,-50.293
1688304142.664,-14.160,-10.742,-22.461,-56.152,-69.336
1688304142.668,-49.805,-24.902,-43.945,-45.410,-8.789
1688304142.672,-51.270,-29.297,-51.270,-21.973,364.258
1688304142.676,-27.832,-18.555,-40.527,-48.340,295.898
1688304142.680,-0.488,-9.277,-33.691,-67.871,-201.172
1688304142.683,-4.395,-16.602,-39.062,-58.105,-261.230
1688304142.687,-50.781,-18.066,-36.621,-48.340,-158.203
1688304142.691,-74.707,-20.020,-37.598,-30.273,-79.102
1688304142.695,-38.574,-30.762,-46.875,-26.367,-66.895
1688304142.699,3.906,-39.062,-48.340,-17.578,-46.387
1688304142.703,1.953,-40.527,-25.391,1.465,31.250
1688304142.707,-24.902,-39.062,-7.324,-11.230,39.551
1688304142.710,-55.664,-30.273,-17.578,-41.992,-55.664
1688304142.714,-40.039,-22.949,-22.949,-43.457,93.750
1688304142.718,-8.301,-2.441,-25.391,-42.480,123.047
1688304142.722,-3.906,-8.789,-35.156,-39.551,-178.711
1688304142.726,-23.926,-36.621,-35.645,-27.832,-135.742
1688304142.727,-64.453,-23.926,-20.508,-10.742,147.461
1688304142.731,-58.594,-36.621,-21.973,-2.441,-8.789
1688304142.735,-12.695,-39.062,-43.945,-22.949,-242.188
1688304142.739,-12.695,-3.418,-44.434,-59.570,-164.551
1688304142.743,-30.273,4.883,-29.297,-65.430,39.551
1688304142.747,-50.781,-21.484,-29.297,-45.898,70.312
1688304142.751,-44.434,-36.621,-17.578,-27.832,53.223
1688304142.754,-3.906,-5.859,-7.812,-42.480,48.828
1688304142.758,6.348,-7.812,-38.574,-55.176,245.117
1688304142.762,5.371,-25.391,-37.598,-27.344,166.504
1688304142.766,-34.668,-32.227,8.789,-20.508,-138.672
1688304142.770,-88.379,-37.598,-2.930,-64.941,-107.422
1688304142.773,-72.754,-30.273,-30.273,-89.844,-120.117
1688304142.777,-47.852,-30.273,-40.527,-87.402,-246.094
1688304142.781,-59.570,-17.090,-37.109,-68.359,-204.102
1688304142.785,-85.938,-28.320,-31.738,-58.105,38.574
1688304142.789,-129.883,-60.547,-32.227,-89.844,29.785
1688304142.793,-98.145,-66.406,-24.414,-83.008,-53.223
1688304142.797,-32.715,-59.570,-17.090,-40.527,-24.414
1688304142.800,-44.922,-30.273,-3.418,-45.410,101.074
1688304142.804,-112.305,-29.297,25.879,-64.941,169.922
1688304142.808,-125.488,-39.062,5.859,-92.285,-49.805
1688304142.812,-69.336,-33.691,-26.855,-103.516,-123.047
1688304142.816,-25.391,-39.062,-42.480,-69.336,-82.520
1688304142.820,-18.066,-40.527,-46.387,-39.062,-156.738
1688304142.824,-53.711,-26.367,-27.344,-24.902,-174.805
1688304142.828,-81.543,-21.484,-10.742,-35.156,-96.191
1688304142.832,-51.758,-18.066,-8.301,-43.945,-58.594
1688304142.836,-16.602,-20.996,-15.137,-60.547,-64.453
1688304142.840,-15.137,-32.715,-20.020,-61.523,-6.348
1688304142.844,-25.391,-38.086,-33.691,-55.664,64.453
1688304142.847,-38.574,-46.387,-39.551,-41.992,383.789
1688304142.851,-34.668,-48.340,-33.691,-42.480,330.566
1688304142.855,-4.395,-30.273,-41.016,-53.223,-115.234
1688304142.859,10.742,-16.113,-53.711,-37.109,-117.676
1688304142.863,-24.414,-28.320,-38.574,-38.574,119.141
1688304142.864,-62.500,-31.738,-20.996,-45.898,-59.570
1688304142.868,-46.875,-20.996,-26.855,-34.668,-164.062
1688304142.872,-3.906,-24.902,-20.020,-30.273,-104.004
1688304142.876,8.301,-42.969,-23.438,-27.832,-158.691
1688304142.880,-15.625,-41.504,-40.039,-22.461,-147.461
1688304142.884,-75.195,-28.809,-32.715,-43.945,-27.832
1688304142.888,-68.359,-40.039,-25.391,-53.711,122.559
1688304142.891,-26.855,-37.598,-31.738,-57.129,138.672
1688304142.895,-8.301,-8.789,-30.273,-56.152,-130.371
1688304142.899,-14.160,-10.742,-24.414,-29.297,-132.812
1688304142.903,-42.969,-25.879,-39.062,-14.160,127.441
1688304142.907,-29.785,-16.113,-43.457,-17.090,18.555
1688304142.908,1.953,-12.695,-35.156,-39.551,-159.180
1688304142.912,-2.930,-22.949,-14.648,-59.570,-108.887
1688304142.916,-21.484,-31.250,-11.230,-47.363,-87.891
1688304142.920,-44.434,-31.250,-24.414,-35.156,-95.703
1688304142.924,-43.945,-43.945,-37.598,-31.250,-110.352
1688304142.928,-14.648,-38.086,-39.551,-62.012,-14.648
1688304142.932,5.371,-16.113,-35.156,-65.918,343.750
1688304142.935,-18.555,-24.902,-43.945,-41.992,209.473
1688304142.939,-65.918,-35.645,-45.898,-36.133,-114.746
1688304142.943,-80.078,-20.508,-21.973,-32.227,-63.477
1688304142.947,-46.387,-9.766,-17.090,-35.645,220.703
1688304142.951,-24.414,-3.418,-33.203,-67.871,-45.410
1688304142.968,-41.504,-1.953,-37.598,-82.520,-295.410
1688304142.972,-71.289,-15.137,-33.203,-53.223,-127.441
1688304142.976,-75.195,-22.461,-19.531,-40.039,-35.156
1688304142.980,-38.574,-16.602,-11.230,-38.086,-128.906
1688304142.984,-8.789,-3.906,-27.344,-49.805,-225.586
1688304142.988,-24.414,-24.902,-39.551,-39.551,74.219
1688304142.992,-83.496,-43.457,-44.434,-27.344,346.680
1688304142.995,-107.910,-21.484,-43.945,-35.645,-27.832
1688304142.999,-64.941,-20.508,-32.715,-33.203,-218.750
1688304143.003,-29.297,-63.965,-35.645,-34.668,-60.059
1688304143.007,-13.184,-52.246,-32.227,-26.855,-106.934
1688304143.011,-33.203,-17.090,-26.855,-16.602,-199.219
1688304143.012,-65.430,-24.902,-30.762,0.000,-73.242
1688304143.016,-39.551,-28.320,-19.531,16.113,110.352
1688304143.020,4.395,-24.414,-13.184,-10.254,-51.758
1688304143.024,9.766,-24.414,-34.180,-42.480,-178.711
1688304143.028,-58.105,-23.926,-34.180,-31.250,-73.730
1688304143.032,-80.078,-32.715,-16.602,-26.367,76.660
1688304143.036,-41.016,-27.832,-37.598,-33.203,54.199
1688304143.039,-20.996,-13.184,-50.781,-29.785,-100.098
1688304143.043,-12.695,-35.156,-29.297,-43.457,-86.426
1688304143.047,-11.719,-43.457,-19.043,-28.320,277.344
1688304143.051,-51.758,-27.344,-11.719,-28.809,148.438
1688304143.055,-48.828,-30.273,-18.555,-48.340,-191.406
1688304143.058,0.977,-17.578,-20.020,-45.410,-184.570
1688304143.062,22.461,0.977,-16.113,-46.387,-187.500
1688304143.066,-1.953,-5.859,-25.391,-27.832,-205.078
1688304143.070,-57.617,-26.367,-42.969,-22.949,-88.867
1688304143.074,-56.152,-34.668,-48.340,-21.484,56.641
1688304143.078,-2.441,-25.879,-29.785,-17.578,70.801
1688304143.082,3.906,-22.949,-21.484,-24.414,-55.664
1688304143.085,-30.762,-22.949,-22.949,-29.785,-114.746
1688304143.089,-57.129,-20.996,-13.184,-24.414,165.039
1688304143.093,-52.246,-16.602,-21.973,-21.484,256.348
1688304143.097,-18.066,-15.625,-37.598,-17.578,-113.770
1688304143.101,1.465,-17.090,-37.109,-27.344,-174.805
1688304143.102,-1.465,-8.301,-38.086,-22.461,-64.453
1688304143.106,-37.109,-5.859,-45.410,-28.809,-70.801
1688304143.110,-61.035,-29.785,-48.340,-38.574,-118.164
1688304143.114,-16.113,-44.922,-25.391,-58.594,-122.559
1688304143.118,14.160,-36.133,-10.254,-55.176,-55.176
1688304143.122,1.465,-26.367,-21.484,-35.645,10.254
1688304143.126,-37.598,-20.508,-33.203,-56.152,12.207
1688304143.129,-51.270,-24.414,-45.410,-45.410,109.375
1688304143.133,-22.461,-36.621,-42.480,-24.902,394.043
1688304143.137,1.953,-22.949,-28.809,-38.574,347.168
1688304143.141,-1.465,-5.371,-28.320,-30.762,-140.625
1688304143.145,-30.762,-15.137,-23.926,-22.949,-211.426
1688304143.148,-61.523,-32.715,-14.160,-28.320,-81.055
1688304143.152,-41.992,-33.691,-25.391,-53.711,-162.598
1688304143.156,-13.184,-20.996,-35.156,-64.941,-193.848
1688304143.160,-9.766,-11.230,-26.367,-46.875,-117.676
1688304143.164,-37.109,-7.324,-33.691,-26.855,-81.055
1688304143.168,-53.711,-5.859,-42.969,-25.879,79.102
1688304143.172,-19.531,-9.766,-39.551,-20.020,56.152
1688304143.175,0.000,-35.156,-43.457,-22.461,38.086
1688304143.179,-8.789,-35.156,-36.621,-11.719,140.625
1688304143.183,-29.297,-25.391,-22.461,-3.906,-123.047
1688304143.187,-56.641,-38.574,-26.367,-17.090,-115.723
1688304143.191,-27.832,-32.715,-34.180,-22.949,106.445
1688304143.192,13.672,-21.973,-39.062,-40.527,-114.746
1688304143.196,2.930,-19.043,-34.668,-61.035,-264.160
1688304143.200,-31.250,-24.902,-34.668,-23.926,-134.277
1688304143.204,-55.664,-44.922,-46.387,-0.977,-36.621
1688304143.208,-58.105,-34.668,-33.691,-3.418,-48.828
1688304143.212,-22.949,-12.695,-10.742,-17.578,-65.918
1688304143.216,-2.930,-27.832,-12.207,-56.152,47.363
1688304143.219,-10.742,-39.062,-13.184,-22.461,435.547
1688304143.223,-34.180,-17.578,-45.410,-5.859,336.426
1688304143.227,-50.781,-23.926,-67.871,-58.594,-109.375
1688304143.231,-14.648,-21.484,-30.762,-70.801,-148.438
1688304143.235,-1.465,-9.766,-18.066,-66.406,-114.258
1688304143.239,-31.250,-21.973,-35.645,-69.336,-173.828
1688304143.243,-42.969,-23.438,-39.062,-34.668,-157.227
1688304143.247,-26.367,-23.926,-26.855,-15.625,-68.848
1688304143.251,1.465,-31.250,-29.297,-39.062,-105.957
1688304143.255,16.602,-27.344,-28.809,-44.922,-216.797
1688304143.259,-9.277,-23.926,-31.250,-27.832,-119.629
1688304143.263,-55.664,-34.668,-33.691,-39.062,159.668
1688304143.266,-75.195,-39.551,-18.555,-40.039,252.441
1688304143.270,-43.945,-18.555,-11.719,-56.152,-81.055
1688304143.274,-4.883,-10.742,-24.414,-58.105,-240.723
1688304143.278,-21.484,-28.320,-39.062,-32.227,-158.203
1688304143.282,-62.500,-41.504,-26.855,-18.555,-109.863
1688304143.283,-67.383,-37.598,-21.973,-22.949,-95.215
1688304143.287,-25.391,-23.438,-19.531,-30.762,61.035
1688304143.291,0.000,-32.715,-12.207,-37.598,160.645
1688304143.295,-7.812,-34.180,-16.602,-30.273,-69.824
1688304143.299,-25.879,-13.672,-9.766,-3.906,-113.281
1688304143.303,-47.852,-37.598,-19.043,1.465,34.668
1688304143.307,-34.180,-50.293,-31.738,0.977,301.270
1688304143.310,18.555,-7.812,-25.879,-10.742,165.527
1688304143.314,19.043,8.789,-25.879,-40.527,-168.457
1688304143.318,-30.762,-1.953,-45.898,-46.875,-69.336
1688304143.322,-58.105,-2.441,-37.109,-49.316,197.754
1688304143.326,-37.109,-1.465,-16.602,-60.059,-59.082
1688304143.343,-3.418,0.488,-17.578,-47.363,-255.371
1688304143.347,17.090,0.000,-27.832,-30.762,-167.480
1688304143.351,-21.973,-29.297,-26.855,-31.250,-65.918
1688304143.355,-63.965,-33.203,-33.203,-24.414,-7.324
1688304143.359,-34.668,-11.230,-49.316,-15.137,-100.098
1688304143.363,-5.859,-18.555,-33.691,-21.973,90.820
1688304143.367,-5.859,-16.113,-27.344,-44.434,249.023
1688304143.370,-20.508,-5.859,-45.410,-54.688,-158.691
1688304143.374,-51.758,-19.531,-39.551,-51.758,-222.168
1688304143.378,-39.062,-35.156,-20.020,-54.688,51.270
1688304143.382,6.348,-36.133,-20.508,-70.312,-17.578
1688304143.386,15.625,-37.109,-31.738,-53.223,-152.344
1688304143.387,-7.812,-36.133,-34.668,-21.973,-78.125
1688304143.391,-48.340,-23.926,-26.367,-17.090,-15.625
1688304143.395,-51.758,-6.348,-18.555,-35.156,0.488
1688304143.399,-13.184,-11.230,-30.273,-46.875,-81.055
1688304143.403,3.418,-39.062,-35.156,-45.410,-145.996
1688304143.407,-20.020,-43.457,-32.715,-39.551,53.223
1688304143.411,-52.246,-32.715,-25.391,-32.715,148.438
1688304143.414,-46.387,-33.203,-30.762,-29.785,30.273
1688304143.418,-3.418,-28.320,-38.574,-28.320,-68.848
1688304143.422,10.742,-53.711,-34.180,-19.531,227.539
1688304143.426,-21.484,-37.109,-27.832,-38.086,245.117
1688304143.430,-69.824,8.789,-19.531,-42.480,-101.074
1688304143.433,-60.547,-1.465,-25.879,-18.066,-81.543
1688304143.437,-4.883,-22.461,-30.273,-13.184,-50.293
1688304143.441,29.297,-19.531,-16.113,-24.414,-149.414
1688304143.445,-6.836,-9.766,-11.230,-23.926,-155.273
1688304143.449,-63.965,-29.785,-27.832,-24.902,-27.832
1688304143.453,-76.660,-50.293,-30.762,-21.973,60.059
1688304143.457,-44.922,-29.785,-23.438,-11.719,41.504
1688304143.460,-2.930,-6.348,-29.785,-23.438,-143.066
1688304143.464,0.488,-35.156,-40.039,-47.852,15.625
1688304143.468,-31.738,-49.316,-36.133,-53.223,320.801
1688304143.472,-45.410,-23.438,-10.742,-39.062,-9.277
1688304143.476,-5.371,-20.020,-9.277,-45.898,-145.020
1688304143.477,10.254,-13.184,-32.227,-62.500,-84.961
1688304143.481,-9.277,-7.812,-28.809,-46.875,-184.082
1688304143.485,-41.504,-22.949,-16.113,-19.043,-187.012
1688304143.489,-57.617,-57.129,-22.461,-22.461,-96.680
1688304143.493,-31.738,-43.945,-35.156,-42.480,-55.664
1688304143.497,3.418,-16.113,-28.320,-40.527,-72.754
1688304143.501,6.836,-24.902,-21.973,-27.832,-86.914
1688304143.504,-19.043,-42.480,-48.340,-20.508,42.969
1688304143.508,-26.367,-42.969,-55.664,-2.930,411.621
1688304143.512,-7.812,-22.461,-39.062,-4.395,291.016
1688304143.516,9.277,0.488,-16.602,-19.043,-172.852
1688304143.520,6.348,9.277,-1.953,-17.578,-166.992
1688304143.523,-13.672,-6.348,-21.973,-19.043,-58.594
1688304143.527,-40.039,-34.668,-23.438,-0.977,-120.605
1688304143.531,-21.973,-19.043,-41.504,27.344,-200.195
1688304143.535,1.465,-18.555,-24.902,12.695,-219.238
1688304143.539,12.207,-87.891,-1.465,0.000,-174.805
1688304143.543,-25.879,-65.430,6.348,-14.648,-47.852
1688304143.547,-84.961,3.906,14.648,-67.871,56.152
1688304143.550,-74.219,14.160,5.371,-65.918,73.730
1688304143.554,-34.668,1.953,-0.977,-57.617,-44.434
1688304143.558,-7.812,-24.414,-20.996,-51.758,-216.797
1688304143.562,-17.090,-56.152,-32.227,-21.973,-118.652
1688304143.566,-48.340,-67.871,-51.270,-6.348,109.375
1688304143.568,-46.875,-29.785,-55.176,-24.414,20.996
1688304143.572,-12.207,-8.301,-30.273,-55.176,-154.297
1688304143.576,-1.465,-14.648,-11.719,-48.340,-81.543
1688304143.580,-18.555,-29.785,-2.930,-39.062,26.855
1688304143.584,-39.062,-28.809,-4.883,-18.555,37.109
1688304143.588,-45.410,-14.648,-23.926,-7.324,116.699
1688304143.592,-28.320,-41.992,-59.082,-38.574,121.582
1688304143.595,-8.789,-58.594,-59.570,-49.316,316.406
1688304143.599,-22.949,-24.902,-24.902,-39.551,351.562
1688304143.603,-52.734,-9.277,-22.949,-37.598,-30.762
1688304143.607,-73.242,-20.020,-14.648,-46.875,-107.422
1688304143.611,-42.969,-25.879,-13.672,-58.105,-86.914
1688304143.626,-5.859,-19.531,-22.461,-53.711,-220.215
1688304143.630,-25.391,-16.602,-20.996,-41.504,-265.137
1688304143.634,-59.082,-28.809,-23.926,-27.344,-125.488
1688304143.638,-57.129,-27.832,-28.320,-20.020,-46.387
1688304143.642,-6.348,-16.602,-30.273,-24.414,-16.113
1688304143.646,9.277,-19.043,-23.438,-37.109,-83.984
1688304143.650,-27.344,-24.414,-14.160,-40.039,50.293
1688304143.653,-62.500,-38.574,-27.344,-34.180,319.824
1688304143.657,-70.801,-34.180,-42.969,-44.434,4.395
1688304143.661,-38.086,-21.484,-21.973,-40.039,-233.398
1688304143.665,-8.301,-18.555,-15.137,-40.527,-137.207
1688304143.669,5.859,-8.789,-20.020,-38.574,-139.160
1688304143.657,-16.113,-0.488,-23.438,-39.551,-183.105
1688304143.661,-48.340,-13.184,-34.180,-40.039,-51.270
1688304143.665,-28.320,-35.645,-36.133,-24.414,107.422
1688304143.669,9.277,-18.066,-36.133,-39.551,-71.289
1688304143.673,7.324,-5.859,-34.180,-36.133,-217.773
1688304143.677,-24.902,-11.719,-41.016,-21.484,2.441
1688304143.681,-37.109,-10.742,-51.758,-38.086,357.910
1688304143.684,-27.832,-10.742,-56.641,-29.297,139.160
1688304143.688,-12.207,-11.230,-53.711,-54.688,-118.164
1688304143.692,1.953,-5.859,-32.227,-59.082,-105.469
1688304143.696,-17.090,-13.184,-2.930,-23.438,205.566
1688304143.700,-48.340,-27.344,2.441,-30.273,142.578
1688304143.731,-34.668,-39.551,-6.348,-37.109,-121.094
1688304143.735,-3.906,-27.344,-16.113,-37.598,-79.102
1688304143.739,3.906,-11.719,-21.484,-42.969,-115.723
1688304143.743,-12.207,-24.414,-35.156,-41.016,-191.406
1688304143.747,-32.715,-50.293,-52.734,-11.230,-180.176
1688304143.751,-28.809,-43.945,-50.781,2.441,57.617
1688304143.755,-21.484,-18.555,-42.480,-25.391,9.277
1688304143.758,-8.789,-44.922,-15.625,-46.387,-169.434
1688304143.762,-13.184,-34.180,-18.555,-30.762,-157.715
1688304143.766,-38.086,-29.297,-68.359,12.207,225.586
1688304143.770,-41.504,-30.273,-47.852,-15.137,330.078
1688304143.774,-15.625,9.766,-22.949,-56.152,-133.789
1688304143.762,-3.906,20.996,-50.781,-44.922,-209.473
1688304143.766,-6.348,-4.395,-28.320,-44.434,-52.734
1688304143.770,-51.758,-42.480,24.414,-57.617,-17.578
1688304143.774,-59.082,-17.090,16.602,-49.805,-82.520
1688304143.778,-20.020,-7.812,-11.230,-42.969,-96.680
1688304143.782,-6.348,-38.086,-9.277,-32.715,-4.883
1688304143.786,-20.020,-44.434,-16.602,-21.484,-6.348
1688304143.789,-47.852,-33.691,-53.711,-43.945,-33.203
1688304143.793,-62.988,-51.758,-62.012,-49.805,24.902
1688304143.797,-43.457,-40.039,-43.945,-49.805,55.176
1688304143.801,-24.902,-8.789,-41.504,-55.176,-140.137
1688304143.805,-20.508,-43.945,-9.277,-33.203,-246.582
1688304143.808,-51.758,-80.566,10.742,-12.207,-59.082
1688304143.812,-85.938,-52.246,-4.395,-35.156,324.219
1688304143.816,-53.711,-3.418,-10.742,-56.152,79.590
1688304143.820,-19.531,-3.906,-34.180,-53.711,-255.371
1688304143.824,-17.578,-42.480,-74.219,-40.039,-118.164
1688304143.828,-22.461,-43.457,-44.922,-3.906,27.832
1688304143.832,-53.711,-46.387,8.301,-14.160,18.066
1688304143.835,-51.270,-61.035,7.812,-43.945,-81.543
1688304143.839,-13.672,-65.918,-6.348,-39.062,37.598
1688304143.843,-17.578,-49.316,-24.414,-30.762,68.848
1688304143.847,-44.434,-30.762,-33.203,-33.203,-164.551
1688304143.851,-62.012,-46.387,-23.438,-31.738,-135.254
1688304143.853,-30.762,-43.945,-34.180,-26.367,-83.008
1688304143.857,-3.418,-25.879,-56.641,-41.504,-146.973
1688304143.861,-7.812,-17.090,-46.387,-39.062,-192.383
1688304143.865,-41.992,-27.832,-28.320,-30.273,-134.766
1688304143.869,-72.754,-49.805,-5.859,-46.875,129.883
1688304143.873,-52.246,-53.223,-9.766,-45.410,74.707
1688304143.877,-31.250,-28.809,-28.809,-36.133,-74.707
1688304143.880,-14.648,-19.043,-23.926,-26.855,8.789
1688304143.884,-19.043,-34.668,-32.715,-0.977,290.039
1688304143.888,-54.688,-22.461,-52.246,2.930,259.277
1688304143.892,-56.641,-7.324,-39.551,-20.020,-127.930
1688304143.896,-20.508,-5.859,-17.090,-48.828,-195.312
1688304143.898,-4.883,-14.648,-4.395,-57.617,-121.094
1688304143.902,-27.832,-34.180,-14.648,-37.109,-160.156
1688304143.906,-69.336,-47.363,-40.527,-37.109,-124.512
1688304143.910,-62.012,-59.082,-44.922,-36.621,-35.645
1688304143.914,-17.578,-50.781,-47.852,-40.527,2.441
1688304143.918,-8.301,-14.648,-38.086,-40.039,-44.434
1688304143.922,-29.785,-12.207,-19.531,-41.016,-149.902
1688304143.925,-51.270,-26.855,-21.484,-22.949,125.000
1688304143.929,-59.570,-22.949,-25.391,-10.742,452.637
1688304143.933,-32.227,-18.555,-20.020,-41.504,10.742
1688304143.937,-5.859,-21.973,-26.855,-34.668,-218.262
1688304143.941,-13.672,-37.109,-34.180,-19.531,-95.703
1688304143.942,-40.039,-54.199,-38.574,-16.113,-112.305
1688304143.946,-68.359,-47.363,-38.574,-30.762,-107.910
1688304143.950,-46.387,-28.320,-28.320,-41.992,-71.777
1688304143.954,-23.926,-9.766,-23.926,-41.016,-113.281
1688304143.958,-38.086,0.488,-12.695,-36.621,-92.285
1688304143.962,-74.707,-9.766,-18.555,-30.273,42.480
1688304143.966,-80.566,-22.461,-36.133,-27.344,64.453
1688304143.969,-36.621,-29.785,-48.828,-33.203,346.680
1688304143.973,-14.160,-33.203,-43.945,-29.297,340.820
1688304143.977,-20.508,-27.832,-19.531,-35.156,-145.020
1688304143.981,-44.922,-29.297,-13.672,-31.738,-190.918
1688304143.985,-64.941,-26.367,-22.461,-23.926,-38.086
1688304143.988,-33.691,-27.832,-28.320,-33.691,-89.355
1688304143.992,-8.301,-29.785,-30.762,-40.039,-210.938
1688304143.996,4.883,-20.508,-20.508,-35.645,-184.082
1688304144.000,-18.555,-15.625,-11.719,-19.531,-123.535
1688304144.004,-41.016,-29.297,-22.461,-11.719,-62.988
1688304144.008,-27.344,-30.762,-18.555,-34.180,-0.488
1688304144.012,-16.113,-25.391,-14.160,-62.012,108.887
1688304144.015,-16.602,-16.113,-23.926,-53.223,135.254
1688304144.019,-40.527,-8.301,-22.461,-25.391,-73.730
1688304144.023,-66.406,-16.602,-20.508,-19.043,45.898
1688304144.027,-58.594,-24.414,-45.410,-28.809,189.941
1688304144.031,-34.668,-33.203,-44.434,-25.879,-89.844
1688304144.032,-23.926,-30.762,-21.484,-20.508,-309.570
1688304144.036,-39.551,-38.086,-19.531,-31.250,-180.664
1688304144.040,-65.430,-40.527,-24.414,-31.738,15.137
1688304144.044,-55.176,-26.367,-29.785,-35.156,-7.324
1688304144.048,-18.066,-25.879,-19.531,-46.387,-192.383
1688304144.052,-1.953,-19.531,-22.949,-50.293,-131.348
1688304144.056,-20.020,-22.949,-28.320,-31.738,346.191
1688304144.059,-51.758,-29.785,-25.391,-30.273,248.535
1688304144.063,-43.945,-25.391,-34.180,-54.199,-128.906
1688304144.067,-15.625,-41.016,-26.367,-49.805,-86.426
1688304144.071,-1.953,-39.062,-16.602,-32.227,31.250
1688304144.075,-9.277,-21.484,-39.062,-36.621,-104.004
1688304144.092,-38.574,-20.996,-38.574,-29.297,-136.719
1688304144.096,-43.945,-23.926,-21.973,-21.484,-6.836
1688304144.100,0.488,-4.395,-28.809,-27.344,5.371
1688304144.104,24.414,-0.488,-20.508,-31.738,-163.086
1688304144.108,-10.742,-19.531,-6.836,-21.973,-179.199
1688304144.112,-34.668,-43.457,-6.348,-16.113,55.664
1688304144.116,-29.785,-52.246,-10.254,-22.461,110.352
1688304144.119,-10.254,-43.945,-33.203,-31.250,-97.656
1688304144.123,13.672,-49.316,-50.293,-27.832,-203.125
1688304144.127,20.996,-53.711,-34.180,-23.438,-1.465
1688304144.131,-20.996,-62.500,-14.160,-22.461,35.645
1688304144.135,-51.270,-39.551,-23.438,-17.578,-136.719
1688304144.138,-17.090,-0.977,-43.945,-5.859,-109.375
1688304144.142,5.859,-4.883,-38.086,-8.789,-118.164
1688304144.146,-13.672,-12.695,-19.043,-27.832,-84.473
1688304144.150,-37.109,-12.207,-11.719,-35.156,-62.012
1688304144.154,-42.969,-20.996,-16.113,-21.973,34.180
1688304144.158,-18.066,-49.805,-12.695,-22.949,343.750
1688304144.162,3.906,-52.734,-20.508,-42.969,132.324
1688304144.165,-0.977,-23.438,-35.645,-51.758,-114.746
1688304144.169,-23.926,-21.484,-27.832,-38.086,-30.273
1688304144.173,-40.527,-35.156,-25.391,-17.090,262.695
1688304144.177,-28.320,-24.902,-44.434,-26.367,91.309
1688304144.181,-5.371,-24.902,-41.016,-46.387,-229.492
1688304144.183,-3.418,-27.832,-19.043,-35.645,-216.309
1688304144.187,-25.391,-20.508,-16.602,-19.043,-138.184
1688304144.191,-57.617,-37.109,-24.902,-41.016,-63.965
1688304144.195,-46.387,-37.598,-23.926,-44.434,-81.543
1688304144.199,-7.324,-18.555,-25.879,-42.480,-73.730
1688304144.203,-8.301,-15.625,-26.855,-53.223,-34.180
1688304144.207,-24.414,-40.039,-37.598,-35.645,-10.254
1688304144.210,-44.922,-49.805,-57.129,-30.762,-2.441
1688304144.214,-36.133,-30.273,-54.688,-29.297,162.109
1688304144.218,1.465,-25.391,-33.203,-32.715,293.945
1688304144.222,-1.953,-23.438,-18.066,-38.574,-67.383
1688304144.226,-16.602,-29.297,-23.926,-38.086,-182.617
1688304144.226,-27.344,-38.086,-44.922,-29.297,-36.621
1688304144.230,-38.086,-24.414,-54.199,-31.738,-73.730
1688304144.234,-16.113,-20.020,-32.715,-51.758,-190.430
1688304144.238,0.977,-25.391,-15.137,-55.176,-206.055
1688304144.242,-28.320,-35.645,-28.320,-28.809,-86.426
1688304144.246,-58.594,-26.367,-38.086,-16.113,50.781
1688304144.250,-57.617,-30.273,-39.551,-24.414,83.008
1688304144.253,-16.113,-36.621,-41.016,-37.598,9.766
1688304144.257,12.695,-34.180,-38.086,-27.832,298.828
1688304144.261,1.465,-39.551,-24.414,-9.766,344.727
1688304144.265,-20.996,-17.090,-20.996,-19.531,-71.777
1688304144.269,-22.461,-4.883,-25.391,-13.672,-77.637
1688304144.273,-1.953,-9.766,-27.344,-7.812,-34.668
1688304144.277,11.230,-9.277,-23.926,-26.367,-242.676
1688304144.281,0.000,-15.137,-14.648,-36.621,-260.254
1688304144.285,-30.762,-23.438,-20.508,-35.645,-96.191
1688304144.289,-53.223,-20.020,-34.668,-39.551,-35.645
1688304144.293,-28.320,-20.508,-32.715,-42.969,-56.641
1688304144.297,-3.906,-22.461,-25.879,-43.457,-62.988
1688304144.300,-1.953,-30.273,-19.043,-17.090,45.898
1688304144.304,-25.879,-31.738,-24.414,-22.461,84.961
1688304144.308,-39.551,-23.926,-26.367,-29.785,-40.039
1688304144.312,-12.207,-29.297,-27.832,-30.273,-68.359
1688304144.316,-4.395,-32.715,-33.203,-42.969,32.227
1688304144.316,-5.371,-20.020,-31.250,-25.879,-46.875
1688304144.320,-34.180,-32.715,-38.574,-24.414,-178.223
1688304144.324,-50.293,-29.297,-37.598,-23.926,-47.852
1688304144.328,-31.250,-17.578,-27.832,-27.832,140.137
1688304144.332,-19.043,-21.973,-33.691,-49.805,-88.379
1688304144.336,-16.113,-24.902,-24.414,-36.621,-196.289
1688304144.340,-33.203,-31.738,-28.809,-13.672,68.848
1688304144.343,-50.781,-36.133,-48.828,-13.184,478.027
1688304144.347,-40.039,-20.020,-43.457,-21.484,339.844
1688304144.351,-14.160,-18.555,-36.621,-36.133,-193.359
1688304144.355,-21.484,-38.086,-30.273,-42.969,-240.234
1688304144.359,-40.527,-33.203,-19.531,-21.973,-62.988
1688304144.363,-53.711,-18.555,-26.367,-20.508,-27.832
1688304144.367,-38.086,-20.508,-34.668,-42.969,-98.633
1688304144.371,-7.324,-46.387,-31.250,-39.062,-136.719
1688304144.375,4.395,-38.086,-40.039,-34.180,-150.879
1688304144.379,-16.602,-3.906,-43.457,-34.668,-192.383
1688304144.383,-56.152,-6.348,-18.555,-20.020,-57.129
1688304144.387,-51.270,-21.484,-15.137,-29.785,190.918
1688304144.390,-25.391,-20.508,-18.555,-56.641,165.527
1688304144.394,-12.695,-19.043,-14.160,-72.266,-194.336
1688304144.398,-20.996,-28.320,-18.555,-50.781,-225.098
1688304144.402,-48.828,-27.344,-19.531,-23.926,-57.617
1688304144.406,-58.594,-28.809,-30.762,-22.949,2.441
1688304144.407,-26.367,-39.062,-49.316,-40.039,-97.656
1688304144.411,-5.371,-35.645,-52.734,-31.250,-187.012
1688304144.415,-9.277,-38.086,-42.480,-33.203,-100.098
1688304144.419,-35.645,-43.945,-25.391,-35.645,-8.301
1688304144.423,-48.340,-31.738,-17.090,-23.438,-9.277
1688304144.427,-30.273,-35.156,-30.762,-26.367,43.945
1688304144.431,-11.230,-47.852,-35.156,-34.180,366.211
1688304144.434,1.465,-30.762,-20.020,-21.973,261.719
1688304144.438,-28.809,-19.043,-15.625,-3.418,-109.863
1688304144.442,-62.012,-22.949,-30.762,-0.488,-38.574
1688304144.446,-22.949,-28.320,-40.527,-27.832,106.445
1688304144.450,12.207,-21.973,-36.133,-53.223,-71.777
1688304144.468,-12.695,-23.438,-26.367,-41.992,-243.164
1688304144.472,-38.086,-29.297,-20.996,-14.648,-157.227
1688304144.476,-39.062,-27.344,-32.227,-6.348,-75.195
1688304144.480,-21.973,-22.461,-32.715,-28.320,-122.070
1688304144.484,-8.301,-19.531,-16.602,-49.316,-146.973
1688304144.488,-12.695,-23.926,-5.859,-60.059,-18.555
1688304144.492,-34.180,-18.555,-12.207,-45.410,122.070
1688304144.495,-47.852,-14.648,-20.996,-18.066,67.383
1688304144.499,-25.391,-23.926,-15.137,-21.484,-91.309
1688304144.503,9.277,-31.250,-20.020,-35.645,38.574
1688304144.507,2.930,-23.926,-36.133,-27.832,77.637
1688304144.511,-26.367,-24.414,-53.711,-24.902,-85.938
1688304144.511,-46.387,-38.086,-66.406,-25.391,-45.898
1688304144.515,-37.109,-47.363,-45.898,-14.648,121.094
1688304144.519,-13.672,-29.297,-33.691,-28.809,-61.523
1688304144.523,-23.438,-12.207,-20.020,-52.734,-279.297
1688304144.527,-35.645,-7.812,2.441,-44.434,-84.473
1688304144.531,-35.645,-24.902,-10.742,-26.367,187.988
1688304144.535,-30.273,-37.598,-28.809,-21.484,134.766
1688304144.538,-11.230,-20.996,-34.180,-26.367,-43.945
1688304144.542,4.395,-16.602,-42.480,-33.203,-62.988
1688304144.546,-20.020,-32.227,-35.645,-45.410,291.992
1688304144.550,-48.340,-29.297,-21.973,-35.645,380.859
1688304144.554,-35.645,-12.207,-28.320,-30.273,-25.879
1688304144.558,-4.883,-18.066,-26.367,-33.691,-160.645
1688304144.562,1.465,-20.020,-13.672,-14.160,-193.848
1688304144.566,2.930,-3.418,-1.953,2.441,-225.586
1688304144.570,-22.949,-5.859,-1.953,-24.414,-115.723
1688304144.574,-31.738,-20.996,-9.277,-44.922,-27.832
1688304144.578,-5.371,-29.785,-15.137,-54.688,-115.723
1688304144.582,-15.625,-22.949,-25.391,-67.383,-88.379
1688304144.585,-53.223,-23.926,-26.367,-50.781,-120.605
1688304144.589,-75.684,-37.109,-31.738,-28.809,56.152
1688304144.593,-61.035,-27.344,-49.316,-41.992,243.652
1688304144.597,-38.086,-17.090,-46.387,-78.125,-111.816
1688304144.601,-42.480,-23.926,-5.859,-82.520,-277.832
1688304144.602,-60.547,-34.668,4.395,-92.285,-84.473
1688304144.606,-95.215,-15.137,-20.996,-90.820,-62.500
1688304144.610,-108.887,-1.465,-29.297,-74.707,-144.043
1688304144.614,-80.566,-20.020,-24.414,-111.816,-121.094
1688304144.618,-78.125,-12.207,-12.207,-133.301,-102.051
1688304144.622,-107.422,13.672,-25.879,-121.582,-66.895
1688304144.626,-132.324,15.625,-49.805,-122.559,37.598
1688304144.629,-138.672,-2.441,-28.320,-131.836,105.469
1688304144.633,-128.906,-17.578,11.719,-141.113,282.227
1688304144.637,-106.445,-6.836,10.254,-143.066,48.340
1688304144.641,-85.449,-4.883,3.418,-120.605,-254.395
1688304144.645,-85.449,-33.691,10.742,-92.773,-82.520
1688304144.649,-91.797,-60.547,-2.441,-76.172,220.215
1688304144.653,-91.797,-33.203,-18.066,-80.078,-3.906
1688304144.657,-66.406,-9.277,-12.695,-97.656,-241.211
1688304144.661,-47.852,-18.555,-12.695,-88.379,-114.258
1688304144.665,-67.871,-39.551,-20.996,-61.523,-37.598
1688304144.669,-83.984,-33.203,-23.438,-33.203,-15.137
1688304144.673,-56.152,-19.043,-29.785,-45.410,11.719
1688304144.676,-13.184,-44.922,-45.410,-60.547,95.215
1688304144.680,8.789,-35.156,-42.969,-44.434,123.535
1688304144.684,-10.742,-24.902,-32.715,-27.832,-148.438
1688304144.688,-37.109,-48.828,-27.832,-6.836,-136.230
1688304144.692,-15.137,-52.734,-26.367,-10.742,10.742
1688304144.692,20.020,-39.062,-25.879,-26.855,-115.723
1688304144.696,26.855,-33.203,-52.734,-29.297,-250.000
1688304144.700,10.254,-30.273,-73.242,-1.465,-112.793
1688304144.704,-22.461,-19.043,-35.645,16.113,122.559
1688304144.708,-25.879,-22.949,-4.883,-12.207,45.898
1688304144.712,18.555,-49.805,-26.855,0.977,-124.023
1688304144.716,35.645,-56.641,-48.340,17.090,-133.301
1688304144.719,3.906,-51.758,-42.969,-4.395,269.531
1688304144.723,-34.180,-34.180,-57.617,4.395,369.141
1688304144.727,-39.551,-4.883,-52.734,-0.977,-40.527
1688304144.731,-2.930,-14.648,-26.367,-10.742,-145.508
1688304144.735,13.672,-26.855,-22.461,-11.719,-96.680
1688304144.738,3.906,-33.203,-25.391,-3.418,-152.832
1688304144.742,-14.648,-54.199,-37.109,14.648,-118.652
1688304144.746,-30.762,-60.059,-52.734,2.930,-40.527
1688304144.750,-12.695,-44.434,-48.828,-2.930,-52.734
1688304144.754,12.695,-15.137,-28.809,6.836,-141.602
1688304144.758,11.230,-11.719,-27.344,4.883,-157.715
1688304144.762,-14.648,-28.320,-29.785,24.902,168.457
1688304144.765,-22.949,-42.480,-16.113,9.766,364.258
1688304144.769,0.000,-26.367,-15.137,-27.344,-48.340
1688304144.773,13.184,-5.371,-14.648,-36.621,-268.066
1688304144.777,3.418,-16.602,-16.602,-32.227,-54.199
1688304144.781,-19.531,-18.066,-24.414,-16.602,-11.230
1688304144.781,-38.086,-24.414,-33.691,-6.836,-80.078
1688304144.785,-11.719,-51.758,-34.668,-17.090,-68.359
1688304144.789,15.625,-43.945,-32.715,-6.836,-100.098
1688304144.793,4.395,-10.742,-40.527,-21.484,-118.652
1688304144.797,-23.926,-6.836,-42.480,-31.250,-98.633
1688304144.801,-26.855,-20.508,-39.062,-3.906,20.020
1688304144.805,-10.254,-33.691,-29.785,5.859,265.137
1688304144.808,-3.906,-36.133,-38.086,-23.438,121.094
1688304144.812,-6.836,-28.320,-40.527,-32.227,-165.039
1688304144.816,-12.207,-24.414,-31.738,-16.113,-82.031
1688304144.820,-31.738,-21.484,-47.363,-11.230,260.254
1688304144.824,-35.156,-22.461,-38.574,-29.785,83.008
1688304144.843,-2.930,-28.809,-25.391,-37.109,-220.215
1688304144.847,8.789,-36.133,-24.902,-25.879,-159.668
1688304144.851,-20.508,-28.320,-20.020,-5.371,-80.566
1688304144.855,-46.875,-22.461,-20.996,-21.973,-97.168
1688304144.859,-27.832,-38.574,-37.598,-36.133,-76.172
1688304144.863,-8.301,-32.715,-37.109,-22.949,64.941
1688304144.867,-9.766,-15.625,-23.926,-33.203,42.480
1688304144.870,-30.273,-32.715,-19.531,-36.133,-67.871
1688304144.874,-56.152,-41.504,-23.438,-25.391,-38.574
1688304144.878,-47.852,-31.738,-34.668,-39.551,103.027
1688304144.882,-28.809,-30.273,-48.340,-43.945,84.473
1688304144.886,-18.555,-19.531,-51.758,-37.598,-131.836
1688304144.886,-5.859,-13.184,-41.992,-21.484,-153.320
1688304144.890,-45.410,-33.691,-25.879,-15.625,99.609
1688304144.894,-61.523,-36.133,-21.484,-22.949,41.016
1688304144.898,-26.855,-27.832,-22.461,-26.855,-168.457
1688304144.902,-2.441,-45.410,-23.438,-31.250,-128.418
1688304144.906,-17.090,-13.184,-20.508,-23.438,38.086
1688304144.910,-48.828,-7.812,-20.996,-18.066,72.754
1688304144.913,-54.688,-21.973,-22.949,-31.738,7.324
1688304144.917,-30.762,-10.742,-35.156,-42.969,-88.379
1688304144.921,-12.695,-34.180,-32.715,-39.062,167.969
1688304144.925,-17.090,-38.574,-31.738,-26.367,171.387
1688304144.929,-56.641,-31.738,-35.156,-18.066,-123.535
1688304144.933,-76.172,-29.785,-36.621,-31.738,-71.777
1688304144.937,-37.109,-15.137,-25.879,-46.387,-41.504
1688304144.941,-9.277,-19.043,-20.996,-58.105,-187.012
1688304144.945,-10.742,-36.133,-37.109,-45.410,-265.625
1688304144.949,-38.086,-29.785,-38.574,-21.484,-72.266
1688304144.953,-47.852,-18.066,-25.391,-36.621,97.656
1688304144.957,-13.184,-20.020,-20.020,-50.781,-10.254
1688304144.960,0.000,-34.180,-32.715,-42.480,-219.238
1688304144.964,-8.301,-47.363,-41.016,-14.160,-108.887
1688304144.968,-27.832,-50.293,-34.180,-11.230,68.848
1688304144.972,-55.176,-44.922,-11.719,-23.926,-162.109
1688304144.976,-36.133,-12.695,2.930,-19.043,-195.801
1688304144.977,-11.719,-3.906,-19.531,-48.340,-132.324
1688304144.981,-15.137,-16.113,-27.832,-67.871,-176.270
1688304144.985,-19.043,-12.695,-18.555,-33.691,-181.152
1688304144.989,-50.293,-19.043,-36.133,-33.691,10.742
1688304144.993,-48.340,-34.668,-56.152,-64.941,194.336
1688304144.997,-20.996,-28.809,-43.945,-69.824,5.859
1688304145.001,-25.391,-44.434,-23.926,-59.570,-101.562
1688304145.004,-49.805,-69.336,-34.180,-37.109,-26.855
1688304145.008,-67.383,-24.414,-70.312,-28.320,363.281
1688304145.012,-53.223,26.367,-38.086,-70.801,327.148
1688304145.016,-34.180,19.043,-10.254,-89.844,-142.090
1688304145.020,-23.438,-20.996,-21.973,-57.129,-185.059
1688304145.023,-17.090,-31.250,-17.578,-32.715,-85.938
1688304145.027,-44.922,-17.578,-29.297,-45.410,-48.340
1688304145.031,-42.969,-18.555,-30.762,-45.898,-86.426
1688304145.035,-6.348,-26.367,-18.555,-51.270,-120.605
1688304145.039,4.883,-23.438,-28.320,-47.363,-122.559
1688304145.043,0.488,-41.992,-31.250,-7.812,-45.898
1688304145.047,-18.066,-42.969,-27.832,-7.324,0.000
1688304145.050,-27.832,-20.996,-20.996,-22.461,276.367
1688304145.054,-19.043,-20.996,-20.508,-39.062,449.707
1688304145.058,-23.926,-6.348,-32.227,-51.270,-67.871
1688304145.062,-41.504,2.930,-33.691,-37.598,-189.453
1688304145.066,-52.734,-7.324,-28.320,-16.602,-1.465
1688304145.067,-34.668,-31.738,-28.809,-30.762,-55.664
1688304145.071,-0.977,-42.969,-33.691,-51.758,-172.363
1688304145.075,15.137,-44.434,-45.898,-41.504,-184.570
1688304145.079,-0.488,-28.320,-38.086,-17.090,-95.703
1688304145.083,-30.273,-17.578,-24.414,-12.207,-34.180
1688304145.087,-29.785,-20.996,-29.297,-8.789,23.926
1688304145.091,8.789,-44.434,-36.133,-14.160,-33.691
1688304145.094,22.461,-77.637,-46.387,-22.949,268.555
1688304145.098,2.441,-69.336,-24.902,-22.461,325.684
1688304145.102,-32.715,-35.645,-13.672,-18.066,-37.109
1688304145.106,-26.367,-13.672,-12.695,0.488,-62.012
1688304145.110,-25.391,21.973,-6.348,-33.691,-18.066
1688304145.113,-24.902,29.785,-17.090,-50.293,-167.969
1688304145.117,-20.996,3.906,-29.297,-28.809,-252.441
1688304145.121,-38.086,-21.484,-35.645,-10.742,-107.422
1688304145.125,-39.062,-28.809,-31.250,18.066,-64.453
1688304145.129,-8.789,-29.297,-26.855,9.277,-119.141
1688304145.133,7.324,-30.762,-32.227,-22.949,-113.770
1688304145.137,-0.977,-26.855,-26.855,-34.668,63.477
1688304145.140,-26.367,-19.531,-21.973,-22.949,219.727
1688304145.144,-48.828,-34.180,-27.344,-11.719,-42.480
1688304145.148,-33.203,-37.598,-32.227,-20.996,-206.055
1688304145.152,-4.395,-17.090,-24.902,-15.625,-142.090
1688304145.156,-1.953,-3.418,-23.926,-8.301,-146.484
1688304145.157,-24.902,-8.301,-34.180,-15.625,-175.293
1688304145.161,-43.457,-22.949,-41.992,-17.578,-95.215
1688304145.165,-28.320,-27.832,-47.363,-17.090,74.707
1688304145.169,-9.766,-31.250,-37.598,-33.691,-72.754
1688304145.173,-6.348,-36.133,-10.742,-34.668,-175.781
1688304145.177,-26.855,-38.574,-14.648,-20.508,42.480
1688304145.181,-45.410,-31.738,-19.043,-4.883,448.730
1688304145.184,-46.875,-14.648,-18.066,-19.043,304.199
1688304145.188,-29.297,-4.395,-25.879,-48.828,-167.480
1688304145.192,-14.160,-14.160,-28.320,-49.316,-137.207
1688304145.196,-28.320,-25.391,-29.297,-35.645,66.406
1688304145.200,-47.852,-36.133,-45.898,-16.602,-27.344
1688304145.218,-32.227,-34.668,-40.527,-20.020,-134.277
1688304145.222,-1.953,-25.879,-30.273,-36.621,-118.652
1688304145.226,2.441,-11.719,-42.480,-35.156,-130.859
1688304145.230,-21.973,-9.766,-34.180,-31.250,-126.953
1688304145.234,-58.105,-27.344,-13.672,-35.156,-59.082
1688304145.238,-66.406,-34.668,-14.160,-36.133,146.484
1688304145.242,-28.809,-21.484,-22.461,-28.809,225.098
1688304145.245,-2.930,-28.809,-21.484,-31.250,-130.859
1688304145.249,-8.301,-28.320,-20.020,-28.320,-202.637
1688304145.253,-52.246,-11.230,-30.762,-30.273,87.891
1688304145.257,-61.523,-7.324,-31.738,-40.039,83.984
1688304145.261,-28.320,-9.277,-28.809,-45.410,-134.766
1688304145.262,-2.441,-27.344,-31.250,-46.387,-194.824
1688304145.266,-2.930,-35.156,-21.484,-24.414,-125.000
1688304145.270,-43.457,-21.484,-30.273,-2.930,-22.461
1688304145.274,-58.105,-30.762,-20.508,-3.906,34.668
1688304145.278,-27.832,-34.668,-12.695,-46.387,38.574
1688304145.282,-5.859,-29.785,-26.855,-73.242,226.562
1688304145.286,-11.230,-28.320,-23.926,-59.570,165.527
1688304145.289,-25.391,-31.250,-23.926,-39.062,22.949
1688304145.293,-52.246,-30.762,-45.410,-27.832,47.852
1688304145.297,-35.645,-33.203,-56.152,-52.246,266.602
1688304145.301,7.324,-24.902,-39.062,-54.199,113.281
1688304145.305,14.160,-3.906,-26.367,-33.203,-223.633
1688304145.308,-26.855,-5.371,-20.508,-20.996,-145.996
1688304145.312,-65.918,-23.438,-21.973,-28.809,-41.016
1688304145.316,-53.711,-38.574,-35.645,-49.805,-101.562
1688304145.320,-16.113,-56.152,-43.457,-52.246,-185.547
1688304145.324,6.348,-41.992,-42.969,-37.109,-158.203
1688304145.328,-20.020,-28.809,-26.855,-19.043,-22.949
1688304145.332,-50.293,-26.855,-11.230,-11.230,74.707
1688304145.335,-48.340,0.977,-16.602,-32.227,10.254
1688304145.339,-16.602,-3.418,-17.090,-29.785,125.977
1688304145.343,5.371,-18.555,-21.973,-17.578,291.992
1688304145.347,-27.344,-8.789,-36.621,-26.367,-24.902
1688304145.351,-58.594,-12.695,-28.809,-24.902,-113.770
1688304145.352,-27.344,-27.832,-27.344,-21.973,-18.066
1688304145.356,1.465,-28.809,-34.668,-28.809,-147.949
1688304145.360,-9.277,-18.555,-32.715,-37.109,-231.445
1688304145.364,-22.461,-23.926,-20.508,-17.090,-172.852
1688304145.368,-34.668,-28.809,-22.461,1.465,-41.992
1688304145.372,-36.621,-13.672,-34.180,-10.742,14.648
1688304145.376,-6.836,-9.766,-23.438,-15.625,2.930
1688304145.379,11.719,-9.277,-20.996,-27.832,-56.641
1688304145.383,0.000,-20.996,-42.480,-34.180,243.164
1688304145.387,-26.855,-28.320,-41.504,-22.461,446.289
1688304145.391,-31.738,-24.902,-25.391,-27.832,46.387
1688304145.395,6.348,-35.645,-24.902,-41.016,-196.777
1688304145.398,18.066,-32.715,-28.809,-34.180,-212.891
1688304145.402,-8.301,-31.738,-53.223,-38.574,-290.039
1688304145.406,-36.621,-27.344,-41.016,-28.809,-212.402
1688304145.410,-42.969,-18.066,-10.742,-12.695,-55.664
1688304145.414,-23.438,-20.996,-20.508,-32.227,-95.703
1688304145.418,-7.324,-29.785,-28.320,-56.641,-82.031
1688304145.422,-15.625,-32.715,-31.250,-53.711,19.043
1688304145.425,-34.668,-35.645,-23.438,-38.086,181.641
1688304145.429,-56.152,-52.734,-19.043,-38.574,271.973
1688304145.433,-32.715,-43.457,-32.715,-43.945,-85.449
1688304145.437,-8.301,-27.832,-49.316,-45.410,-227.539
1688304145.441,-13.672,-20.508,-43.457,-33.203,-76.660
1688304145.442,-28.809,-22.461,-33.203,-4.883,-65.918
1688304145.446,-45.410,-30.273,-29.297,-10.742,-75.684
1688304145.450,-27.344,-32.715,-26.855,-19.531,-79.102
1688304145.454,1.465,-29.785,-16.602,-9.277,-104.004
1688304145.458,-8.301,-31.250,-16.602,-28.320,-98.633
1688304145.462,-35.645,-28.320,-31.250,-44.922,21.973
1688304145.466,-51.270,-8.301,-36.133,-44.434,99.609
1688304145.469,-28.809,0.488,-38.086,-37.109,354.492
1688304145.473,6.836,2.930,-49.805,-47.363,155.762
1688304145.477,16.113,0.000,-44.434,-41.992,-260.254
1688304145.481,-14.648,-15.625,-35.156,-28.320,-142.090
1688304145.485,-41.992,-27.344,-34.180,-38.574,171.387
1688304145.505,-47.852,-19.043,-36.621,-57.617,-15.625
1688304145.509,-25.879,-1.465,-42.480,-56.152,-209.961
1688304145.513,-14.648,7.812,-52.246,-51.270,-102.539
1688304145.517,-31.738,9.766,-53.711,-30.273,-45.898
1688304145.521,-41.504,2.930,-48.828,-29.297,-48.828
1688304145.525,-26.855,-0.977,-52.246,-60.547,-33.691
1688304145.529,20.508,-23.926,-54.688,-43.945,53.711
1688304145.532,33.691,-50.781,-40.039,-20.508,123.047
1688304145.536,-6.836,-21.973,-39.551,-32.715,-127.441
1688304145.540,-48.340,16.113,-47.363,-51.758,-149.414
1688304145.544,-42.480,17.578,-42.480,-58.105,-25.879
1688304145.548,-14.648,-12.207,-31.250,-69.336,-144.043
1688304145.532,-0.488,-9.277,-22.461,-59.082,-260.742
1688304145.536,1.953,-34.668,-23.926,-35.156,-163.574
1688304145.540,-17.578,-90.332,-32.715,-27.832,-1.953
1688304145.544,-34.668,-20.020,-45.410,-28.320,-23.438
1688304145.548,-16.602,35.645,-48.340,-39.062,-105.957
1688304145.552,-2.441,11.719,-38.086,-40.039,5.859
1688304145.556,-11.719,-25.391,-24.414,-34.180,51.270
1688304145.559,-25.391,-42.969,-20.996,-15.625,41.504
1688304145.563,-23.438,-42.969,-21.484,-5.371,64.941
1688304145.567,-13.672,-30.762,-19.043,-21.484,-50.781
1688304145.571,-7.812,-18.555,-23.438,-33.203,221.680
1688304145.575,-17.090,-20.508,-26.367,-28.809,269.043
1688304145.593,-38.086,-18.555,-20.020,-25.391,-106.934
1688304145.597,-35.156,-21.484,-25.879,-15.625,-77.637
1688304145.601,-5.859,-35.156,-33.203,-16.602,-5.371
1688304145.605,9.766,-42.480,-32.715,-21.484,-205.566
1688304145.609,4.395,-29.297,-42.969,-5.371,-256.836
1688304145.613,-21.973,-12.695,-29.785,0.977,45.410
1688304145.617,-39.551,-20.996,-15.625,-18.555,173.340
1688304145.620,-15.137,-41.992,-20.508,-35.645,-6.348
1688304145.624,6.836,-51.758,-25.879,-20.020,-182.129
1688304145.628,-4.395,-36.133,-32.227,-8.301,-27.344
1688304145.632,-26.855,-26.367,-25.879,-23.926,148.926
1688304145.636,-28.809,-43.945,-27.344,-23.926,-72.266
1688304145.637,-17.578,-23.926,-31.738,-18.066,-134.766
1688304145.641,6.836,5.371,-29.297,-40.527,-133.301
1688304145.645,-1.953,-6.836,-33.203,-44.922,-154.785
1688304145.649,-21.484,-30.762,-44.922,-20.020,-123.047
1688304145.653,-31.738,-42.480,-46.875,-10.254,-20.020
1688304145.657,-28.320,-40.039,-42.969,-18.066,43.457
1688304145.661,-13.672,-28.809,-32.227,-38.086,-28.320
1688304145.664,-3.906,-20.508,-22.461,-17.578,-88.379
1688304145.668,-28.320,-20.996,-16.113,-24.414,-80.566
1688304145.672,-62.988,-32.227,-18.555,-44.434,413.574
1688304145.676,-45.410,-33.691,-29.297,-33.203,475.586
1688304145.680,-24.414,-15.137,-34.180,-44.434,-101.074
1688304145.683,-22.461,-13.672,-29.785,-48.828,-214.844
1688304145.687,-23.926,-27.832,-22.461,-34.180,-97.168
1688304145.691,-61.035,-43.945,-30.762,-35.645,-68.848
1688304145.695,-57.617,-57.617,-52.734,-35.156,-97.656
1688304145.699,-15.625,-48.828,-48.828,-31.738,-83.984
1688304145.703,-10.742,-19.043,-29.297,-49.805,-87.891
1688304145.707,-32.715,-16.113,-22.461,-62.988,-58.105
1688304145.710,-59.082,-20.996,-20.508,-45.898,-43.945
1688304145.714,-64.453,-17.090,-17.090,-33.691,68.359
1688304145.718,-29.297,-35.156,-27.832,-45.410,121.094
1688304145.722,0.488,-41.992,-24.902,-53.223,-189.453
1688304145.726,-19.043,-27.344,-24.414,-26.367,-163.574
1688304145.727,-48.340,-28.809,-24.902,-1.953,123.047
1688304145.731,-48.828,-32.227,-28.809,-19.043,-19.531
1688304145.735,-22.949,-14.160,-48.340,-49.316,-206.543
1688304145.739,-0.488,-2.930,-39.062,-53.223,-230.957
1688304145.743,-11.230,-12.207,-20.020,-43.945,-128.906
1688304145.747,-41.504,-29.785,-14.648,-34.180,44.434
1688304145.751,-49.805,-34.180,-31.738,-33.691,27.344
1688304145.754,-29.297,-27.344,-30.762,-57.617,-5.859
1688304145.758,-8.789,-32.715,-19.531,-48.828,210.938
1688304145.762,-15.137,-22.461,-24.414,-18.555,163.086
1688304145.766,-37.598,-7.812,-26.855,-24.902,-114.746
1688304145.770,-44.434,-17.578,-33.203,-17.578,-89.355
1688304145.775,-29.785,-28.320,-36.133,-29.785,-108.398
1688304145.779,-4.395,-29.785,-31.250,-54.688,-202.637
1688304145.783,-2.930,-22.461,-33.203,-38.574,-166.016
1688304145.787,-31.250,-23.926,-38.086,-28.809,-13.184
1688304145.791,-46.387,-34.668,-39.551,-17.090,38.574
1688304145.795,-38.574,-43.945,-28.809,-26.367,4.395
1688304145.799,-8.301,-32.715,-5.859,-35.156,-43.457
1688304145.802,-3.906,-14.160,-7.812,-18.555,80.566
1688304145.806,-35.156,-15.625,-19.531,-20.996,230.469
1688304145.810,-48.340,-38.086,-27.832,-33.203,-16.602
1688304145.814,-35.156,-44.434,-34.180,-28.320,-150.879
1688304145.818,-11.230,-29.297,-33.203,-32.715,-107.422
1688304145.817,-10.742,-21.484,-37.109,-44.434,-107.910
1688304145.821,-30.762,-23.926,-30.273,-33.691,-112.305
1688304145.825,-48.340,-37.109,-27.344,-34.180,-63.477
1688304145.829,-38.574,-49.805,-28.809,-32.715,-43.457
1688304145.833,-7.324,-45.410,-21.484,-31.250,-65.430
1688304145.837,0.000,-19.043,-29.785,-27.832,-31.250
1688304145.841,-14.160,-19.531,-41.016,-2.441,-32.227
1688304145.844,-28.809,-34.668,-37.109,-0.977,368.652
1688304145.848,-38.574,-22.949,-33.691,-15.625,480.469
1688304145.852,-16.602,-8.789,-25.391,-23.438,-86.426
1688304145.856,2.441,-9.277,-26.855,-28.320,-201.172
1688304145.860,-16.113,-10.254,-22.461,-28.320,-141.113
1688304145.863,-41.992,-17.578,-21.973,-33.691,-176.270
1688304145.867,-37.598,-18.066,-33.691,-36.133,-111.328
1688304145.871,-2.930,-8.789,-39.062,-29.297,-154.297
1688304145.875,10.742,-21.973,-39.062,0.488,-192.871
1688304145.879,-15.137,-38.086,-32.227,5.859,-161.621
1688304145.883,-55.176,-31.738,-21.484,-3.906,-77.148
1688304145.887,-64.453,-30.273,-16.602,-12.207,228.516
1688304145.890,-37.109,-52.246,-18.555,-49.316,322.266
1688304145.894,-26.855,-42.969,-11.719,-75.684,-122.559
1688304145.898,-33.691,-33.691,-6.348,-45.410,-200.195
1688304145.902,-67.871,-50.293,-14.160,-14.648,125.488
1688304145.906,-88.867,-57.617,-20.996,-31.738,71.777
1688304145.907,-59.570,-60.059,-18.555,-53.711,-151.855
1688304145.911,-45.898,-57.617,-16.113,-47.363,-182.617
1688304145.915,-37.598,-58.105,-14.160,-33.691,-98.145
1688304145.919,-49.316,-60.059,-21.973,-17.578,-60.547
1688304145.923,-73.242,-55.664,-30.762,-15.625,-120.605
1688304145.927,-52.246,-58.594,-17.090,-37.598,-43.457
1688304145.931,-6.348,-53.711,-11.230,-26.367,342.773
1688304145.934,-0.977,-52.246,-24.902,-14.160,212.891
1688304145.938,-37.598,-46.875,-19.043,-19.531,-149.902
1688304145.942,-64.941,-27.832,-11.230,-27.832,-43.945
1688304145.946,-46.387,-26.855,-23.438,-34.668,271.484
1688304145.950,-20.508,-25.879,-25.391,-37.109,26.367
1688304145.968,-12.695,-21.484,-16.113,-31.250,-223.145
1688304145.972,-25.879,-29.785,-16.602,-20.020,-108.398
1688304145.976,-53.711,-42.969,-23.438,-18.066,-12.695
1688304145.980,-35.156,-62.012,-21.973,-20.508,-56.641
1688304145.984,0.488,-68.359,-23.926,-37.598,-168.945
1688304145.988,-10.254,-55.176,-36.621,-50.781,-78.125
1688304145.992,-38.574,-31.250,-42.969,-37.598,67.383
1688304145.995,-53.223,-21.484,-24.902,-14.160,8.301
1688304145.999,-43.457,-20.020,-22.461,-6.348,-95.703
1688304146.003,-10.254,-11.230,-23.438,-18.555,36.621
1688304146.007,-0.977,-9.277,-24.414,-30.273,50.293
1688304146.011,-18.555,-21.973,-48.340,-28.809,-136.719
1688304146.012,-45.410,-35.156,-58.105,-29.297,-1.465
1688304146.016,-44.922,-37.109,-36.133,-37.598,124.512
1688304146.020,-11.719,-29.785,-22.949,-31.250,-85.449
1688304146.024,-3.418,-34.668,-22.949,-27.832,-267.578
1688304146.028,-23.926,-41.016,-18.555,-29.785,-168.945
1688304146.032,-49.805,-40.527,-22.461,-21.973,172.363
1688304146.036,-46.387,-40.039,-27.344,-22.949,212.891
1688304146.039,-11.230,-23.926,-30.273,-34.180,-17.578
1688304146.043,-6.836,-16.113,-36.133,-55.664,-113.770
1688304146.047,-22.949,-35.645,-47.363,-59.082,190.430
1688304146.051,-55.664,-26.367,-38.086,-34.180,190.918
1688304146.055,-61.523,-17.090,-35.156,-28.809,-84.473
1688304146.073,-20.508,-25.879,-35.645,-47.363,-162.109
1688304146.077,-15.137,-26.855,-29.297,-45.898,-210.938
1688304146.081,-34.180,-20.508,-29.785,-38.086,-116.211
1688304146.085,-53.711,-24.414,-24.414,-20.020,-39.551
1688304146.089,-53.711,-37.109,-23.926,-18.066,-1.465
1688304146.093,-31.250,-45.410,-27.344,-35.156,33.691
1688304146.097,-15.625,-39.062,-26.855,-48.340,-68.359
1688304146.100,-15.137,-33.691,-31.250,-63.965,-151.367
1688304146.104,-57.129,-44.434,-42.969,-48.828,49.316
1688304146.108,-68.848,-37.109,-35.645,-24.414,235.352
1688304146.112,-28.809,-18.066,-33.691,-26.367,-105.957
1688304146.116,-16.113,-28.809,-33.203,-43.457,-248.535
1688304146.101,-18.066,-32.227,-15.625,-46.387,-136.719
1688304146.105,-37.109,-10.254,-16.113,-38.574,-124.512
1688304146.109,-58.105,-8.301,-46.875,-44.922,-110.352
1688304146.113,-20.020,-21.484,-48.828,-58.594,-129.883
1688304146.117,6.348,-24.414,-36.621,-47.852,-130.371
1688304146.121,-1.465,-14.648,-32.227,-37.109,-73.730
1688304146.125,-22.949,-29.297,-9.277,-37.109,18.555
1688304146.128,-38.574,-41.504,-15.137,-19.531,187.500
1688304146.132,-30.273,-26.855,-29.297,-33.691,244.141
1688304146.136,-17.090,-29.785,-7.324,-61.523,-52.246
1688304146.140,-9.766,-36.133,0.488,-56.152,-231.934
1688304146.144,-29.785,-21.484,-14.160,-41.016,-129.395
1688304146.149,-57.129,-20.996,-28.809,-32.715,337.402
1688304146.153,-41.992,-7.812,-26.367,-37.598,370.117
1688304146.157,-3.418,0.000,-23.926,-40.039,-155.762
1688304146.161,0.000,-30.273,-31.738,-41.504,-242.676
1688304146.165,-30.273,-36.621,-35.645,-40.527,-97.168
1688304146.169,-57.617,-32.227,-29.785,-28.809,19.043
1688304146.173,-41.504,-34.668,-30.273,-18.555,17.090
1688304146.176,-12.695,-44.434,-42.969,-30.273,38.574
1688304146.180,-3.418,-33.691,-24.902,-30.762,193.848
1688304146.184,-22.461,-9.277,-7.324,-20.020,-134.277
1688304146.188,-52.246,-16.602,-21.973,-27.344,-234.863
1688304146.192,-43.457,-17.578,-37.598,-34.180,-56.641
1688304146.191,-12.695,-2.930,-38.086,-35.645,-144.043
1688304146.195,-4.395,-3.906,-32.227,-38.574,-272.949
1688304146.199,-17.090,-19.043,-29.785,-32.227,-172.363
1688304146.203,-38.574,-18.066,-29.785,-17.090,4.883
1688304146.207,-43.945,-17.578,-29.297,-12.207,38.086
1688304146.211,-32.227,-30.273,-40.527,-34.668,2.930
1688304146.215,-17.578,-31.250,-42.480,-51.270,-30.762
1688304146.218,-20.020,-47.363,-42.480,-18.066,329.590
1688304146.222,-56.152,-56.152,-52.734,-0.488,426.758
1688304146.226,-76.660,-38.086,-45.898,-44.434,-40.039
1688304146.230,-46.875,-32.227,-31.738,-59.570,-117.188
1688304146.234,-18.066,-24.414,-20.996,-54.688,-54.199
1688304146.253,-19.531,-20.996,-13.184,-47.852,-204.102
1688304146.257,-33.691,-26.855,-20.996,-30.762,-149.414
1688304146.261,-44.434,-31.250,-36.621,-40.039,-3.906
1688304146.265,-13.184,-29.785,-36.621,-55.176,-62.500
1688304146.269,19.531,-23.926,-29.297,-58.594,-211.914
1688304146.273,14.160,-10.742,-40.039,-35.156,-167.969
1688304146.277,2.441,-19.043,-45.898,-15.625,186.523
1688304146.280,-23.926,-38.574,-23.438,-26.367,320.801
1688304146.284,-24.414,-26.855,-7.324,-32.715,-109.375
1688304146.288,7.324,-15.137,-15.137,-39.551,-281.738
1688304146.292,-0.488,-24.902,-24.414,-41.992,-162.598
1688304146.296,-32.715,-21.484,-24.902,-20.996,-129.395
1688304146.283,-48.828,-8.789,-26.855,-5.371,-75.195
1688304146.287,-30.273,-23.438,-31.738,-9.277,7.812
1688304146.291,-2.441,-35.156,-28.809,-4.883,57.129
1688304146.295,-2.930,-21.973,-27.832,-13.184,-86.426
1688304146.299,-21.484,-29.297,-31.738,-14.648,-159.668
1688304146.303,-39.551,-40.527,-29.785,-6.348,33.203
1688304146.307,-32.715,-32.227,-27.832,-30.273,240.234
1688304146.310,-2.930,-17.578,-28.809,-50.781,81.055
1688304146.314,-9.277,-12.695,-37.598,-49.316,-163.574
1688304146.318,-34.180,-19.531,-43.457,-27.832,-173.340
1688304146.322,-45.898,-31.250,-33.203,3.906,296.387
1688304146.326,-36.621,-28.809,-27.344,-4.883,270.020
1688304146.358,-12.207,-32.227,-32.715,-40.039,-210.449
1688304146.362,-4.395,-33.203,-42.480,-37.598,-237.305
1688304146.366,-21.484,-34.668,-40.527,-22.461,-130.859
1688304146.370,-40.039,-41.992,-22.461,-15.625,-58.594
1688304146.374,-36.133,-35.156,-13.184,-24.414,-171.387
1688304146.378,-16.113,-30.762,-20.020,-34.668,10.742
1688304146.382,-10.742,-31.738,-32.227,-28.809,384.277
1688304146.385,-22.949,-31.250,-35.156,-39.551,-2.441
1688304146.389,-45.898,-37.598,-32.227,-37.109,-170.898
1688304146.393,-48.340,-38.086,-35.645,-33.203,38.086
1688304146.397,-20.020,-18.555,-29.297,-47.363,-107.422
1688304146.401,-8.301,-19.043,-27.832,-45.410,-286.621
1688304146.387,-32.227,-45.898,-33.691,-29.785,-209.961
1688304146.391,-61.523,-56.641,-29.785,-16.602,-36.621
1688304146.395,-53.711,-30.273,-33.203,-24.414,11.230
1688304146.399,-17.578,-9.766,-44.434,-30.762,-142.578
1688304146.403,-4.395,-26.367,-35.645,-42.480,-158.691
1688304146.407,-8.789,-34.180,-27.832,-44.434,17.578
1688304146.411,-32.715,-28.809,-29.785,-40.039,59.570
1688304146.414,-49.316,-35.645,-24.414,-42.480,83.496
1688304146.418,-25.879,-33.691,-21.484,-32.227,115.723
1688304146.422,-2.441,-34.668,-37.109,-25.391,-10.742
1688304146.426,-9.277,-33.691,-38.574,-18.066,-169.434
1688304146.430,-41.016,-29.785,-34.668,-16.113,-147.461
1688304146.433,-52.246,-32.227,-35.645,-20.508,-70.801
1688304146.437,-14.648,-38.574,-37.598,-31.250,336.426
1688304146.441,3.906,-27.832,-24.414,-41.992,251.953
1688304146.445,-14.648,-23.926,-8.301,-33.691,-233.887
1688304146.449,-41.016,-20.508,-7.812,-15.625,-154.297
1688304146.453,-59.570,-22.461,-20.020,-20.996,93.262
1688304146.457,-37.598,-28.320,-25.879,-34.668,70.312
1688304146.460,-3.418,-10.254,-28.809,-37.109,-174.805
1688304146.464,4.883,-25.879,-34.180,-41.992,28.809
1688304146.468,-17.578,-32.715,-17.578,-33.203,341.309
1688304146.472,-43.457,-9.766,-12.207,-37.598,22.461
1688304146.476,-38.086,-13.672,-34.180,-38.574,-193.848
1688304146.477,-3.418,-19.043,-34.668,-35.645,-94.238
1688304146.481,-0.488,-22.461,-22.461,-47.852,-174.805
1688304146.485,-35.645,-35.156,-27.832,-44.434,-211.914
1688304146.489,-61.035,-30.762,-42.480,-34.180,-56.152
1688304146.493,-45.410,-23.438,-44.434,-33.203,40.527
1688304146.497,-13.184,-30.762,-35.156,-35.156,-16.113
1688304146.501,-4.395,-34.180,-28.809,-30.762,-91.797
1688304146.504,-22.461,-32.715,-21.484,-27.832,-72.754
1688304146.508,-37.598,-33.691,-16.113,-5.859,310.059
1688304146.512,-48.828,-37.598,-29.785,-23.438,300.293
1688304146.516,-16.113,-41.016,-33.691,-52.734,-112.305
1688304146.520,20.020,-37.109,-35.156,-26.367,-143.066
1688304146.523,-2.930,-28.809,-43.457,-18.066,-87.402
1688304146.527,-41.992,-24.414,-46.387,-22.949,-125.488
1688304146.531,-45.898,-23.926,-36.133,-25.879,-138.672
1688304146.535,-13.672,-31.738,-17.090,-42.969,-94.727
1688304146.539,-3.906,-28.320,-11.719,-37.598,-96.191
1688304146.543,-23.926,-22.461,-13.184,-36.621,-81.543
1688304146.547,-42.969,-25.391,-20.020,-34.180,9.277
1688304146.550,-44.434,-29.297,-25.879,-16.602,193.848
1688304146.554,-23.926,-33.203,-22.461,-20.020,273.926
1688304146.558,-4.883,-32.227,-33.691,-33.691,-130.859
1688304146.562,-13.184,-41.016,-36.133,-35.645,-263.672
1688304146.566,-39.062,-34.180,-28.809,-19.531,1.465
1688304146.568,-48.340,-19.531,-30.762,-22.949,-30.273
1688304146.572,-24.414,-27.344,-36.133,-41.016,-136.230
1688304146.576,-1.953,-40.527,-43.457,-51.270,-139.648
1688304146.580,-20.996,-36.621,-39.551,-50.781,-62.012
1688304146.584,-43.945,-24.414,-30.273,-38.086,9.766
1688304146.588,-60.059,-26.855,-23.926,-35.156,37.598
1688304146.592,-41.504,-21.484,-22.949,-47.363,-16.602
1688304146.595,-10.254,-23.438,-31.250,-50.781,231.445
1688304146.599,-11.230,-36.621,-32.227,-43.457,257.324
1688304146.603,-29.297,-31.738,-20.508,-29.297,-102.539
1688304146.607,-51.270,-33.691,-20.020,-8.301,-134.766
1688304146.611,-39.551,-35.645,-35.156,-12.695,-140.625
1688304146.613,-6.836,-19.043,-38.086,-31.250,-273.438
1688304146.617,-4.395,-14.648,-29.297,-61.035,-279.785
1688304146.621,-27.832,-24.414,-28.809,-68.359,-92.285
1688304146.625,-46.387,-22.461,-31.738,-37.109,88.379
1688304146.629,-41.504,-26.367,-44.922,-39.551,29.297
1688304146.633,-20.508,-38.574,-48.340,-45.410,-125.977
1688304146.637,-6.348,-38.086,-28.809,-26.367,89.844
1688304146.640,-22.461,-31.250,-20.996,-27.832,413.086
1688304146.644,-43.457,-24.902,-20.996,-25.391,122.559
1688304146.648,-29.785,-28.320,-19.043,-24.902,-162.109
1688304146.652,-9.277,-16.602,-27.344,-55.176,-95.215
1688304146.656,-10.254,-1.465,-37.598,-49.316,-184.570
1688304146.657,-24.902,-15.625,-41.992,-29.785,-250.000
1688304146.661,-40.527,-26.855,-39.062,-22.949,-104.004
1688304146.665,-37.598,-20.020,-34.668,-27.344,17.090
1688304146.669,-16.113,-24.414,-37.109,-38.574,-118.164
1688304146.673,-11.230,-39.062,-36.133,-38.086,-166.016
1688304146.677,-29.785,-36.621,-29.785,-28.320,56.152
1688304146.681,-53.711,-20.996,-24.414,-22.461,424.805
1688304146.684,-52.734,-22.949,-14.648,-28.320,286.621
1688304146.688,-12.695,-38.574,-16.113,-50.293,-146.484
1688304146.692,2.930,-28.809,-36.133,-47.852,-178.223
1688304146.696,-29.297,-29.297,-32.715,-34.180,64.941
1688304146.700,-58.105,-35.156,-18.066,-20.508,-49.805
1688304146.718,-48.828,-33.691,-18.066,-12.207,-236.816
1688304146.722,-28.809,-28.320,-14.648,-26.855,-274.902
1688304146.726,-10.254,-15.137,-23.438,-49.316,-314.453
1688304146.730,-19.043,-12.695,-35.156,-42.969,-270.020
1688304146.734,-59.082,-26.855,-26.367,-34.180,-171.875
1688304146.738,-62.012,-32.715,-29.297,-36.621,112.305
1688304146.742,-32.715,-35.156,-43.457,-50.293,148.926
1688304146.745,-15.137,-35.645,-40.527,-60.547,-197.266
1688304146.749,-9.277,-31.738,-26.367,-42.480,-114.258
1688304146.753,-26.855,-26.367,-24.902,-17.578,130.859
1688304146.757,-38.574,-24.902,-27.832,-16.602,20.020
1688304146.761,-20.996,-22.949,-33.691,-29.297,-146.973
1688304146.777,-8.301,-23.438,-30.762,-34.668,-233.398
1688304146.781,-16.602,-44.434,-26.855,-17.090,20.508
1688304146.785,-27.832,-45.410,-30.273,-9.766,150.879
1688304146.789,-39.551,-37.598,-31.738,-19.043,-113.281
1688304146.793,-35.156,-19.043,-28.809,-32.715,-112.793
1688304146.797,-7.812,0.488,-19.043,-47.852,13.672
1688304146.801,-12.207,-18.066,-24.414,-54.199,-50.293
1688304146.804,-46.875,-25.879,-47.363,-44.434,-36.621
1688304146.808,-58.105,-12.695,-41.992,-30.762,16.602
1688304146.812,-35.156,0.000,-32.715,-29.297,225.586
1688304146.816,-18.066,3.906,-40.039,-51.758,76.172
1688304146.820,-15.137,-1.953,-35.156,-54.199,-243.652
1688304146.808,-36.621,-10.742,-32.715,-22.461,-145.020
1688304146.812,-58.105,-22.949,-41.016,-3.418,37.598
1688304146.816,-36.133,-13.184,-43.457,-16.602,-61.035
1688304146.820,-0.488,-26.855,-35.156,-27.832,-197.754
1688304146.824,4.395,-49.805,-41.992,-29.785,-120.117
1688304146.828,-22.949,-37.598,-48.340,-24.902,20.020
1688304146.832,-33.691,-36.133,-37.598,-9.766,42.969
1688304146.835,-18.066,-27.832,-20.508,-4.883,-57.617
1688304146.839,-8.301,-22.949,-19.531,-24.414,-35.645
1688304146.843,-14.160,-17.578,-25.879,-40.039,-68.848
1688304146.847,-36.621,-13.184,-28.320,-40.039,-139.648
1688304146.851,-61.523,-22.949,-32.715,-50.293,-94.727
1688304146.853,-48.340,-53.711,-31.250,-32.715,220.703
1688304146.857,-11.719,-45.898,-29.785,-29.785,242.676
1688304146.861,-2.930,-13.184,-30.762,-56.152,-186.035
1688304146.865,-9.277,-20.508,-37.598,-44.922,-159.180
1688304146.869,-33.691,-31.738,-45.410,-12.207,116.699
1688304146.873,-52.734,-25.879,-34.180,-36.133,92.285
1688304146.877,-24.414,-23.926,-20.020,-56.641,-9.277
1688304146.880,-12.207,-28.320,-23.438,-47.363,-56.641
1688304146.884,-22.949,-25.879,-28.320,-42.969,168.945
1688304146.888,-39.062,-1.953,-22.949,-27.344,199.219
1688304146.892,-41.992,-3.906,-22.461,-28.320,-141.602
1688304146.896,-13.184,-19.531,-23.926,-32.715,-177.734
1688304146.898,9.277,-35.156,-26.855,-27.344,-195.312
1688304146.902,2.441,-58.594,-44.434,-21.973,-220.215
1688304146.906,-26.855,-47.852,-44.922,-12.695,-116.211
1688304146.910,-48.828,-29.785,-42.969,-4.883,-2.930
1688304146.914,-39.062,-17.578,-42.969,-17.578,-2.930
1688304146.918,-29.785,-28.320,-28.809,-23.438,-44.922
1688304146.922,-22.461,-30.273,-21.484,-14.160,-136.230
1688304146.925,-36.621,-23.926,-28.320,-25.879,-3.906
1688304146.929,-45.410,-22.949,-25.391,-28.320,347.168
1688304146.933,-25.879,-12.207,-20.508,-61.035,14.648
1688304146.937,-10.254,-38.574,-35.156,-83.008,-245.605
1688304146.941,0.977,-56.641,-49.805,-36.621,-167.480
1688304146.941,-17.578,-29.297,-39.062,-16.113,-129.395
1688304146.945,-45.898,-21.973,-21.973,-29.297,-89.355
1688304146.949,-30.273,-36.133,-10.254,-31.738,-102.051
1688304146.953,4.883,-29.297,-9.766,-26.367,-117.676
1688304146.957,11.230,-13.672,-26.367,-24.902,-98.633
1688304146.961,-26.367,-10.254,-27.344,-23.438,-41.504
1688304146.965,-48.828,-12.695,-20.508,-18.555,13.672
1688304146.968,-28.320,-32.227,-27.344,-14.160,340.332
1688304146.972,-7.324,-38.086,-27.832,-30.273,364.258
1688304146.976,-8.301,-17.578,-21.484,-42.969,-144.531
1688304146.980,-25.391,-25.391,-31.738,-26.367,-219.727
1688304146.984,-45.898,-46.387,-45.410,-22.461,-12.207
1688304146.988,-34.180,-50.293,-39.062,-28.320,-84.961
1688304146.992,-7.324,-48.340,-25.879,-28.809,-216.797
1688304146.996,-2.441,-31.738,-22.461,-28.320,-213.867
1688304147.000,-18.555,-23.926,-36.133,-27.832,-135.254
1688304147.004,-43.457,-14.160,-44.922,-12.695,-26.855
1688304147.008,-54.199,-11.719,-41.016,-10.742,38.574
1688304147.012,-21.973,-12.695,-28.320,-32.227,204.102
1688304147.015,-0.977,-10.742,-17.578,-38.574,248.535
1688304147.019,-13.672,-20.508,-26.855,-32.227,-89.844
1688304147.023,-39.551,-43.945,-34.668,-14.648,-61.523
1688304147.027,-42.480,-50.781,-21.973,-14.648,69.824
1688304147.031,-16.113,-32.227,-26.367,-38.086,-112.305
1688304147.031,-15.137,-15.137,-36.133,-41.992,-261.719
1688304147.035,-24.902,-8.301,-32.227,-48.828,-211.914
1688304147.039,-17.090,-11.230,-25.391,-31.738,28.809
1688304147.043,-35.156,-24.414,-25.879,-15.625,37.598
1688304147.047,-28.809,-28.320,-15.137,-36.133,-103.516
1688304147.051,-0.977,-33.203,-14.160,-46.875,-11.230
1688304147.055,-9.766,-48.828,-28.809,-38.574,252.441
1688304147.058,-44.922,-46.875,-25.391,-24.414,153.809
1688304147.062,-56.152,-30.762,-29.297,-22.461,-110.352
1688304147.066,-41.504,-39.551,-34.180,-30.273,-113.770
1688304147.070,-21.484,-62.500,-26.367,-32.715,111.328
1688304147.074,-26.855,-48.828,-19.043,-34.668,62.012
1688304147.095,-44.922,-29.297,-11.230,-12.695,-77.637
1688304147.099,-55.176,-37.109,-14.160,-18.555,8.301
1688304147.103,-42.969,-40.039,-23.926,-49.316,54.688
1688304147.107,-2.441,-41.504,-28.320,-39.551,-159.668
1688304147.111,6.836,-32.715,-22.949,-23.926,-225.098
1688304147.115,-37.598,-22.461,-29.785,-26.367,63.477
1688304147.119,-64.941,-16.113,-40.527,-22.949,170.898
1688304147.122,-46.875,-22.949,-30.273,-23.926,-66.895
1688304147.126,-30.762,-49.316,-18.555,-45.410,-184.082
1688304147.130,-24.414,-50.781,-36.621,-59.082,15.625
1688304147.134,-35.645,-39.551,-42.969,-31.250,88.379
1688304147.138,-66.895,-32.227,-31.738,-14.160,-67.871
1688304147.137,-55.176,-30.762,-30.273,-12.695,-95.703
1688304147.141,-14.648,-39.551,-37.109,-17.090,-5.859
1688304147.145,-11.719,-38.086,-29.297,-42.480,-15.137
1688304147.149,-23.438,-23.926,-21.973,-50.781,-125.000
1688304147.153,-49.316,-24.902,-23.438,-36.621,2.930
1688304147.157,-42.480,-40.527,-20.996,-36.133,125.488
1688304147.161,-8.301,-38.574,-29.785,-47.363,-20.020
1688304147.164,2.930,-31.250,-32.715,-44.922,-70.312
1688304147.168,-19.531,-28.809,-30.273,-37.109,3.906
1688304147.172,-46.387,-28.809,-24.902,-25.391,342.285
1688304147.176,-32.715,-21.973,-27.832,-15.625,490.234
1688304147.180,-11.719,-13.672,-43.457,-39.062,-35.156
1688304147.183,-9.277,-23.926,-38.086,-56.641,-295.898
1688304147.187,-16.113,-21.484,-20.508,-42.969,-163.086
1688304147.191,-37.598,-28.320,-17.578,-22.949,-64.453
1688304147.195,-41.016,-32.715,-19.531,-32.227,-53.223
1688304147.199,-3.418,-14.648,-34.180,-46.387,41.992
1688304147.203,13.672,-9.766,-39.062,-55.664,42.969
1688304147.207,-15.137,-17.090,-23.438,-51.270,-56.152
1688304147.210,-35.645,-25.879,-21.973,-16.113,-94.238
1688304147.214,-36.133,-40.527,-22.949,-12.695,139.648
1688304147.218,-20.508,-39.551,-34.180,-26.367,340.820
1688304147.222,-16.113,-24.414,-35.156,-43.945,-73.242
1688304147.226,-26.367,-28.809,-17.578,-35.645,-224.121
1688304147.257,-48.340,-34.180,-14.648,8.301,-4.395
1688304147.261,-68.848,-26.367,-25.879,-2.441,-4.883
1688304147.265,-41.504,-29.297,-28.320,-48.340,-129.883
1688304147.269,-16.113,-31.250,-25.879,-56.641,-159.180
1688304147.273,-24.414,-24.414,-30.273,-38.086,-91.797
1688304147.277,-51.270,-20.020,-37.109,-32.227,1.953
1688304147.281,-59.570,-25.391,-33.691,-17.090,53.711
1688304147.284,-33.691,-37.109,-32.715,-31.738,17.578
1688304147.288,-9.277,-41.992,-36.621,-49.316,368.164
1688304147.292,-13.184,-41.016,-44.922,-32.715,427.734
1688304147.296,-35.156,-32.227,-36.621,-8.789,-53.223
1688304147.300,-56.641,-33.691,-21.484,-14.648,-163.574
1688304147.276,-33.691,-27.832,-20.508,-40.527,-91.309
1688304147.280,-3.418,-9.277,-31.250,-53.223,-221.680
1688304147.284,-6.836,-20.020,-39.551,-39.062,-281.250
1688304147.288,-20.996,-35.645,-44.434,-28.320,-134.277
1688304147.292,-44.434,-31.250,-44.922,-33.203,-23.438
1688304147.296,-29.785,-33.203,-32.227,-40.527,-64.453
1688304147.300,12.207,-24.414,-21.973,-35.645,-61.035
1688304147.303,21.484,-18.066,-22.461,-23.438,21.973
1688304147.307,-13.184,-34.180,-33.691,-19.531,-21.973
