timestamps,TP9,AF7,AF8,TP10,Right AUX
1690986053.590,-35.645,-30.273,-21.484,-18.066,-34.668
1690986053.594,-33.691,-28.809,-19.043,-34.180,8.789
1690986053.598,-42.480,-21.484,-15.625,-47.852,-208.496
1690986053.602,-46.387,-19.531,-21.484,-38.086,-333.984
1690986053.606,-26.855,-20.996,-27.832,-27.832,-228.027
1690986053.610,-15.137,-22.461,-26.367,-12.207,363.770
1690986053.614,-21.973,-26.367,-31.250,-24.414,547.852
1690986053.617,-23.926,-20.508,-33.691,-47.363,-215.332
1690986053.621,-20.508,-16.113,-33.691,-42.480,-379.395
1690986053.625,-18.555,-25.879,-32.227,-30.762,-60.547
1690986053.629,-26.855,-31.250,-34.668,-33.691,-41.016
1690986053.633,-33.691,-27.344,-35.156,-32.227,213.867
1690986053.636,-45.898,-28.809,-34.668,-32.715,-428.223
1690986053.640,-32.715,-33.691,-35.645,-17.578,-162.598
1690986053.644,-31.250,-31.738,-34.668,-14.648,190.918
1690986053.647,-37.109,-32.227,-35.645,-29.297,3.906
1690986053.651,-54.199,-39.062,-31.738,-41.992,-334.473
1690986053.655,-56.641,-41.016,-29.297,-41.992,-411.621
1690986053.659,-40.039,-38.574,-26.367,-30.273,118.652
1690986053.663,-39.551,-34.668,-30.273,-19.531,382.812
1690986053.664,-46.387,-40.527,-38.574,-28.320,-19.043
1690986053.668,-47.852,-40.039,-30.762,-42.969,-286.621
1690986053.672,-47.363,-30.762,-25.391,-45.410,-346.191
1690986053.676,-45.410,-30.273,-27.344,-31.738,-255.371
1690986053.680,-34.180,-26.855,-26.367,-20.508,-8.301
1690986053.684,-28.320,-20.508,-29.297,-25.879,155.762
1690986053.688,-41.504,-24.414,-30.273,-35.645,49.316
1690986053.691,-40.039,-29.297,-26.855,-34.180,-132.812
1690986053.695,-33.203,-31.250,-27.344,-22.461,-83.496
1690986053.699,-28.809,-27.344,-28.809,-6.348,235.352
1690986053.703,-26.367,-24.902,-31.738,-10.742,534.668
1690986053.707,-41.504,-31.250,-35.645,-37.598,50.293
1690986053.724,-42.480,-28.809,-38.574,-46.875,-397.461
1690986053.728,-32.227,-22.461,-36.621,-36.621,-205.078
1690986053.732,-24.902,-27.344,-27.832,-27.832,25.879
1690986053.736,-26.367,-28.809,-23.438,-37.109,-16.602
1690986053.740,-34.180,-24.902,-19.531,-42.480,-202.637
1690986053.744,-26.367,-28.809,-11.719,-30.273,-71.777
1690986053.748,-25.391,-30.762,-16.113,-27.344,-67.871
1690986053.751,-23.438,-33.203,-21.973,-28.809,-10.742
1690986053.755,-20.020,-40.039,-22.949,-25.879,230.469
1690986053.759,-37.598,-37.598,-32.227,-41.016,204.102
1690986053.763,-40.039,-27.344,-40.039,-52.246,-215.820
1690986053.767,-31.250,-24.414,-43.457,-42.480,-355.957
1690986053.769,-32.227,-24.414,-31.738,-20.996,-45.898
1690986053.773,-31.738,-22.461,-20.996,-15.625,269.531
1690986053.777,-33.691,-24.902,-24.414,-41.016,30.762
1690986053.781,-46.387,-32.715,-24.414,-53.711,-337.402
1690986053.785,-46.387,-32.715,-24.902,-42.480,-299.805
1690986053.789,-31.250,-24.902,-23.438,-25.879,-15.137
1690986053.793,-29.785,-20.996,-21.484,-25.879,149.414
1690986053.796,-36.621,-22.949,-24.902,-33.691,-45.898
1690986053.800,-39.551,-26.367,-31.738,-40.039,-149.414
1690986053.804,-41.504,-31.738,-38.086,-43.457,174.805
1690986053.808,-31.250,-41.016,-29.297,-33.691,117.188
1690986053.812,-26.367,-42.969,-15.625,-16.602,50.781
1690986053.814,-35.645,-39.062,-15.625,-33.691,123.047
1690986053.818,-55.176,-36.133,-19.531,-56.641,-202.148
1690986053.822,-48.828,-25.391,-30.273,-54.199,-441.406
1690986053.826,-36.133,-15.625,-34.668,-45.898,-219.727
1690986053.830,-23.438,-8.789,-25.391,-22.949,193.359
1690986053.834,-20.020,-6.348,-22.949,-26.367,94.727
1690986053.838,-37.109,-15.137,-27.832,-45.410,-207.031
1690986053.841,-33.691,-19.043,-29.297,-39.062,-241.211
1690986053.845,-22.461,-17.090,-33.203,-19.531,113.281
1690986053.849,-21.484,-23.438,-35.645,-16.602,272.461
1690986053.853,-22.461,-28.320,-28.809,-25.879,62.500
1690986053.857,-40.039,-35.156,-20.996,-36.621,-230.957
1690986053.860,-41.504,-36.133,-18.555,-41.504,-334.473
1690986053.864,-27.832,-26.367,-23.926,-31.738,-133.789
1690986053.868,-29.785,-20.508,-26.367,-23.926,1.465
1690986053.872,-25.879,-22.949,-26.855,-30.273,103.516
1690986053.876,-30.762,-23.926,-27.832,-43.945,33.691
1690986053.880,-46.387,-32.715,-26.855,-46.387,-114.258
1690986053.884,-36.621,-33.691,-32.227,-39.551,-140.137
1690986053.887,-19.531,-22.949,-33.203,-18.066,120.605
1690986053.891,-27.344,-25.879,-28.809,-19.043,411.133
1690986053.895,-43.945,-34.180,-20.020,-48.340,-2.930
1690986053.899,-50.781,-31.250,-13.672,-44.434,-317.871
1690986053.903,-35.156,-32.227,-18.066,-30.273,-81.543
1690986053.904,-24.902,-29.297,-22.949,-19.531,85.449
1690986053.908,-21.484,-29.297,-26.855,-21.973,22.461
1690986053.912,-22.949,-35.645,-28.320,-42.480,-120.117
1690986053.916,-41.504,-27.832,-27.344,-45.410,-108.887
1690986053.920,-45.410,-23.438,-29.785,-39.062,-166.016
1690986053.924,-28.809,-24.902,-29.785,-27.344,-37.598
1690986053.928,-20.020,-23.438,-27.344,-28.320,162.109
1690986053.931,-24.414,-29.297,-35.156,-39.551,306.152
1690986053.935,-41.504,-31.738,-35.645,-46.875,46.387
1690986053.939,-34.668,-32.227,-34.668,-46.875,-398.438
1690986053.943,-14.160,-25.879,-37.109,-28.320,-188.965
1690986053.947,-16.113,-17.090,-30.762,-15.137,107.422
1690986053.949,-23.438,-21.973,-23.926,-25.391,-37.109
1690986053.953,-20.996,-25.391,-21.484,-32.227,-285.645
1690986053.957,-31.250,-23.438,-22.461,-30.273,-248.047
1690986053.961,-28.809,-26.855,-20.996,-20.996,-20.996
1690986053.965,-16.602,-26.855,-19.043,-8.301,158.203
1690986053.969,-29.297,-21.973,-20.508,-21.973,86.914
1690986053.973,-41.016,-21.484,-18.066,-33.203,47.363
1690986053.976,-45.898,-26.367,-21.484,-28.809,160.645
1690986053.980,-40.039,-29.785,-31.738,-29.785,13.184
1690986053.984,-28.809,-33.203,-27.832,-32.227,93.262
1690986053.988,-35.156,-38.574,-27.832,-36.133,193.848
1690986053.992,-54.688,-38.574,-30.762,-60.059,-62.500
1690986053.994,-57.129,-35.645,-30.762,-71.289,-386.230
1690986053.998,-35.645,-39.551,-36.621,-44.922,-291.992
1690986054.002,-30.273,-41.504,-27.344,-28.809,18.555
1690986054.006,-62.988,-32.227,-28.809,-63.965,10.742
1690986054.010,-86.914,-29.297,-34.180,-92.773,-255.371
1690986054.014,-87.402,-35.645,-32.227,-98.633,-210.449
1690986054.018,-96.191,-35.645,-33.203,-97.656,215.820
1690986054.021,-117.188,-41.504,-37.109,-104.492,272.461
1690986054.025,-120.605,-47.363,-37.598,-119.141,67.383
1690986054.029,-136.719,-40.039,-30.273,-146.973,-148.926
1690986054.033,-175.781,-47.363,-35.645,-176.758,-257.324
1690986054.037,-182.129,-51.758,-40.527,-178.711,-230.957
1690986054.039,-167.969,-49.805,-38.086,-174.316,-38.086
1690986054.043,-186.035,-46.875,-35.645,-193.359,34.668
1690986054.047,-207.031,-45.898,-31.738,-215.820,-145.996
1690986054.051,-212.891,-49.805,-36.621,-224.609,-303.711
1690986054.055,-211.426,-55.176,-47.852,-227.539,-242.188
1690986054.059,-199.219,-51.270,-52.734,-216.309,201.660
1690986054.063,-194.336,-43.457,-52.246,-209.961,408.203
1690986054.066,-192.383,-46.387,-44.434,-210.449,41.504
1690986054.070,-179.688,-41.504,-28.320,-203.613,-318.848
1690986054.074,-151.367,-28.809,-25.879,-177.246,-74.707
1690986054.078,-134.277,-31.738,-29.297,-150.879,330.078
1690986054.082,-122.070,-42.480,-26.367,-141.113,126.953
1690986054.100,-108.398,-41.992,-26.855,-132.812,-168.457
1690986054.104,-103.027,-38.574,-25.391,-118.164,-190.918
1690986054.108,-84.473,-37.598,-29.297,-97.656,-214.844
1690986054.112,-61.523,-37.598,-37.109,-69.336,-138.672
1690986054.116,-41.016,-40.039,-37.598,-47.852,85.449
1690986054.120,-35.645,-38.086,-37.109,-50.781,98.145
1690986054.124,-37.109,-36.621,-37.598,-54.688,-132.812
1690986054.127,-14.160,-35.156,-39.062,-35.156,-274.414
1690986054.131,0.488,-36.133,-39.062,-13.672,-113.281
1690986054.135,1.465,-39.062,-38.086,-1.465,353.027
1690986054.139,-13.184,-34.180,-35.645,-8.789,93.750
1690986054.143,-13.184,-29.785,-38.086,-15.625,-310.547
1690986054.145,1.953,-35.156,-43.945,-5.859,-233.887
1690986054.149,16.602,-25.391,-34.668,13.184,-49.316
1690986054.153,20.996,-17.578,-25.879,19.043,137.207
1690986054.157,8.301,-20.508,-25.391,0.000,35.645
1690986054.161,1.953,-20.020,-28.320,-11.230,-169.922
1690986054.165,1.465,-19.531,-27.344,0.000,-110.840
1690986054.169,15.625,-21.484,-27.832,14.160,65.430
1690986054.172,31.250,-20.508,-32.227,14.648,119.629
1690986054.176,18.555,-24.414,-32.227,-4.395,161.133
1690986054.180,3.418,-30.762,-28.320,-11.719,409.180
1690986054.184,3.906,-26.855,-29.785,-5.371,2.441
1690986054.188,15.137,-26.855,-28.320,4.883,-295.410
1690986054.189,19.531,-32.227,-28.320,24.902,47.363
1690986054.193,13.184,-28.809,-29.785,19.531,37.109
1690986054.197,1.953,-21.973,-26.367,7.324,-279.297
1690986054.201,6.348,-20.020,-22.949,19.043,-263.672
1690986054.205,11.230,-16.602,-26.367,26.855,-5.371
1690986054.209,16.113,-27.344,-24.902,36.621,137.695
1690986054.213,17.090,-39.062,-23.438,28.320,203.613
1690986054.216,2.930,-25.879,-29.785,-0.977,-52.246
1690986054.220,-0.488,-20.508,-25.391,-0.977,-36.133
1690986054.224,-1.465,-32.715,-19.531,7.812,0.488
1690986054.228,-5.859,-31.250,-18.066,15.625,-40.039
1690986054.232,-8.789,-20.996,-24.414,14.160,113.281
1690986054.234,-16.602,-19.043,-27.344,-11.230,-46.875
1690986054.238,-8.789,-20.996,-26.855,-20.020,-340.820
1690986054.242,-5.371,-22.461,-23.926,-9.766,-343.750
1690986054.246,0.000,-22.461,-17.578,4.883,-58.105
1690986054.250,-13.184,-24.902,-26.367,0.488,125.000
1690986054.254,-31.250,-26.855,-29.297,-18.066,10.742
1690986054.258,-35.156,-24.414,-20.996,-27.832,-163.574
1690986054.261,-28.809,-27.832,-21.973,-18.066,-78.125
1690986054.265,-26.367,-27.344,-22.949,-2.441,93.262
1690986054.269,-16.602,-25.391,-16.113,5.371,191.895
1690986054.273,-9.766,-27.344,-17.578,-8.789,-5.371
1690986054.277,-24.414,-27.344,-24.902,-27.832,-143.555
1690986054.295,-25.879,-26.367,-24.902,-19.043,177.734
1690986054.299,-15.137,-24.414,-26.855,-14.648,135.254
1690986054.303,-16.602,-31.738,-29.297,-15.625,27.832
1690986054.307,-27.344,-27.344,-24.902,-25.879,-13.672
1690986054.311,-35.645,-21.484,-23.438,-32.227,-265.625
1690986054.315,-39.062,-24.414,-32.715,-25.391,-288.574
1690986054.319,-21.484,-22.949,-34.180,-20.020,-57.129
1690986054.322,-4.395,-24.414,-29.785,-10.254,363.770
1690986054.326,-12.695,-32.715,-32.715,-12.695,229.004
1690986054.330,-27.344,-31.738,-31.250,-30.273,-212.891
1690986054.334,-25.879,-28.320,-24.902,-27.832,-308.105
1690986054.338,-9.766,-21.484,-23.926,-15.137,-106.445
1690986054.340,-3.418,-16.113,-23.926,-8.301,-2.930
1690986054.344,-15.625,-14.160,-26.855,-20.996,-48.340
1690986054.348,-27.832,-16.602,-32.715,-31.250,-189.453
1690986054.352,-26.855,-26.367,-37.598,-24.414,-263.672
1690986054.356,-24.414,-29.297,-41.016,-13.184,-171.875
1690986054.360,-23.438,-36.621,-34.180,-2.441,108.887
1690986054.364,-17.090,-33.691,-23.926,-13.672,216.309
1690986054.367,-20.996,-20.508,-16.602,-30.762,-61.523
1690986054.371,-31.250,-21.484,-14.160,-33.203,-296.387
1690986054.375,-21.484,-27.344,-18.555,-17.090,-160.156
1690986054.379,-4.883,-34.180,-20.020,3.418,225.586
1690986054.383,-12.207,-36.621,-20.020,3.418,617.188
1690986054.370,-25.391,-26.367,-25.391,-18.066,113.281
1690986054.374,-30.762,-23.438,-27.832,-20.996,-364.746
1690986054.378,-23.926,-23.926,-35.645,-6.836,-193.359
1690986054.382,-6.348,-22.461,-35.645,1.953,-31.738
1690986054.386,-5.859,-22.461,-25.879,-3.906,-18.066
1690986054.390,-22.949,-21.484,-25.879,-23.926,2.930
1690986054.394,-36.621,-22.461,-29.785,-34.668,-11.230
1690986054.397,-31.250,-28.809,-32.715,-27.832,-238.281
1690986054.401,-17.090,-37.109,-41.016,-19.531,-149.414
1690986054.405,-19.043,-33.691,-39.551,-9.277,62.500
1690986054.409,-37.598,-28.809,-31.738,-13.672,169.434
1690986054.413,-37.598,-33.203,-29.297,-25.879,-59.082
1690986054.415,-32.227,-23.926,-28.809,-27.832,-300.781
1690986054.419,-27.832,-15.137,-28.320,-23.438,-68.359
1690986054.423,-24.902,-23.926,-30.762,-20.996,209.473
1690986054.427,-39.551,-24.414,-27.832,-38.574,-57.129
1690986054.431,-44.922,-21.484,-24.902,-49.316,-411.133
1690986054.435,-31.738,-28.320,-26.367,-38.086,-173.340
1690986054.439,-19.043,-23.926,-24.902,-17.090,433.105
1690986054.442,-22.949,-20.996,-23.926,-14.648,281.738
1690986054.446,-36.133,-21.973,-23.926,-33.691,-205.566
1690986054.450,-41.504,-21.484,-23.926,-41.504,-97.168
1690986054.454,-29.785,-26.855,-26.367,-35.645,-92.285
1690986054.458,-22.949,-21.973,-28.809,-21.484,-194.336
1690986054.474,-31.738,-20.020,-32.715,-20.020,67.383
1690986054.478,-37.109,-24.414,-32.227,-38.574,108.398
1690986054.482,-36.621,-25.391,-31.738,-52.246,-151.855
1690986054.486,-21.973,-28.320,-33.203,-42.480,-294.434
1690986054.490,1.953,-21.973,-35.645,-15.625,-92.773
1690986054.494,-6.836,-18.066,-30.762,-18.066,463.867
1690986054.498,-48.828,-23.438,-22.461,-46.387,333.984
1690986054.501,-54.199,-21.484,-23.926,-49.805,-289.551
1690986054.505,-43.945,-25.879,-20.508,-39.551,-342.285
1690986054.509,-44.922,-35.645,-16.602,-34.668,-118.652
1690986054.513,-32.715,-37.598,-18.555,-26.367,50.293
1690986054.517,-39.551,-36.621,-18.066,-25.879,-42.480
1690986054.519,-62.500,-36.133,-20.020,-40.039,-192.383
1690986054.523,-55.176,-35.645,-20.996,-38.574,-116.211
1690986054.527,-40.039,-38.086,-26.855,-29.785,-126.465
1690986054.531,-28.809,-38.574,-30.762,-14.648,8.789
1690986054.535,-23.926,-43.457,-29.297,-18.555,116.211
1690986054.539,-38.574,-48.828,-39.062,-41.016,59.082
1690986054.543,-46.387,-44.922,-39.062,-34.180,-93.262
1690986054.546,-48.828,-35.645,-31.738,-22.949,-75.684
1690986054.550,-38.574,-30.762,-24.902,-13.184,203.613
1690986054.554,-36.621,-33.203,-23.438,-16.602,665.527
1690986054.558,-49.316,-33.203,-31.250,-36.621,337.402
1690986054.562,-52.246,-32.715,-40.039,-52.246,-341.797
1690986054.565,-43.457,-29.785,-38.086,-50.781,-328.125
1690986054.569,-25.391,-26.855,-28.320,-30.762,-148.926
1690986054.573,-26.855,-27.344,-26.367,-29.785,-36.133
1690986054.577,-42.969,-28.809,-27.344,-38.574,-166.504
1690986054.581,-46.875,-30.762,-35.156,-41.992,-333.008
1690986054.585,-37.109,-24.414,-28.320,-34.668,-206.055
1690986054.589,-24.414,-16.113,-14.160,-20.020,0.488
1690986054.592,-16.113,-26.367,-19.531,-17.090,108.398
1690986054.596,-24.902,-40.527,-26.855,-22.461,248.535
1690986054.600,-42.969,-29.297,-31.250,-40.039,36.621
1690986054.604,-33.203,-20.020,-28.320,-42.480,-283.203
1690986054.608,-19.043,-20.508,-28.809,-26.855,-88.379
1690986054.609,-14.160,-21.973,-30.762,-18.555,291.992
1690986054.613,-17.578,-26.855,-29.297,-26.855,8.301
1690986054.617,-30.762,-21.973,-28.320,-37.109,-388.672
1690986054.621,-28.320,-19.531,-32.227,-33.691,-372.559
1690986054.625,-28.809,-29.785,-33.691,-25.391,-164.551
1690986054.629,-20.996,-35.156,-24.902,-17.578,99.121
1690986054.633,-24.414,-32.227,-23.926,-32.715,98.633
1690986054.636,-47.852,-30.762,-25.879,-50.781,-133.789
1690986054.640,-45.410,-33.691,-28.320,-51.758,-219.238
1690986054.644,-32.715,-35.156,-31.250,-34.668,-17.090
1690986054.648,-30.762,-41.016,-33.203,-17.578,118.652
1690986054.652,-33.691,-39.062,-29.785,-30.273,249.023
1690986054.654,-39.551,-31.738,-26.367,-42.480,425.293
1690986054.658,-53.223,-25.879,-32.715,-45.410,-62.500
1690986054.662,-53.711,-21.973,-33.203,-35.645,-332.031
1690986054.666,-28.809,-24.902,-27.344,-29.785,-14.648
1690986054.670,-21.484,-23.438,-23.926,-39.062,23.926
1690986054.674,-42.969,-22.949,-23.926,-45.898,-165.039
1690986054.678,-55.664,-32.715,-25.879,-44.434,-228.516
1690986054.681,-43.945,-38.574,-22.949,-30.762,63.965
1690986054.685,-32.715,-38.086,-20.020,-20.996,208.008
1690986054.689,-32.227,-36.621,-25.391,-33.203,17.578
1690986054.693,-36.133,-35.645,-35.645,-45.898,-180.664
1690986054.697,-41.992,-32.715,-33.203,-43.457,-250.488
1690986054.700,-40.039,-26.367,-33.203,-31.738,-181.641
1690986054.704,-24.902,-22.949,-33.203,-19.531,-36.621
1690986054.708,-20.508,-25.879,-24.414,-23.438,212.891
1690986054.712,-32.227,-22.949,-16.602,-35.645,98.145
1690986054.716,-40.527,-23.438,-14.160,-41.504,-250.977
1690986054.720,-33.691,-28.320,-13.184,-33.203,-210.449
1690986054.724,-15.625,-18.555,-11.230,-18.066,188.477
1690986054.727,-4.883,-19.531,-20.020,-16.113,491.211
1690986054.731,-18.066,-35.645,-32.227,-30.273,61.035
1690986054.735,-33.691,-32.715,-35.645,-44.922,-310.059
1690986054.739,-28.809,-22.461,-28.809,-37.598,-163.086
1690986054.743,-38.574,-21.973,-30.762,-25.879,123.047
1690986054.747,-37.598,-26.367,-33.203,-27.832,64.941
1690986054.751,-35.156,-25.391,-23.926,-30.273,-116.699
1690986054.755,-42.480,-27.344,-19.531,-30.762,-163.574
1690986054.759,-34.180,-34.668,-25.879,-27.832,-287.598
1690986054.763,-27.344,-39.062,-30.762,-23.438,-193.848
1690986054.767,-26.855,-40.039,-21.973,-13.184,169.434
1690986054.771,-26.855,-30.273,-20.996,-26.367,458.984
1690986054.774,-35.645,-26.367,-25.879,-49.316,172.852
1690986054.778,-44.434,-24.902,-32.715,-43.945,-336.426
1690986054.782,-34.668,-24.414,-40.039,-30.762,-203.613
1690986054.786,-22.461,-31.250,-32.227,-21.484,55.176
1690986054.790,-26.855,-30.762,-21.973,-28.320,-57.129
1690986054.819,-40.527,-18.555,-21.484,-43.457,-276.367
1690986054.823,-37.109,-20.020,-20.508,-41.504,-289.062
1690986054.827,-28.320,-31.250,-18.066,-29.785,-111.328
1690986054.831,-30.762,-19.043,-19.531,-23.438,82.520
1690986054.835,-33.203,-11.719,-24.902,-28.320,22.461
1690986054.839,-34.668,-15.137,-31.250,-33.691,-58.105
1690986054.843,-38.086,-17.578,-29.297,-33.691,58.594
1690986054.846,-32.715,-20.508,-28.320,-32.715,29.297
1690986054.850,-13.184,-24.414,-34.668,-27.344,87.891
1690986054.854,-21.973,-25.879,-36.621,-24.902,241.211
1690986054.858,-46.387,-24.414,-34.668,-26.367,261.230
1690986054.862,-48.340,-30.273,-35.156,-38.574,-192.383
1690986054.850,-41.992,-32.715,-36.621,-37.598,-338.379
1690986054.854,-27.832,-40.039,-35.156,-22.949,39.551
1690986054.858,-24.902,-42.969,-33.691,-34.180,62.988
1690986054.862,-44.922,-27.344,-38.574,-53.223,-237.305
1690986054.866,-50.293,-31.250,-39.551,-56.641,-340.332
1690986054.870,-33.691,-34.668,-37.598,-39.551,-53.223
1690986054.874,-20.508,-29.297,-35.156,-24.902,125.000
1690986054.877,-23.926,-32.227,-29.785,-29.785,62.988
1690986054.881,-24.902,-30.762,-31.738,-47.363,-102.051
1690986054.885,-21.484,-28.320,-30.762,-53.711,-205.078
1690986054.889,-23.926,-26.855,-29.785,-37.598,-209.473
1690986054.893,-29.785,-23.438,-36.133,-23.926,-106.934
1690986054.924,-20.020,-23.926,-27.344,-24.902,55.176
1690986054.928,-18.555,-29.785,-20.508,-29.785,276.367
1690986054.932,-29.785,-32.227,-20.996,-46.387,-33.203
1690986054.936,-35.156,-30.762,-20.996,-41.016,-356.445
1690986054.940,-28.809,-29.785,-22.461,-18.066,-56.641
1690986054.944,-22.949,-36.133,-30.762,-19.043,203.125
1690986054.948,-28.809,-35.156,-29.297,-36.621,84.473
1690986054.951,-39.551,-24.902,-19.043,-53.223,-273.926
1690986054.955,-33.691,-27.832,-15.137,-41.504,-143.555
1690986054.959,-26.855,-34.180,-22.461,-18.555,494.141
1690986054.963,-28.809,-24.414,-29.785,-22.949,362.793
1690986054.967,-33.203,-22.949,-32.227,-44.434,-179.688
1690986054.955,-33.691,-26.855,-28.809,-34.668,-2.441
1690986054.959,-28.320,-21.973,-20.996,-29.297,317.383
1690986054.963,-39.551,-17.578,-22.461,-48.340,351.074
1690986054.967,-39.062,-18.555,-32.227,-47.363,157.715
1690986054.971,-28.809,-17.090,-36.621,-44.922,-268.555
1690986054.975,-22.461,-10.254,-36.621,-35.645,-156.738
1690986054.979,-19.531,-16.113,-35.645,-27.344,24.414
1690986054.982,-26.367,-16.113,-38.086,-43.457,-242.676
1690986054.986,-25.879,-9.277,-33.203,-47.852,-337.402
1690986054.990,-23.438,-20.020,-30.273,-35.156,-10.254
1690986054.994,-18.066,-26.367,-25.879,-20.996,149.902
1690986054.998,-30.273,-28.809,-25.391,-33.203,-30.273
1690986054.999,-35.645,-27.832,-34.180,-39.062,-183.594
1690986055.003,-24.414,-17.578,-37.598,-37.109,4.883
1690986055.007,-38.086,-23.926,-38.574,-45.898,-84.473
1690986055.011,-34.180,-31.738,-34.668,-26.855,-20.508
1690986055.015,-26.855,-34.668,-35.645,-25.391,131.836
1690986055.019,-44.922,-35.645,-36.621,-42.969,-137.695
1690986055.023,-43.457,-30.762,-34.180,-38.574,-319.824
1690986055.026,-29.297,-26.367,-34.668,-32.227,-244.629
1690986055.030,-19.043,-31.250,-33.691,-20.020,197.266
1690986055.034,-30.273,-38.086,-32.227,-17.578,493.652
1690986055.038,-42.969,-37.109,-35.156,-34.668,-15.137
1690986055.042,-29.785,-28.809,-35.156,-33.691,-320.312
1690986055.044,-28.320,-27.832,-28.809,-22.461,-181.152
1690986055.048,-25.879,-30.273,-29.297,-13.672,-45.898
1690986055.052,-20.996,-33.203,-33.691,-21.973,40.527
1690986055.056,-33.203,-34.668,-31.738,-45.410,-85.449
1690986055.060,-36.621,-30.273,-28.320,-50.293,-263.672
1690986055.064,-22.949,-25.879,-24.902,-39.062,-173.340
1690986055.068,-12.207,-19.531,-29.297,-26.367,37.598
1690986055.071,-12.207,-21.484,-33.203,-26.367,183.105
1690986055.075,-22.461,-27.832,-27.344,-35.156,321.289
1690986055.079,-33.691,-25.879,-21.973,-49.316,-31.250
1690986055.083,-30.762,-22.461,-21.484,-43.945,-404.785
1690986055.087,-19.531,-19.531,-21.484,-27.344,-143.066
1690986055.089,-20.508,-19.043,-21.973,-23.438,122.559
1690986055.093,-26.855,-25.879,-21.973,-32.715,-38.086
1690986055.097,-28.320,-29.297,-26.855,-46.387,-305.664
1690986055.101,-27.344,-29.297,-31.250,-34.180,-298.340
1690986055.105,-32.227,-38.574,-35.645,-21.973,-62.988
1690986055.109,-38.574,-41.992,-38.086,-32.227,130.371
1690986055.113,-43.457,-41.504,-35.645,-46.875,-67.871
1690986055.116,-46.875,-53.711,-28.320,-40.527,28.809
1690986055.120,-35.645,-42.969,-21.973,-33.691,348.633
1690986055.124,-21.973,-24.902,-25.879,-33.691,105.957
1690986055.128,-25.879,-20.508,-24.414,-20.996,11.719
1690986055.132,-32.227,-16.602,-19.531,-22.949,90.332
1690986055.134,-40.039,-25.879,-26.367,-38.086,-164.062
1690986055.138,-46.387,-33.691,-29.785,-47.852,-370.117
1690986055.142,-42.480,-33.691,-36.133,-39.551,-211.914
1690986055.146,-28.320,-38.574,-49.805,-21.973,101.074
1690986055.150,-27.832,-30.762,-41.992,-29.785,20.996
1690986055.154,-34.180,-19.531,-25.879,-50.781,-219.238
1690986055.158,-18.555,-21.484,-25.879,-34.180,-208.984
1690986055.161,-1.465,-16.113,-25.879,-8.789,198.730
1690986055.165,-12.695,-15.137,-19.043,-9.766,288.086
1690986055.169,-30.762,-22.461,-21.484,-21.973,35.645
1690986055.173,-28.809,-22.949,-23.926,-28.320,-155.273
1690986055.177,-26.367,-29.297,-20.508,-20.020,-283.203
1690986055.180,-22.949,-32.715,-21.484,-10.742,-255.859
1690986055.184,-17.090,-31.738,-16.113,1.465,-80.078
1690986055.188,-13.184,-32.715,-15.137,3.906,108.887
1690986055.192,-16.113,-38.574,-18.555,-12.695,-6.348
1690986055.196,-22.461,-40.039,-20.508,-18.555,-286.133
1690986055.200,-22.461,-35.156,-22.461,-15.625,-226.562
1690986055.204,-5.859,-38.574,-19.043,-2.441,212.402
1690986055.207,-5.859,-41.992,-25.879,-3.418,584.961
1690986055.211,-24.902,-35.645,-33.203,-16.602,12.695
1690986055.215,-26.855,-32.715,-25.879,-17.578,-416.016
1690986055.219,-16.113,-36.621,-24.902,-13.184,-175.781
1690986055.223,-5.859,-32.715,-26.855,-6.836,56.641
1690986055.239,-13.672,-28.320,-29.297,-12.207,69.824
1690986055.243,-25.391,-32.715,-28.809,-12.207,-88.379
1690986055.247,-25.879,-32.227,-24.902,-19.531,-123.535
1690986055.251,-24.902,-35.645,-27.344,-32.227,-159.668
1690986055.255,-17.090,-35.645,-29.297,-22.949,-87.402
1690986055.259,-8.789,-31.738,-27.344,-16.113,207.031
1690986055.263,-17.578,-33.691,-30.273,-15.137,490.723
1690986055.266,-28.320,-32.227,-31.250,-25.391,130.371
1690986055.270,-30.273,-36.621,-32.715,-38.086,-302.734
1690986055.274,-25.391,-38.574,-31.250,-18.555,-130.859
1690986055.278,-20.508,-38.086,-25.391,-7.812,78.125
1690986055.282,-27.344,-36.133,-18.066,-18.066,-81.055
1690986055.270,-34.180,-31.738,-15.137,-24.902,-309.082
1690986055.274,-32.227,-23.438,-17.090,-17.090,-287.109
1690986055.278,-26.367,-17.578,-12.695,-2.930,-108.887
1690986055.282,-20.996,-20.996,-11.719,1.465,87.402
1690986055.286,-24.902,-20.020,-18.555,-17.578,-27.344
1690986055.290,-24.902,-21.484,-19.531,-25.391,-54.688
1690986055.294,-26.367,-30.273,-25.879,-22.461,45.898
1690986055.297,-26.367,-34.668,-31.738,-18.066,13.672
1690986055.301,-24.414,-30.762,-20.996,-9.277,138.184
1690986055.305,-30.762,-24.902,-14.160,-12.695,280.762
1690986055.309,-35.156,-22.461,-18.555,-18.555,276.367
1690986055.313,-41.504,-22.461,-18.066,-32.715,-220.703
1690986055.329,-39.062,-28.809,-20.508,-32.227,-335.449
1690986055.333,-25.391,-28.320,-19.531,-14.160,22.461
1690986055.337,-16.602,-22.461,-14.160,-13.672,-7.324
1690986055.341,-28.320,-23.438,-18.066,-27.344,-277.344
1690986055.345,-33.691,-28.809,-24.414,-30.273,-289.551
1690986055.349,-16.602,-27.832,-24.414,-17.578,27.832
1690986055.353,-11.230,-24.902,-32.227,-12.207,193.359
1690986055.356,-17.578,-27.832,-30.762,-21.973,110.352
1690986055.360,-18.066,-28.320,-18.066,-29.297,-112.793
1690986055.364,-20.996,-22.461,-18.066,-23.926,-2.441
1690986055.368,-34.668,-13.672,-26.855,-33.691,-26.367
1690986055.372,-35.156,-19.043,-29.297,-38.086,-48.340
1690986055.374,-41.016,-25.879,-32.227,-42.480,81.543
1690986055.378,-50.293,-18.066,-32.227,-55.176,-97.168
1690986055.382,-48.340,-14.160,-29.297,-58.105,-334.961
1690986055.386,-40.039,-18.555,-29.297,-46.875,-313.965
1690986055.390,-27.832,-21.484,-29.297,-29.297,-20.508
1690986055.394,-29.297,-21.484,-28.320,-30.273,168.457
1690986055.398,-31.250,-24.414,-30.762,-47.852,61.523
1690986055.401,-28.320,-23.438,-33.203,-52.734,-152.344
1690986055.405,-30.762,-19.043,-30.762,-34.668,30.273
1690986055.409,-38.574,-24.414,-28.320,-12.695,491.699
1690986055.413,-33.691,-23.438,-27.832,-17.090,298.828
1690986055.417,-30.762,-18.555,-28.809,-35.645,-123.535
1690986055.419,-28.809,-22.949,-27.344,-28.809,-167.969
1690986055.423,-28.809,-31.738,-33.203,-27.344,-242.676
1690986055.427,-26.367,-34.668,-32.715,-23.926,-171.875
1690986055.431,-20.996,-31.250,-32.227,-21.973,72.266
1690986055.435,-42.480,-33.203,-35.645,-34.180,-16.602
1690986055.439,-45.898,-30.762,-35.645,-43.945,-113.770
1690986055.443,-38.086,-23.438,-37.598,-46.875,-159.668
1690986055.446,-29.785,-19.043,-37.598,-26.855,-68.848
1690986055.450,-23.926,-17.090,-32.227,-7.812,430.664
1690986055.454,-30.762,-15.625,-26.367,-22.949,197.754
1690986055.458,-33.691,-13.672,-25.879,-47.852,-334.961
1690986055.462,-27.344,-16.113,-30.762,-37.598,-306.641
1690986055.466,-16.113,-17.090,-31.738,-16.113,-12.207
1690986055.470,-8.789,-17.090,-40.039,-15.137,137.207
1690986055.474,-19.043,-27.832,-50.293,-40.527,-15.137
1690986055.478,-27.344,-30.762,-39.551,-44.434,-189.453
1690986055.482,-24.902,-31.250,-37.109,-40.527,-206.543
1690986055.486,-17.090,-27.832,-37.109,-35.156,-75.195
1690986055.490,-12.207,-23.438,-29.785,-20.508,97.168
1690986055.493,-29.297,-26.367,-26.855,-22.949,201.660
1690986055.497,-41.016,-28.809,-25.879,-33.691,281.250
1690986055.501,-33.691,-24.902,-25.879,-33.691,-137.695
1690986055.505,-37.598,-24.414,-29.297,-25.391,-323.730
1690986055.509,-25.879,-25.879,-27.344,-12.695,74.219
1690986055.510,-28.809,-24.414,-25.391,-27.344,84.961
1690986055.514,-42.480,-26.367,-28.809,-41.016,-244.629
1690986055.518,-41.016,-32.227,-26.367,-36.133,-302.734
1690986055.522,-39.062,-34.668,-23.926,-27.832,-134.277
1690986055.526,-19.043,-31.250,-36.621,-15.625,32.715
1690986055.530,-24.902,-27.832,-42.480,-29.297,85.449
1690986055.534,-37.598,-23.926,-24.414,-31.738,34.180
1690986055.537,-37.109,-20.996,-16.113,-30.762,34.668
1690986055.541,-38.086,-23.926,-25.391,-33.203,-95.215
1690986055.545,-26.367,-33.691,-28.809,-26.855,-44.922
1690986055.549,-30.273,-35.645,-26.855,-31.738,114.746
1690986055.553,-47.363,-31.738,-28.809,-41.504,202.637
1690986055.554,-47.363,-28.809,-29.297,-44.922,-144.531
1690986055.558,-45.410,-26.855,-27.832,-33.203,-337.402
1690986055.562,-30.273,-26.367,-32.227,-20.508,-34.180
1690986055.566,-15.137,-29.297,-33.691,-18.066,124.023
1690986055.570,-13.184,-31.738,-28.809,-27.832,-109.375
1690986055.574,-34.180,-25.879,-29.297,-52.246,-225.098
1690986055.578,-54.688,-25.391,-36.621,-63.965,34.180
1690986055.581,-47.363,-26.855,-41.504,-53.223,196.289
1690986055.585,-43.457,-22.949,-42.480,-53.711,238.770
1690986055.589,-54.688,-18.555,-39.551,-72.754,4.395
1690986055.593,-62.500,-15.137,-38.574,-85.938,-94.727
1690986055.597,-63.965,-18.066,-37.109,-80.078,204.102
1690986055.599,-62.012,-20.996,-36.133,-79.590,39.062
1690986055.603,-59.570,-12.207,-38.086,-79.102,-32.715
1690986055.607,-71.777,-10.742,-38.086,-93.750,2.441
1690986055.611,-75.195,-15.625,-39.062,-105.469,-231.934
1690986055.615,-65.918,-18.066,-44.434,-97.168,-373.535
1690986055.619,-62.012,-18.066,-41.992,-80.566,-125.488
1690986055.623,-50.781,-16.602,-36.621,-62.500,438.965
1690986055.626,-47.852,-19.531,-38.574,-60.547,205.078
1690986055.630,-41.016,-21.484,-33.691,-56.641,-247.559
1690986055.634,-32.227,-19.043,-28.320,-42.480,-211.426
1690986055.638,-33.691,-23.438,-26.367,-26.855,47.363
1690986055.642,-17.090,-25.879,-26.855,-12.207,80.566
1690986055.644,-16.113,-23.438,-29.785,-13.672,-101.074
1690986055.648,-34.180,-26.367,-26.855,-34.180,-224.121
1690986055.652,-28.320,-27.832,-20.508,-35.156,-252.441
1690986055.656,-16.113,-19.531,-21.973,-19.043,-178.711
1690986055.660,-15.137,-17.578,-24.902,-11.719,44.922
1690986055.664,-21.484,-20.508,-23.438,-19.531,181.641
1690986055.668,-41.504,-20.508,-24.902,-31.738,41.016
1690986055.671,-49.805,-22.949,-20.996,-25.391,-136.230
1690986055.675,-27.832,-21.484,-13.672,-20.996,-137.695
1690986055.679,1.465,-18.555,-14.160,-5.371,156.250
1690986055.683,-13.184,-22.949,-17.578,6.348,607.422
1690986055.687,-34.668,-28.809,-21.484,-19.531,88.867
1690986055.704,-24.902,-24.902,-23.926,-37.598,-351.074
1690986055.708,-22.949,-24.414,-21.973,-29.785,-143.066
1690986055.712,-16.113,-29.297,-24.902,-24.414,-46.875
1690986055.716,-16.113,-25.879,-28.320,-28.809,-12.695
1690986055.720,-28.809,-25.879,-29.297,-47.363,-155.273
1690986055.724,-26.367,-24.902,-33.691,-50.293,-193.359
1690986055.728,-21.973,-18.555,-30.273,-34.180,-94.727
1690986055.731,-10.742,-14.160,-25.879,-17.090,-70.801
1690986055.735,-11.230,-16.113,-30.273,-16.113,61.523
1690986055.739,-25.879,-21.484,-31.738,-26.855,250.488
1690986055.743,-30.273,-25.879,-27.832,-34.668,-100.586
1690986055.747,-29.297,-19.043,-19.531,-26.855,-347.656
1690986055.749,-21.484,-14.648,-19.531,-20.996,-47.363
1690986055.753,-21.484,-20.020,-28.809,-18.555,162.598
1690986055.757,-33.203,-19.043,-30.762,-28.320,-43.457
1690986055.761,-30.273,-16.602,-23.926,-35.645,-321.777
1690986055.765,-28.809,-24.902,-23.926,-18.555,-250.488
1690986055.769,-22.461,-30.762,-21.484,5.371,102.051
1690986055.773,-21.973,-25.879,-18.066,-6.348,277.344
1690986055.776,-52.246,-32.715,-16.602,-41.016,21.484
1690986055.780,-56.152,-38.086,-11.719,-44.434,-102.539
1690986055.784,-45.898,-39.551,-9.277,-28.320,233.887
1690986055.788,-42.480,-43.945,-10.254,-28.809,93.262
1690986055.792,-27.832,-50.293,-5.371,-18.066,23.438
1690986055.794,-35.645,-50.293,-3.906,-22.949,48.828
1690986055.798,-57.617,-48.828,-10.254,-39.062,-241.211
1690986055.802,-60.059,-54.199,-10.742,-32.227,-365.234
1690986055.806,-43.945,-54.688,-15.625,-25.391,-179.199
1690986055.810,-30.762,-51.758,-18.066,-12.695,236.816
1690986055.814,-42.969,-47.363,-19.043,-14.160,209.473
1690986055.818,-47.852,-41.504,-20.996,-33.691,-88.867
1690986055.821,-35.156,-36.621,-19.531,-31.250,-186.523
1690986055.825,-30.273,-35.156,-18.066,-21.973,102.051
1690986055.829,-20.508,-36.133,-19.531,-10.254,244.141
1690986055.833,-30.273,-37.109,-18.066,-19.043,31.738
1690986055.837,-43.945,-41.992,-21.973,-33.691,-178.223
1690986055.840,-40.527,-44.434,-24.902,-26.367,-284.180
1690986055.844,-28.809,-39.062,-22.949,-27.832,-283.691
1690986055.848,-17.090,-37.598,-18.555,-20.996,-17.090
1690986055.852,-27.344,-37.109,-20.020,-19.531,123.535
1690986055.856,-43.457,-37.109,-30.762,-41.992,-104.492
1690986055.860,-41.504,-39.551,-25.391,-47.852,-183.594
1690986055.864,-32.715,-37.109,-19.531,-33.691,-121.094
1690986055.867,-20.508,-34.668,-23.926,-13.184,251.953
1690986055.871,-0.488,-29.785,-20.508,0.488,700.684
1690986055.875,-7.812,-26.855,-17.090,-10.742,293.457
1690986055.879,-34.180,-35.645,-17.578,-37.109,-349.121
1690986055.883,-45.898,-37.598,-20.020,-45.898,-341.797
1690986055.884,-36.133,-34.180,-22.461,-33.203,-119.141
1690986055.888,-24.414,-32.227,-19.043,-14.648,-38.574
1690986055.892,-30.762,-30.273,-20.508,-16.602,-128.906
1690986055.896,-31.738,-34.668,-21.973,-33.203,-256.836
1690986055.900,-28.809,-30.762,-20.020,-28.809,-279.785
1690986055.904,-25.879,-24.414,-20.996,-16.602,-5.859
1690986055.908,-20.508,-27.344,-25.879,-22.949,253.906
1690986055.911,-22.461,-29.297,-25.391,-31.738,290.039
1690986055.915,-36.621,-32.227,-26.855,-37.109,114.746
1690986055.919,-32.715,-32.227,-31.738,-37.598,-236.328
1690986055.923,-18.066,-27.344,-30.762,-33.203,-149.902
1690986055.927,-20.996,-23.438,-31.738,-18.066,159.180
1690986055.929,-30.762,-21.484,-33.203,-23.438,-79.590
1690986055.933,-40.527,-23.926,-30.273,-39.062,-340.332
1690986055.937,-42.480,-26.367,-22.949,-32.227,-300.293
1690986055.941,-28.320,-24.902,-22.949,-27.832,-113.281
1690986055.945,-9.277,-24.902,-22.461,-14.160,88.867
1690986055.949,-19.531,-29.785,-20.508,-21.484,88.867
1690986055.953,-41.504,-28.320,-18.066,-39.062,53.711
1690986055.956,-41.992,-23.926,-17.578,-27.344,105.957
1690986055.960,-27.344,-18.555,-15.137,-26.367,-46.387
1690986055.964,-14.160,-18.555,-17.578,-23.926,-3.418
1690986055.968,-20.996,-21.484,-29.785,-20.020,167.969
1690986055.972,-36.621,-21.973,-31.738,-30.273,-10.742
1690986055.974,-34.668,-27.832,-34.180,-46.387,-296.875
1690986055.978,-24.902,-30.762,-43.457,-36.621,-193.848
1690986055.982,-13.672,-29.297,-40.527,-12.695,127.930
1690986055.986,-28.320,-25.391,-36.621,-29.785,82.520
1690986055.990,-43.945,-18.555,-33.203,-55.176,-277.344
1690986055.994,-49.805,-21.973,-29.297,-51.758,-251.465
1690986055.998,-39.551,-20.996,-30.273,-33.203,205.566
1690986056.001,-15.137,-15.625,-30.273,-24.414,217.285
1690986056.005,-28.320,-18.555,-28.320,-43.457,-12.695
1690986056.009,-54.199,-24.902,-26.367,-59.082,-163.574
1690986056.013,-43.457,-25.879,-26.367,-49.805,-185.547
1690986056.017,-33.203,-25.391,-28.320,-43.945,-178.711
1690986056.021,-30.273,-29.785,-25.391,-25.391,-56.152
1690986056.025,-29.785,-25.391,-23.926,-14.648,153.809
1690986056.029,-43.457,-23.926,-30.273,-36.621,-18.066
1690986056.033,-40.039,-26.855,-31.738,-41.504,-297.852
1690986056.037,-27.832,-27.832,-29.785,-34.668,-238.770
1690986056.041,-25.391,-31.250,-31.250,-24.902,102.539
1690986056.045,-21.973,-30.762,-27.344,-18.066,271.484
1690986056.048,-26.367,-35.645,-28.320,-33.203,20.020
1690986056.052,-47.852,-35.156,-28.320,-40.527,-210.449
1690986056.056,-45.898,-30.273,-27.344,-40.527,-120.605
1690986056.060,-22.461,-30.273,-28.809,-27.832,43.457
1690986056.064,-16.602,-26.855,-22.949,-14.160,94.727
1690986056.079,-35.156,-33.691,-22.949,-29.297,-77.637
1690986056.083,-37.598,-36.133,-25.879,-28.809,25.391
1690986056.087,-28.320,-31.250,-29.297,-26.855,106.934
1690986056.091,-20.996,-27.832,-26.855,-26.855,-49.805
1690986056.095,-15.625,-29.785,-18.555,-18.555,150.391
1690986056.099,-20.508,-30.762,-19.043,-27.832,365.234
1690986056.103,-27.832,-28.320,-20.020,-36.133,32.227
1690986056.106,-25.879,-28.809,-21.484,-34.180,-344.238
1690986056.110,-10.742,-26.367,-24.902,-21.973,-166.504
1690986056.114,-11.230,-27.832,-20.996,-3.906,323.730
1690986056.118,-30.762,-33.203,-20.508,-25.879,66.895
1690986056.122,-29.297,-30.762,-20.020,-30.762,-330.566
1690986056.124,-23.438,-24.414,-17.578,-24.414,-287.109
1690986056.128,-20.508,-23.926,-22.949,-24.414,-145.020
1690986056.132,-20.020,-27.832,-27.344,-16.113,41.504
1690986056.136,-31.738,-31.250,-29.297,-33.203,-86.426
1690986056.140,-37.109,-29.297,-27.344,-43.945,-223.633
1690986056.144,-29.785,-30.273,-24.414,-37.598,-141.113
1690986056.148,-23.926,-30.273,-23.438,-33.691,-15.137
1690986056.151,-20.508,-30.273,-27.832,-31.738,125.977
1690986056.155,-28.320,-32.227,-28.320,-28.809,226.074
1690986056.159,-36.621,-29.785,-24.902,-27.832,387.207
1690986056.163,-39.062,-31.250,-25.879,-37.109,28.809
1690986056.167,-40.527,-33.691,-31.250,-28.809,-236.328
1690986056.169,-25.879,-31.738,-32.227,-20.996,115.234
1690986056.173,-24.414,-29.785,-31.738,-35.156,92.285
1690986056.177,-39.062,-29.297,-32.715,-39.551,-228.027
1690986056.181,-51.270,-32.227,-29.297,-36.621,-360.352
1690986056.185,-47.852,-31.250,-29.297,-38.086,-267.578
1690986056.189,-31.738,-33.203,-27.832,-24.902,61.523
1690986056.193,-32.227,-36.133,-23.926,-25.879,187.988
1690986056.196,-42.969,-35.645,-25.879,-34.180,-96.191
1690986056.200,-41.016,-35.645,-29.785,-43.457,105.957
1690986056.204,-42.969,-32.715,-34.180,-38.086,97.168
1690986056.208,-34.668,-30.762,-32.715,-11.230,-88.867
1690986056.212,-39.551,-30.273,-29.297,-13.184,63.477
1690986056.215,-44.922,-25.879,-26.855,-31.738,-122.559
1690986056.219,-29.297,-25.391,-34.180,-30.273,-354.492
1690986056.223,-15.137,-30.273,-33.203,-27.832,-286.621
1690986056.227,-13.184,-34.180,-23.926,-25.879,-8.789
1690986056.231,-25.391,-36.621,-17.090,-13.672,176.758
1690986056.235,-36.621,-38.086,-17.090,-22.461,45.898
1690986056.239,-46.387,-41.016,-15.625,-37.109,-217.773
1690986056.242,-39.062,-36.621,-8.301,-30.273,-101.562
1690986056.246,-27.832,-38.086,-10.742,-9.277,443.359
1690986056.250,-33.691,-44.434,-14.160,-6.348,278.320
1690986056.254,-41.992,-43.457,-9.766,-18.066,-79.590
1690986056.258,-53.711,-45.410,-4.883,-41.504,-106.445
1690986056.259,-46.387,-44.434,-7.324,-38.574,-296.875
1690986056.263,-37.109,-43.457,-5.371,-12.695,-260.254
1690986056.267,-34.668,-45.410,-3.418,-10.254,16.602
1690986056.271,-37.598,-47.852,-7.812,-26.367,6.348
1690986056.275,-47.363,-50.293,-10.254,-25.391,-203.613
1690986056.279,-48.828,-51.270,-11.230,-18.555,-237.305
1690986056.283,-42.480,-46.387,-12.695,-9.766,-26.367
1690986056.286,-25.879,-38.574,-14.160,7.324,439.453
1690986056.290,-27.344,-33.203,-18.066,-9.766,253.418
1690986056.294,-41.016,-34.180,-18.555,-36.621,-262.695
1690986056.298,-37.109,-30.273,-17.578,-28.320,-310.059
1690986056.302,-25.879,-25.879,-24.902,-12.207,-158.691
1690986056.305,-20.020,-31.250,-30.273,-6.836,31.250
1690986056.309,-21.973,-30.273,-23.438,-9.766,48.828
1690986056.313,-23.926,-28.320,-20.508,-14.648,-83.496
1690986056.317,-29.297,-29.297,-27.344,-33.691,-154.785
1690986056.321,-23.926,-26.367,-23.438,-35.156,-147.949
1690986056.325,-17.090,-29.297,-20.996,-21.973,97.656
1690986056.329,-17.090,-31.250,-20.020,-30.762,387.207
1690986056.332,-37.598,-24.414,-17.578,-34.180,406.738
1690986056.336,-48.340,-23.926,-22.461,-32.227,-109.375
1690986056.340,-33.691,-31.738,-21.973,-34.180,-367.188
1690986056.344,-22.461,-31.250,-21.973,-14.648,24.414
1690986056.348,-23.438,-26.367,-25.391,-19.043,118.164
1690986056.349,-30.273,-20.996,-27.344,-38.086,-254.395
1690986056.353,-24.414,-19.531,-22.949,-37.109,-372.070
1690986056.357,-13.184,-21.484,-20.020,-33.203,-236.816
1690986056.361,-10.254,-20.996,-23.926,-15.137,-39.062
1690986056.365,-19.043,-22.949,-23.926,0.488,152.832
1690986056.369,-32.227,-24.902,-22.461,-12.207,70.801
1690986056.373,-40.527,-20.508,-23.926,-24.414,123.047
1690986056.376,-33.203,-18.555,-20.996,-31.738,83.496
1690986056.380,-18.555,-25.879,-15.625,-14.648,-166.992
1690986056.384,-15.137,-29.785,-21.484,3.906,-39.551
1690986056.388,-34.668,-32.715,-24.902,-25.879,-33.691
1690986056.392,-48.828,-29.297,-20.508,-36.133,-291.504
1690986056.394,-27.832,-31.250,-20.508,-19.043,-320.801
1690986056.398,-10.254,-35.156,-22.949,-14.648,-104.980
1690986056.402,-15.625,-32.227,-24.414,-19.531,83.008
1690986056.406,-30.762,-29.785,-26.367,-24.902,-35.156
1690986056.410,-35.645,-25.391,-26.855,-34.668,-270.020
1690986056.414,-26.367,-29.297,-29.785,-33.203,-133.789
1690986056.418,-15.625,-32.715,-36.621,-22.949,119.141
1690986056.421,-19.531,-32.715,-41.016,-22.949,187.012
1690986056.425,-28.809,-29.785,-37.598,-29.297,40.527
1690986056.429,-27.832,-24.902,-31.250,-38.574,46.875
1690986056.433,-31.738,-24.902,-25.879,-29.297,255.371
1690986056.437,-19.043,-23.438,-21.973,-14.160,88.867
1690986056.455,-10.254,-24.902,-23.438,-8.301,-12.695
1690986056.459,-25.391,-29.297,-29.785,-19.531,-25.879
1690986056.463,-28.809,-28.320,-29.785,-35.645,-271.973
1690986056.467,-38.574,-30.762,-28.809,-37.598,-413.574
1690986056.471,-42.969,-29.785,-27.344,-19.531,-202.148
1690986056.475,-35.156,-27.832,-24.902,-8.301,294.434
1690986056.479,-37.598,-29.785,-29.785,-29.297,262.695
1690986056.482,-38.574,-24.902,-31.250,-48.340,-160.645
1690986056.486,-46.875,-21.973,-24.414,-47.852,-271.973
1690986056.490,-38.086,-28.809,-22.461,-32.227,144.531
1690986056.494,-15.625,-28.320,-25.391,-24.902,225.586
1690986056.498,-28.809,-25.879,-31.250,-30.273,-37.598
1690986056.499,-44.922,-26.855,-33.691,-41.016,-201.172
1690986056.503,-43.945,-27.832,-31.250,-45.410,-275.391
1690986056.507,-31.250,-31.250,-32.715,-31.250,-234.863
1690986056.511,-24.414,-34.668,-36.621,-24.902,-7.324
1690986056.515,-40.039,-29.785,-34.180,-20.020,133.789
1690986056.519,-41.992,-26.855,-28.320,-31.738,-18.066
1690986056.523,-35.645,-27.344,-25.391,-38.574,-168.945
1690986056.526,-36.621,-28.320,-28.320,-28.320,-169.434
1690986056.530,-16.602,-28.320,-29.785,-20.508,154.297
1690986056.534,-24.902,-26.855,-29.297,-13.184,213.867
1690986056.538,-38.086,-28.320,-27.344,-25.879,-109.375
1690986056.542,-28.809,-29.785,-26.855,-44.922,-328.125
1690986056.544,-32.715,-29.297,-30.273,-46.875,-87.891
1690986056.548,-27.344,-25.391,-32.715,-22.949,482.422
1690986056.552,-22.461,-26.367,-36.133,-31.738,342.773
1690986056.556,-33.691,-27.832,-36.133,-49.805,-61.523
1690986056.560,-40.527,-29.297,-34.180,-46.387,-266.113
1690986056.564,-40.527,-28.320,-33.203,-41.504,-242.188
1690986056.568,-42.480,-23.438,-27.832,-31.250,17.090
1690986056.571,-34.180,-25.391,-24.414,-21.484,162.109
1690986056.575,-37.109,-29.297,-25.391,-32.227,168.945
1690986056.579,-41.992,-30.273,-27.344,-45.898,-196.777
1690986056.583,-36.133,-33.203,-29.297,-39.062,-376.465
1690986056.587,-16.113,-32.227,-29.297,-33.691,-77.148
1690986056.590,-17.090,-29.785,-30.273,-35.156,299.805
1690986056.594,-25.879,-27.832,-30.273,-37.109,3.418
1690986056.598,-20.508,-27.344,-27.832,-39.062,-278.809
1690986056.602,-21.484,-28.320,-28.809,-40.039,-219.238
1690986056.606,-20.020,-25.879,-33.691,-28.809,-20.020
1690986056.610,-22.461,-24.902,-35.645,-15.625,215.820
1690986056.614,-26.367,-22.461,-37.109,-36.133,32.715
1690986056.617,-30.273,-19.531,-38.086,-43.945,-2.441
1690986056.621,-31.250,-16.113,-40.527,-23.926,302.734
1690986056.625,-13.672,-13.672,-46.387,-27.832,67.871
1690986056.629,-2.930,-14.648,-43.457,-18.066,0.488
1690986056.633,-22.461,-18.555,-40.527,-17.578,71.777
1690986056.649,-19.043,-15.625,-40.039,-33.691,-214.355
1690986056.653,-12.207,-9.277,-35.156,-29.297,-423.828
1690986056.657,-4.883,-11.719,-34.668,-12.207,-277.344
1690986056.661,-0.977,-13.672,-36.133,-8.789,160.156
1690986056.665,-29.297,-13.184,-40.527,-30.762,188.477
1690986056.669,-37.109,-14.160,-41.016,-41.504,-115.723
1690986056.673,-29.297,-18.066,-40.527,-34.668,-174.805
1690986056.676,-25.879,-20.508,-38.086,-26.855,243.652
1690986056.680,-18.555,-17.090,-36.621,-10.742,382.812
1690986056.684,-12.695,-13.184,-34.180,-20.508,44.434
1690986056.688,-17.090,-12.695,-29.785,-40.039,-187.012
1690986056.692,-23.438,-10.742,-26.855,-37.598,-254.883
1690986056.679,-21.484,-14.648,-26.367,-25.879,-335.449
1690986056.683,-7.812,-17.090,-24.902,2.930,-112.305
1690986056.687,-8.789,-14.160,-23.926,1.465,112.793
1690986056.691,-17.090,-12.695,-29.297,-36.621,-115.723
1690986056.695,-17.090,-14.160,-33.691,-38.574,-312.012
1690986056.699,-19.043,-19.043,-31.250,-24.902,-165.039
1690986056.703,-11.719,-20.020,-32.227,-17.090,160.156
1690986056.706,-8.789,-13.672,-33.203,-25.879,256.836
1690986056.710,-24.902,-12.695,-29.785,-35.645,-55.664
1690986056.714,-31.250,-19.043,-28.809,-28.809,-325.684
1690986056.718,-32.227,-23.926,-23.926,-27.832,-133.301
1690986056.722,-25.391,-20.996,-27.344,-14.648,431.641
1690986056.724,-16.602,-25.391,-35.156,-12.695,377.441
1690986056.728,-31.250,-27.344,-31.738,-34.668,-120.605
1690986056.732,-25.879,-17.578,-23.926,-35.645,-302.734
1690986056.736,-21.973,-13.672,-21.484,-33.691,-342.773
1690986056.740,-26.367,-14.648,-21.973,-24.414,-195.312
1690986056.744,-22.461,-14.160,-23.438,-18.555,147.949
1690986056.748,-26.367,-18.066,-27.832,-29.297,424.805
1690986056.751,-38.574,-19.043,-29.785,-53.223,-21.484
1690986056.755,-47.852,-19.531,-26.855,-56.641,-461.426
1690986056.759,-38.574,-24.902,-22.949,-23.926,-153.320
1690986056.763,-36.133,-29.785,-26.367,-19.531,335.449
1690986056.767,-40.527,-22.461,-29.297,-38.574,51.758
1690986056.769,-33.691,-18.066,-28.809,-43.457,-330.078
1690986056.773,-30.762,-21.973,-32.227,-51.270,-295.410
1690986056.777,-26.367,-20.020,-40.527,-47.363,-170.410
1690986056.781,-14.648,-20.996,-37.598,-29.785,56.152
1690986056.785,-19.043,-29.297,-32.715,-27.832,23.926
1690986056.789,-36.621,-23.926,-26.855,-41.016,-67.871
1690986056.793,-28.320,-21.484,-23.438,-28.809,-29.297
1690986056.796,-20.996,-28.809,-25.391,-18.555,-108.887
1690986056.800,-30.762,-25.391,-27.344,-20.508,54.688
1690986056.804,-33.691,-23.438,-28.320,-38.086,309.570
1690986056.808,-25.879,-25.391,-29.297,-45.898,257.324
1690986056.812,-11.230,-20.996,-32.227,-39.062,-198.730
1690986056.829,-14.160,-15.137,-32.715,-37.109,-202.637
1690986056.833,-10.254,-15.625,-32.715,-17.578,216.797
1690986056.837,-8.789,-22.461,-33.691,-6.348,189.941
1690986056.841,-20.996,-24.902,-29.785,-33.203,-157.715
1690986056.845,-25.879,-20.996,-29.785,-41.504,-357.422
1690986056.849,-24.902,-12.695,-37.598,-25.879,-225.098
1690986056.853,-18.555,-10.742,-38.574,-23.438,128.906
1690986056.856,-17.090,-13.672,-39.062,-31.250,126.465
1690986056.860,-14.160,-16.602,-33.691,-28.320,-119.629
1690986056.864,-12.207,-16.602,-25.879,-23.926,-5.859
1690986056.868,-15.137,-19.531,-25.879,-18.066,-118.164
1690986056.872,0.000,-19.043,-30.273,0.000,-73.242
1690986056.875,0.977,-17.578,-32.227,-11.719,173.340
1690986056.879,-24.902,-25.391,-33.203,-30.762,37.109
1690986056.883,-26.855,-22.461,-28.320,-39.062,-234.863
1690986056.887,-20.996,-20.020,-26.367,-40.039,-288.086
1690986056.891,-19.531,-17.578,-25.391,-12.695,6.348
1690986056.895,-12.207,-20.020,-21.484,2.930,242.188
1690986056.899,-20.020,-20.996,-20.996,-24.414,-13.184
1690986056.902,-18.555,-15.625,-20.996,-39.551,-252.441
1690986056.906,-14.648,-19.043,-21.484,-25.391,-67.871
1690986056.910,-4.883,-25.879,-19.043,-9.766,354.980
1690986056.914,-11.230,-22.949,-19.531,-11.230,266.602
1690986056.918,-22.949,-18.555,-20.020,-12.207,-98.145
1690986056.919,-17.090,-16.113,-24.414,-18.066,-249.512
1690986056.923,-19.043,-12.207,-23.438,-26.855,-308.594
1690986056.927,-27.832,-13.672,-20.020,-15.625,-174.805
1690986056.931,-18.066,-17.090,-23.926,-13.672,114.258
1690986056.935,-30.762,-18.555,-25.391,-35.645,99.609
1690986056.939,-48.828,-20.020,-26.855,-45.898,-154.297
1690986056.943,-34.668,-23.438,-25.879,-45.898,-207.031
1690986056.946,-25.879,-21.973,-28.809,-38.574,-57.617
1690986056.950,-20.020,-20.996,-31.250,-19.043,439.941
1690986056.954,-35.156,-26.855,-27.832,-21.484,412.109
1690986056.958,-47.852,-27.344,-28.809,-45.898,-151.367
1690986056.962,-36.133,-25.391,-32.715,-57.129,-359.375
1690986056.964,-29.297,-26.367,-32.715,-44.434,-221.680
1690986056.968,-25.879,-24.414,-31.738,-32.227,16.602
1690986056.972,-27.832,-21.973,-36.133,-35.156,60.547
1690986056.976,-39.062,-17.090,-38.086,-45.410,-117.188
1690986056.980,-48.340,-20.996,-38.574,-59.570,-244.141
1690986056.984,-42.969,-26.855,-34.180,-36.621,-92.773
1690986056.988,-22.461,-28.320,-28.320,-13.184,93.750
1690986056.991,-25.879,-28.809,-28.320,-19.531,240.723
1690986056.995,-34.180,-23.438,-28.809,-22.461,404.785
1690986056.999,-26.855,-20.020,-29.297,-8.789,19.531
1690986057.003,-26.367,-13.672,-29.785,-13.184,-336.426
1690986057.007,-34.180,-8.789,-32.227,-31.250,0.000
1690986057.009,-34.180,-14.160,-36.621,-38.574,117.188
1690986057.013,-38.574,-17.578,-40.527,-61.523,-257.324
1690986057.017,-29.297,-11.719,-41.016,-54.199,-424.805
1690986057.021,-39.062,-14.648,-43.457,-50.781,-254.883
1690986057.025,-42.480,-16.113,-42.480,-41.504,-89.355
1690986057.029,-43.457,-12.207,-39.062,-31.738,56.641
1690986057.033,-50.293,-13.672,-39.062,-53.223,5.371
1690986057.036,-47.363,-12.207,-32.715,-58.594,35.156
1690986057.040,-34.180,-9.277,-31.738,-46.875,-78.613
1690986057.044,-16.602,-13.184,-38.086,-22.949,-95.215
1690986057.048,-22.461,-19.043,-34.180,-24.414,165.527
1690986057.052,-42.480,-25.879,-28.809,-45.898,65.430
1690986057.054,-39.551,-26.855,-27.832,-37.598,-297.363
1690986057.058,-32.227,-23.926,-26.855,-31.738,-339.355
1690986057.062,-34.668,-18.555,-21.484,-36.621,-110.840
1690986057.066,-37.598,-14.160,-25.391,-15.625,133.789
1690986057.070,-28.320,-19.043,-26.367,-18.555,95.703
1690986057.074,-34.180,-21.973,-23.438,-53.223,-213.867
1690986057.078,-37.109,-24.414,-23.438,-43.945,-105.469
1690986057.081,-27.832,-28.809,-23.926,-20.996,285.645
1690986057.085,-27.344,-28.320,-26.367,-13.184,208.496
1690986057.089,-31.250,-26.855,-26.855,-16.602,1.465
1690986057.093,-32.227,-25.391,-23.438,-40.527,-102.051
1690986057.097,-36.133,-20.508,-18.555,-36.133,-263.184
1690986057.100,-30.762,-17.090,-22.461,-24.902,-224.121
1690986057.104,-20.996,-22.461,-26.855,-16.602,61.523
1690986057.108,-20.020,-28.320,-22.949,-23.926,334.473
1690986057.112,-32.227,-24.414,-20.508,-49.316,115.723
1690986057.116,-44.434,-22.461,-21.973,-45.410,-326.172
1690986057.120,-41.504,-21.973,-18.066,-26.855,-183.594
1690986057.124,-32.227,-23.438,-17.578,-12.207,419.922
1690986057.127,-21.484,-24.414,-25.391,-25.391,346.680
1690986057.131,-36.621,-22.949,-31.250,-60.059,-196.289
1690986057.135,-40.039,-24.902,-33.691,-59.082,-345.703
1690986057.139,-35.645,-26.855,-36.133,-54.199,-199.707
1690986057.143,-31.738,-27.832,-35.645,-34.180,7.812
1690986057.144,-17.578,-28.809,-30.762,-22.461,94.238
1690986057.148,-29.785,-32.715,-23.438,-38.574,-51.758
1690986057.152,-50.293,-36.133,-24.414,-29.785,-252.441
1690986057.156,-37.598,-32.227,-23.438,-20.020,-219.727
1690986057.160,-19.043,-33.691,-24.902,-17.090,-86.426
1690986057.164,-27.344,-34.668,-27.832,-7.324,238.281
1690986057.168,-40.527,-29.297,-24.902,-33.691,423.340
1690986057.171,-37.598,-25.391,-28.809,-52.734,-27.344
1690986057.175,-25.391,-20.996,-29.785,-26.367,-230.957
1690986057.179,-18.066,-20.508,-27.344,0.000,84.961
1690986057.183,-26.367,-28.809,-31.250,-20.996,366.211
1690986057.187,-32.227,-34.668,-30.273,-46.387,-37.109
1690986057.204,-43.945,-36.133,-25.391,-41.992,-374.023
1690986057.208,-38.574,-36.621,-24.902,-40.039,-266.113
1690986057.212,-34.180,-31.738,-22.461,-36.621,-68.359
1690986057.216,-33.203,-31.250,-21.973,-19.531,55.664
1690986057.220,-33.203,-28.809,-28.320,-52.734,-30.273
1690986057.224,-35.156,-27.832,-28.320,-60.547,-98.633
1690986057.228,-38.086,-26.367,-25.391,-41.504,-151.367
1690986057.231,-27.344,-23.438,-24.902,-38.574,-54.688
1690986057.235,-20.508,-27.832,-21.484,-29.785,123.047
1690986057.239,-26.367,-26.855,-14.648,-23.926,313.965
1690986057.243,-32.715,-20.996,-18.066,-37.598,-7.812
1690986057.247,-32.715,-18.066,-20.996,-40.527,-390.137
1690986057.249,-20.020,-21.484,-20.020,-20.020,-258.301
1690986057.253,-19.531,-20.508,-25.391,-18.555,-11.230
1690986057.257,-27.344,-19.043,-22.949,-36.133,-27.344
1690986057.261,-19.043,-19.043,-22.949,-42.480,-296.387
1690986057.265,-33.691,-20.508,-21.973,-36.133,-350.098
1690986057.269,-45.898,-24.414,-20.996,-24.414,-10.254
1690986057.273,-28.809,-27.832,-26.855,-13.672,296.875
1690986057.276,-33.203,-32.227,-27.832,-28.809,211.914
1690986057.280,-36.621,-32.227,-21.973,-34.668,37.109
1690986057.284,-39.062,-30.762,-25.879,-28.809,209.473
1690986057.288,-37.109,-27.344,-26.367,-25.391,124.023
1690986057.292,-18.555,-30.273,-17.090,-15.137,46.875
1690986057.294,-32.715,-33.203,-16.602,-33.203,90.820
1690986057.298,-53.711,-29.785,-22.461,-51.270,-212.402
1690986057.302,-45.898,-31.738,-23.926,-41.992,-418.945
1690986057.306,-29.297,-30.273,-31.250,-41.504,-280.273
1690986057.310,-19.043,-28.320,-34.180,-31.738,43.945
1690986057.314,-24.414,-36.621,-29.297,-26.855,235.840
1690986057.318,-35.156,-37.109,-30.762,-33.691,-16.602
1690986057.321,-44.434,-30.273,-30.762,-42.969,-293.457
1690986057.325,-40.039,-29.297,-29.297,-33.691,25.391
1690986057.329,-31.250,-27.344,-32.227,-12.695,185.547
1690986057.333,-25.391,-25.391,-34.180,-19.043,74.219
1690986057.337,-34.180,-25.879,-32.227,-41.504,-42.480
1690986057.340,-43.457,-25.879,-27.344,-53.711,-218.262
1690986057.344,-26.855,-31.738,-21.484,-38.574,-280.762
1690986057.348,-13.184,-33.203,-19.043,-25.879,-67.871
1690986057.352,-26.367,-31.250,-19.043,-28.320,125.977
1690986057.356,-26.367,-30.273,-22.461,-29.297,31.250
1690986057.360,-33.203,-29.785,-26.367,-33.203,-150.391
1690986057.364,-41.992,-33.691,-25.879,-26.367,-188.965
1690986057.367,-28.809,-34.180,-28.320,-13.672,172.852
1690986057.371,-19.043,-32.715,-27.832,-0.977,661.621
1690986057.375,-30.273,-30.762,-27.344,-21.484,207.031
1690986057.379,-30.762,-26.367,-25.879,-47.363,-363.281
1690986057.383,-20.508,-26.367,-20.020,-38.086,-371.094
1690986057.386,-10.742,-28.320,-26.367,-21.484,-142.578
1690986057.390,-13.672,-24.414,-26.855,3.418,121.094
1690986057.394,-31.738,-23.926,-19.531,-3.906,4.395
1690986057.398,-25.391,-34.180,-21.973,-14.648,-123.047
1690986057.402,-22.949,-35.645,-25.391,-29.785,-294.922
1690986057.406,-20.020,-32.227,-24.902,-25.391,-156.250
1690986057.410,-16.602,-31.738,-24.414,-10.742,200.684
1690986057.413,-29.297,-26.855,-22.461,-23.926,340.820
1690986057.417,-44.922,-27.344,-23.926,-34.668,22.461
1690986057.421,-41.016,-29.297,-22.461,-25.879,-330.078
1690986057.425,-38.086,-28.809,-17.578,-8.789,-173.340
1690986057.429,-40.039,-31.250,-20.020,-6.348,126.953
1690986057.430,-47.852,-31.250,-24.414,-20.020,85.938
1690986057.434,-44.922,-29.297,-27.344,-31.250,-214.355
1690986057.438,-43.457,-27.344,-29.785,-37.109,-368.652
1690986057.442,-40.039,-25.391,-31.738,-31.250,-154.297
1690986057.446,-27.832,-26.367,-29.785,-25.391,84.961
1690986057.450,-24.902,-29.297,-24.902,-34.668,188.477
1690986057.454,-20.996,-25.879,-17.578,-33.203,111.328
1690986057.457,-34.668,-24.902,-19.043,-15.137,258.301
1690986057.461,-47.363,-27.832,-26.855,-17.090,471.191
1690986057.465,-29.785,-26.367,-24.414,-3.418,410.645
1690986057.469,-31.738,-24.902,-23.926,-8.301,158.691
1690986057.473,-43.457,-25.391,-33.203,-46.387,-195.801
1690986057.474,-38.086,-25.879,-33.203,-40.039,-439.941
1690986057.478,-27.344,-23.438,-30.762,-28.809,-389.160
1690986057.482,-17.090,-26.367,-31.250,-25.879,153.320
1690986057.486,-24.414,-30.273,-28.809,-17.090,342.773
1690986057.490,-30.762,-30.273,-31.738,-43.945,-227.051
1690986057.494,-35.645,-24.902,-33.203,-47.852,-380.371
1690986057.498,-39.551,-19.043,-27.344,-23.926,86.426
1690986057.501,-32.715,-27.344,-23.438,-12.695,520.996
1690986057.505,-46.875,-37.109,-28.809,-20.996,201.172
1690986057.509,-53.223,-31.738,-29.785,-28.809,-190.430
1690986057.513,-37.598,-31.738,-25.391,-27.832,-41.992
1690986057.517,-43.457,-34.668,-27.832,-51.270,-211.426
1690986057.534,-38.086,-29.785,-32.715,-40.039,-225.586
1690986057.538,-29.785,-30.762,-26.855,-22.461,45.410
1690986057.542,-47.363,-34.180,-27.344,-39.551,-52.246
1690986057.546,-41.992,-32.715,-38.574,-50.293,-285.645
1690986057.550,-45.410,-36.621,-36.621,-51.270,-416.992
1690986057.554,-40.527,-39.551,-35.156,-47.852,-20.508
1690986057.558,-30.273,-40.039,-38.574,-44.922,463.867
1690986057.561,-40.039,-36.133,-36.133,-56.152,127.441
1690986057.565,-36.133,-37.598,-30.273,-41.016,-232.910
1690986057.569,-30.762,-30.762,-31.738,-26.855,-152.344
1690986057.573,-27.832,-18.066,-33.203,-43.457,-57.129
1690986057.577,-41.016,-20.996,-35.645,-48.340,-60.059
1690986057.581,-35.645,-20.020,-42.480,-39.551,-200.684
1690986057.585,-20.020,-19.043,-36.133,-26.367,-223.633
1690986057.589,-30.762,-19.531,-34.668,-33.203,20.508
1690986057.593,-34.668,-18.066,-41.504,-32.227,-170.898
1690986057.597,-27.832,-17.090,-40.039,-33.203,-448.730
1690986057.601,-32.715,-20.508,-36.133,-38.086,-382.324
1690986057.605,-21.973,-23.438,-36.133,-31.250,161.621
1690986057.608,-7.812,-25.391,-37.109,-27.344,415.039
1690986057.612,-30.762,-26.855,-36.621,-38.086,-85.938
1690986057.616,-33.691,-24.414,-29.297,-36.621,-370.605
1690986057.620,-30.762,-24.902,-25.879,-21.484,-255.371
1690986057.624,-31.250,-26.855,-28.809,-2.930,-31.250
1690986057.624,-25.391,-28.320,-30.273,-6.348,35.156
1690986057.628,-35.645,-25.391,-29.785,-29.297,-111.328
1690986057.632,-35.645,-23.438,-26.367,-30.273,-277.832
1690986057.636,-22.461,-24.414,-30.273,-36.133,-231.934
1690986057.640,-24.414,-21.973,-37.598,-26.855,-146.484
1690986057.644,-18.555,-19.531,-36.133,-0.488,81.543
1690986057.648,-22.461,-19.531,-28.809,-13.672,452.148
1690986057.651,-43.945,-22.461,-29.785,-34.668,193.848
1690986057.655,-42.480,-22.949,-28.809,-41.016,-347.168
1690986057.659,-28.320,-15.625,-25.879,-32.715,-234.375
1690986057.663,-27.832,-12.207,-28.320,-18.555,95.703
1690986057.667,-41.992,-20.508,-24.902,-30.762,14.160
1690986057.671,-43.945,-26.367,-24.414,-51.758,-341.309
1690986057.675,-33.203,-29.297,-24.414,-42.480,-256.348
1690986057.679,-25.879,-30.273,-23.438,-25.391,-10.742
1690986057.683,-17.578,-27.832,-24.414,-7.812,71.289
1690986057.687,-24.414,-30.273,-26.367,-20.508,24.414
1690986057.691,-38.086,-27.832,-27.832,-44.434,28.320
1690986057.695,-40.527,-29.785,-28.320,-37.598,24.902
1690986057.698,-32.227,-33.203,-28.809,-28.809,-172.852
1690986057.702,-21.484,-23.438,-29.297,-14.648,-41.992
1690986057.706,-27.832,-16.113,-33.691,-22.949,120.117
1690986057.710,-39.062,-20.020,-35.156,-49.805,-101.562
1690986057.714,-22.461,-20.020,-31.738,-44.434,-318.848
1690986057.729,-8.301,-17.090,-32.715,-37.598,-254.395
1690986057.733,-22.461,-19.043,-29.785,-18.555,309.570
1690986057.737,-31.738,-19.043,-26.367,-3.418,469.727
1690986057.741,-29.785,-23.926,-32.227,-28.809,-56.152
1690986057.745,-28.320,-24.414,-30.762,-32.227,-240.234
1690986057.749,-22.949,-16.602,-21.973,-11.719,130.859
1690986057.753,-26.855,-20.996,-26.367,-11.719,338.867
1690986057.756,-22.461,-28.809,-28.320,-13.184,112.305
1690986057.760,-28.809,-30.762,-28.320,-27.344,-77.637
1690986057.764,-40.527,-28.809,-30.762,-43.457,-161.621
1690986057.768,-35.156,-22.461,-26.367,-32.227,-289.062
1690986057.772,-28.320,-22.949,-27.344,-28.809,-135.254
1690986057.774,-27.344,-24.902,-30.762,-31.250,148.438
1690986057.778,-33.203,-26.367,-30.273,-44.922,5.371
1690986057.782,-34.668,-28.320,-28.320,-44.922,-283.203
1690986057.786,-27.344,-30.273,-29.297,-40.039,-315.918
1690986057.790,-26.855,-30.273,-29.297,-33.691,40.527
1690986057.794,-31.738,-26.367,-28.809,-16.602,289.062
1690986057.798,-28.320,-26.367,-28.320,-29.297,6.836
1690986057.801,-21.973,-26.855,-27.344,-33.203,-321.289
1690986057.805,-21.973,-20.020,-22.949,-15.625,-139.160
1690986057.809,-29.297,-18.555,-20.996,-1.465,198.242
1690986057.813,-22.949,-22.461,-25.879,-6.348,135.254
1690986057.817,-28.809,-31.738,-24.414,-28.809,-41.992
1690986057.819,-43.945,-36.621,-26.367,-55.176,-234.863
1690986057.823,-42.480,-28.809,-30.273,-57.129,-316.406
1690986057.827,-40.527,-22.949,-31.738,-42.969,-247.070
1690986057.831,-37.109,-20.508,-31.738,-30.762,140.625
1690986057.835,-34.668,-22.461,-27.832,-35.645,282.227
1690986057.839,-39.551,-24.902,-25.391,-49.316,-47.852
1690986057.843,-61.035,-24.414,-26.855,-54.688,-213.379
1690986057.846,-50.293,-31.738,-24.414,-41.504,-30.273
1690986057.850,-24.414,-30.273,-19.531,-13.184,517.090
1690986057.854,-43.457,-27.832,-30.762,-30.273,427.246
1690986057.858,-56.152,-33.203,-36.621,-61.035,-258.301
1690986057.862,-43.945,-29.785,-25.879,-42.480,-354.492
1690986057.865,-41.504,-29.297,-18.066,-21.973,-181.641
1690986057.869,-30.273,-32.715,-20.996,-16.113,-1.465
1690986057.873,-29.785,-34.180,-20.996,-21.973,7.324
1690986057.877,-49.805,-32.715,-26.855,-47.363,-186.035
1690986057.881,-50.781,-29.297,-36.133,-72.266,-254.395
1690986057.885,-46.875,-26.367,-37.109,-66.406,-143.555
1690986057.889,-33.203,-20.996,-37.598,-34.668,66.895
1690986057.892,-36.621,-24.414,-36.621,-33.203,264.160
1690986057.896,-56.152,-28.320,-33.203,-46.875,170.898
1690986057.900,-55.664,-26.855,-31.250,-44.922,-208.496
1690986057.904,-40.527,-25.391,-31.250,-40.527,-288.574
1690986057.908,-25.391,-28.809,-33.691,-26.855,48.340
1690986057.909,-30.273,-30.273,-31.250,-23.438,207.031
1690986057.913,-37.598,-30.762,-29.297,-55.664,-140.625
1690986057.917,-37.109,-31.250,-29.297,-55.664,-299.805
1690986057.921,-44.434,-32.715,-27.832,-35.645,-146.973
1690986057.925,-30.273,-30.762,-25.391,-27.344,15.137
1690986057.929,-26.855,-29.297,-31.250,-20.020,171.875
1690986057.933,-30.273,-35.156,-32.715,-41.504,116.211
1690986057.936,-23.926,-28.320,-28.320,-36.621,216.309
1690986057.940,-30.273,-20.996,-27.832,-29.297,70.801
1690986057.944,-30.273,-27.832,-33.203,-34.180,-184.570
1690986057.948,-26.855,-31.738,-34.180,-21.973,66.406
1690986057.952,-37.109,-28.809,-30.762,-32.715,-16.602
1690986057.956,-44.434,-26.367,-29.297,-36.621,-333.008
1690986057.960,-36.133,-27.832,-30.273,-33.203,-380.859
1690986057.964,-31.738,-28.809,-27.344,-28.809,-72.754
1690986057.968,-25.391,-27.344,-22.461,-11.230,212.891
1690986057.972,-28.809,-33.203,-25.879,-41.992,-35.156
1690986057.976,-37.598,-36.621,-24.902,-53.711,-240.234
1690986057.980,-45.898,-36.133,-21.484,-34.668,-30.273
1690986057.983,-41.016,-34.180,-17.578,-30.762,179.199
1690986057.987,-19.531,-28.320,-15.137,-15.137,119.141
1690986057.991,-31.738,-23.926,-16.113,-19.043,-20.508
1690986057.995,-32.227,-20.020,-16.602,-29.785,-204.590
1690986057.999,-24.414,-25.879,-20.508,-28.809,-291.016
1690986058.000,-23.438,-32.715,-21.484,-20.996,-188.477
1690986058.004,-8.789,-31.738,-20.996,0.977,127.930
1690986058.008,-21.973,-29.785,-19.043,-11.230,229.980
1690986058.012,-42.480,-30.762,-20.996,-24.902,-50.781
1690986058.016,-37.109,-27.344,-22.949,-30.273,-221.191
1690986058.020,-38.574,-26.367,-24.414,-32.715,-72.754
1690986058.024,-29.785,-27.344,-21.484,-12.695,490.234
1690986058.027,-35.156,-22.949,-19.043,-23.438,440.430
1690986058.031,-49.316,-22.461,-20.020,-51.758,-272.461
1690986058.035,-34.180,-21.484,-18.066,-46.387,-278.809
1690986058.039,-24.414,-19.043,-18.555,-34.668,-31.250
1690986058.043,-28.320,-20.508,-21.973,-20.508,35.156
1690986058.046,-23.926,-20.508,-20.508,-14.648,90.332
1690986058.050,-32.227,-20.020,-21.973,-34.668,-61.035
1690986058.054,-34.668,-18.555,-24.414,-37.109,-269.043
1690986058.058,-23.926,-14.160,-23.438,-24.902,-300.293
1690986058.062,-12.695,-18.555,-26.367,-21.484,-106.934
1690986058.066,-10.742,-22.949,-28.809,-18.555,333.984
1690986058.070,-23.438,-25.879,-24.902,-23.438,404.785
1690986058.073,-30.273,-28.320,-22.949,-39.062,-195.801
1690986058.077,-28.320,-23.926,-18.555,-32.715,-377.441
1690986058.081,-19.531,-21.973,-12.207,-9.766,-49.316
1690986058.085,-26.855,-27.832,-16.602,-15.137,65.430
1690986058.089,-40.527,-29.297,-16.602,-36.133,-165.039
1690986058.104,-31.738,-26.855,-15.137,-34.668,-292.969
1690986058.108,-27.344,-26.855,-18.066,-27.344,-223.145
1690986058.112,-17.090,-20.996,-19.531,-7.812,-76.660
1690986058.116,-8.789,-21.973,-21.484,5.859,144.043
1690986058.120,-17.578,-25.879,-21.973,-23.438,-14.648
1690986058.124,-24.902,-23.926,-29.297,-34.180,116.699
1690986058.128,-28.809,-20.996,-33.203,-19.531,191.895
1690986058.131,-31.250,-26.855,-35.645,-22.461,-99.121
1690986058.135,-35.156,-27.344,-39.062,-28.809,106.445
1690986058.139,-31.250,-22.949,-33.203,-31.250,208.008
1690986058.143,-34.668,-24.414,-34.668,-42.480,-108.398
1690986058.147,-50.293,-28.320,-30.273,-51.758,-318.359
1690986058.149,-41.992,-25.879,-24.414,-40.527,-138.672
1690986058.153,-34.668,-18.066,-23.926,-33.691,137.695
1690986058.157,-58.594,-22.949,-22.949,-49.316,-5.859
1690986058.161,-59.570,-27.344,-24.902,-67.871,-319.336
1690986058.165,-52.734,-25.391,-24.902,-67.871,-303.223
1690986058.169,-57.617,-25.391,-22.949,-49.316,-44.434
1690986058.173,-47.363,-26.855,-20.996,-33.691,213.379
1690986058.176,-52.734,-28.320,-22.949,-46.875,31.250
1690986058.180,-51.758,-29.297,-18.066,-58.105,-36.621
1690986058.184,-49.805,-29.297,-21.484,-50.293,159.180
1690986058.188,-47.852,-26.855,-27.344,-33.691,-104.004
1690986058.192,-36.621,-27.344,-27.832,-29.297,-38.086
1690986058.194,-34.180,-32.227,-31.250,-38.086,131.836
1690986058.198,-50.293,-34.180,-35.156,-49.316,-158.203
1690986058.202,-51.758,-34.668,-37.109,-53.711,-326.660
1690986058.206,-39.551,-31.738,-34.668,-37.109,-140.625
1690986058.210,-23.926,-25.879,-34.180,-14.648,247.559
1690986058.214,-31.250,-25.879,-39.551,-17.578,273.926
1690986058.218,-47.363,-25.879,-42.480,-42.480,-66.406
1690986058.221,-35.645,-25.391,-35.645,-50.781,-219.238
1690986058.225,-24.414,-26.855,-26.367,-33.203,57.129
1690986058.229,-13.672,-25.879,-27.344,-15.137,169.434
1690986058.233,-16.113,-25.879,-28.320,-17.090,-17.578
1690986058.237,-33.203,-27.832,-23.926,-32.715,-62.012
1690986058.242,-36.621,-27.832,-24.902,-39.551,-78.125
1690986058.246,-23.926,-24.902,-24.414,-39.062,-255.859
1690986058.250,-14.648,-22.949,-24.414,-27.344,-83.984
1690986058.254,-36.621,-28.809,-26.367,-27.344,190.918
1690986058.258,-57.129,-30.762,-23.438,-46.875,-2.441
1690986058.262,-45.410,-28.320,-20.020,-50.293,-168.457
1690986058.266,-24.902,-27.832,-20.508,-43.945,-194.336
1690986058.269,-19.531,-26.367,-29.297,-23.926,166.504
1690986058.273,-27.832,-31.738,-31.738,-1.465,438.477
1690986058.277,-41.016,-32.715,-27.344,-20.996,-78.613
1690986058.281,-36.621,-28.320,-28.809,-33.203,-333.984
1690986058.285,-24.414,-29.297,-31.738,-35.645,-286.621
1690986058.286,-20.020,-27.832,-28.320,-24.902,-136.719
1690986058.290,-15.625,-22.461,-20.508,-18.066,95.703
1690986058.294,-25.879,-20.508,-20.020,-36.133,116.211
1690986058.298,-30.762,-23.438,-24.902,-55.664,33.691
1690986058.302,-33.203,-28.320,-20.020,-50.781,-118.652
1690986058.306,-35.645,-38.574,-21.973,-29.785,-20.996
1690986058.310,-26.855,-42.969,-24.414,-15.625,223.633
1690986058.313,-26.855,-33.691,-21.973,-12.695,442.383
1690986058.317,-37.598,-29.297,-22.949,-29.297,259.766
1690986058.321,-41.504,-28.809,-24.902,-29.297,-315.430
1690986058.325,-19.043,-23.438,-21.484,-7.324,-270.996
1690986058.329,-9.277,-19.043,-24.902,-5.371,60.059
1690986058.331,-15.137,-19.531,-29.785,-15.137,-12.695
1690986058.335,-27.832,-18.066,-30.273,-28.320,-312.500
1690986058.339,-25.879,-19.531,-33.691,-31.738,-373.535
1690986058.343,-17.090,-24.902,-33.691,-28.809,-271.484
1690986058.347,-16.113,-22.461,-26.367,-18.555,-3.418
1690986058.351,-26.367,-27.344,-30.762,-25.391,156.250
1690986058.355,-35.645,-33.203,-34.668,-43.457,173.340
1690986058.358,-27.832,-31.738,-22.461,-46.387,278.320
1690986058.362,-28.320,-31.250,-24.414,-26.367,-62.500
1690986058.366,-15.625,-29.297,-28.809,-14.648,-147.949
1690986058.370,-23.438,-26.855,-32.715,-40.039,9.766
1690986058.374,-46.387,-29.785,-32.227,-54.199,-204.590
1690986058.374,-42.969,-37.109,-31.250,-48.828,-417.480
1690986058.378,-35.645,-32.227,-34.668,-41.504,-322.266
1690986058.382,-27.832,-28.320,-35.645,-22.461,-30.762
1690986058.386,-24.414,-29.297,-29.785,-16.113,136.719
1690986058.390,-42.969,-32.715,-25.879,-45.410,-0.977
1690986058.394,-46.875,-38.086,-26.855,-47.363,-111.816
1690986058.398,-37.109,-38.086,-24.414,-29.297,225.586
1690986058.401,-38.086,-39.062,-24.902,-29.785,540.527
1690986058.405,-31.250,-38.574,-20.508,-20.996,204.590
1690986058.409,-38.574,-34.180,-12.207,-26.855,-172.363
1690986058.413,-48.828,-34.180,-23.438,-48.340,-329.102
1690986058.417,-48.340,-32.227,-34.180,-35.645,-386.719
1690986058.421,-32.227,-26.855,-35.156,-20.020,-188.965
1690986058.425,-32.227,-30.762,-33.203,-28.809,83.008
1690986058.429,-41.992,-33.203,-24.414,-36.621,-62.012
1690986058.433,-39.551,-24.902,-20.020,-41.992,-286.133
1690986058.437,-33.691,-26.855,-24.414,-34.668,-251.953
1690986058.441,-28.809,-33.203,-27.832,-17.090,76.172
1690986058.445,-25.879,-27.832,-30.762,-22.461,333.008
1690986058.448,-25.391,-22.949,-34.668,-40.039,26.367
1690986058.452,-25.879,-22.949,-36.621,-54.688,-323.730
1690986058.456,-37.598,-26.855,-34.668,-41.504,-40.039
1690986058.460,-39.551,-26.367,-35.645,-24.414,285.645
1690986058.464,-18.555,-26.855,-41.992,-31.738,118.652
1690986058.479,-36.133,-34.668,-45.410,-40.527,-43.945
1690986058.483,-55.176,-34.180,-43.945,-43.457,-208.008
1690986058.487,-49.805,-32.715,-38.086,-47.363,-273.926
1690986058.491,-37.109,-29.785,-28.320,-33.691,-99.609
1690986058.495,-27.344,-24.902,-25.879,-14.648,165.039
1690986058.499,-38.086,-19.531,-28.809,-26.855,386.230
1690986058.503,-38.574,-18.555,-27.344,-38.574,193.359
1690986058.506,-43.945,-20.996,-23.438,-40.039,-307.129
1690986058.510,-49.316,-22.949,-23.926,-39.551,-240.723
1690986058.514,-43.457,-25.879,-29.785,-42.480,107.910
1690986058.518,-45.410,-31.250,-29.785,-46.875,-35.645
1690986058.522,-43.457,-28.809,-20.996,-41.504,-277.344
1690986058.524,-40.039,-27.832,-21.973,-48.828,-143.555
1690986058.528,-33.203,-29.297,-34.668,-45.410,-58.594
1690986058.532,-33.691,-27.344,-39.551,-20.508,12.207
1690986058.536,-38.574,-28.809,-32.227,-32.227,41.992
1690986058.540,-37.109,-29.785,-26.855,-51.270,-75.195
1690986058.544,-40.039,-26.855,-31.250,-44.434,-31.738
1690986058.548,-24.414,-25.879,-32.715,-33.203,-44.434
1690986058.551,-18.555,-26.367,-25.391,-4.883,-39.062
1690986058.555,-34.668,-26.367,-18.066,-3.906,259.766
1690986058.559,-32.227,-21.973,-20.020,-39.551,220.215
1690986058.563,-23.926,-21.973,-26.855,-32.715,-282.715
1690986058.567,-27.832,-30.273,-34.668,-28.320,-275.879
1690986058.570,-25.879,-33.203,-36.621,-22.461,33.203
1690986058.574,-26.367,-31.250,-29.785,-13.672,88.379
1690986058.578,-36.621,-32.715,-28.320,-31.250,-153.320
1690986058.582,-44.434,-29.785,-26.367,-41.016,-288.574
1690986058.586,-40.527,-25.391,-25.391,-19.531,7.812
1690986058.590,-20.508,-29.297,-28.809,-10.254,309.570
1690986058.594,-9.766,-33.203,-28.809,-23.438,257.812
1690986058.597,-28.320,-29.297,-27.344,-29.785,-19.043
1690986058.601,-37.598,-30.762,-28.320,-33.203,-89.355
1690986058.605,-36.621,-26.855,-38.086,-42.480,-176.758
1690986058.609,-31.250,-23.926,-37.598,-37.109,-211.426
1690986058.613,-25.391,-28.320,-31.738,-20.996,111.328
1690986058.616,-36.621,-22.949,-28.320,-41.016,44.922
1690986058.620,-33.203,-20.996,-23.926,-46.387,-288.086
1690986058.624,-38.086,-28.320,-26.855,-39.551,-329.102
1690986058.628,-42.480,-29.785,-31.738,-31.250,-99.609
1690986058.632,-24.414,-24.902,-27.344,-6.836,125.488
1690986058.636,-28.809,-23.926,-21.973,-15.137,150.391
1690986058.640,-42.480,-28.320,-20.996,-54.199,-87.402
1690986058.643,-43.945,-29.785,-23.438,-50.293,-63.965
1690986058.647,-22.461,-28.320,-23.438,-23.926,252.930
1690986058.651,-24.902,-31.250,-24.902,-25.391,117.676
1690986058.655,-42.969,-38.574,-23.926,-29.297,-82.031
1690986058.659,-42.969,-38.086,-19.531,-35.156,-212.891
1690986058.659,-42.480,-27.832,-26.855,-45.410,-309.570
1690986058.663,-33.691,-24.902,-26.855,-31.738,-253.906
1690986058.667,-17.578,-29.785,-24.902,-13.672,-3.906
1690986058.671,-19.043,-32.715,-31.250,-34.180,175.293
1690986058.675,-27.832,-28.320,-30.762,-52.246,-92.285
1690986058.679,-24.902,-24.902,-26.855,-44.434,-302.246
1690986058.683,-20.020,-28.320,-26.367,-37.598,-184.570
1690986058.686,-11.230,-25.391,-22.949,-15.137,421.875
1690986058.690,-18.066,-22.949,-18.066,-8.301,688.965
1690986058.694,-21.484,-22.949,-20.020,-27.344,-3.906
1690986058.698,-19.531,-19.531,-23.926,-32.715,-338.379
1690986058.702,-28.320,-22.461,-23.926,-22.461,-245.117
1690986058.706,-35.645,-32.715,-25.879,-12.207,-134.277
1690986058.710,-34.180,-37.598,-23.926,-16.113,-31.250
1690986058.714,-27.832,-30.762,-20.020,-31.250,-115.723
1690986058.718,-35.156,-30.273,-20.020,-34.180,-274.414
1690986058.722,-37.598,-32.227,-23.926,-24.902,-288.574
1690986058.726,-23.438,-32.227,-24.414,-6.348,-4.883
1690986058.730,-23.926,-41.016,-20.508,-9.766,392.578
1690986058.733,-36.133,-35.156,-21.484,-30.273,213.379
1690986058.737,-27.344,-22.949,-22.461,-34.180,-271.973
1690986058.741,-28.809,-20.996,-20.508,-25.879,-244.141
1690986058.745,-24.414,-27.832,-25.391,-14.648,120.117
1690986058.749,-16.602,-38.574,-28.809,-25.879,200.195
1690986058.749,-37.109,-36.133,-27.344,-37.109,-119.141
1690986058.753,-43.457,-32.715,-31.250,-45.898,-313.477
1690986058.757,-33.203,-30.762,-32.715,-43.945,-246.582
1690986058.761,-21.484,-29.297,-25.879,-21.973,-10.254
1690986058.765,-14.160,-30.273,-26.367,-14.648,129.395
1690986058.769,-23.926,-31.250,-27.344,-34.180,54.199
1690986058.773,-47.852,-31.738,-24.414,-44.434,207.520
1690986058.776,-55.664,-37.109,-26.367,-33.691,159.180
1690986058.780,-35.645,-38.086,-35.156,-23.438,-183.594
1690986058.784,-25.879,-35.156,-35.645,-23.438,18.555
1690986058.788,-35.645,-36.133,-33.203,-33.691,72.754
1690986058.792,-43.945,-28.809,-32.715,-51.270,-267.090
1690986058.810,-44.922,-23.926,-31.738,-51.758,-297.852
1690986058.814,-36.133,-30.273,-32.715,-24.902,-18.555
1690986058.818,-33.203,-30.273,-35.156,-17.090,200.195
1690986058.822,-32.227,-23.926,-31.250,-41.016,-2.930
1690986058.826,-35.645,-31.250,-27.344,-55.664,-250.977
1690986058.830,-38.086,-36.133,-29.785,-43.945,-32.715
1690986058.834,-24.414,-27.832,-28.320,-26.855,126.953
1690986058.837,-26.855,-23.926,-23.926,-16.602,90.820
1690986058.841,-28.320,-28.320,-26.367,-18.555,3.906
1690986058.845,-23.438,-30.762,-27.344,-24.902,-28.809
1690986058.849,-29.297,-28.320,-23.926,-29.785,-115.234
1690986058.853,-38.574,-29.297,-25.391,-36.621,-246.582
1690986058.884,-18.555,-27.832,-26.855,-30.273,16.602
1690986058.888,-4.395,-23.438,-32.227,-25.391,111.816
1690986058.892,-33.691,-26.367,-34.668,-40.527,-115.234
1690986058.896,-39.062,-29.785,-29.785,-37.598,-215.820
1690986058.900,-22.461,-26.855,-25.879,-31.738,-100.098
1690986058.904,-3.906,-28.320,-22.461,-23.438,498.047
1690986058.908,-15.137,-27.344,-22.461,-18.555,571.289
1690986058.911,-42.480,-23.926,-21.973,-24.902,-159.180
1690986058.915,-41.016,-24.414,-19.531,-29.785,-371.094
1690986058.919,-32.227,-21.973,-22.461,-17.090,60.059
1690986058.923,-0.488,-16.113,-29.297,-1.465,236.816
1690986058.927,-1.953,-23.438,-29.785,-14.160,-52.734
1690986058.914,-39.551,-34.180,-29.785,-31.250,-59.082
1690986058.918,-32.715,-39.551,-21.484,-16.113,207.520
1690986058.922,-44.922,-43.457,-13.184,-11.230,316.406
1690986058.926,-62.500,-43.945,-6.348,-22.949,259.766
1690986058.930,-61.035,-47.852,-0.977,-27.832,-131.348
1690986058.934,-57.129,-50.781,4.883,-25.879,-268.066
1690986058.938,-56.152,-56.152,8.301,-3.418,48.828
1690986058.941,-58.105,-62.012,11.230,0.977,32.715
1690986058.945,-57.129,-59.082,5.371,-33.203,-223.145
1690986058.949,-45.898,-56.152,0.488,-28.809,-94.727
1690986058.953,-30.273,-50.781,-4.395,-11.230,42.969
1690986058.957,-20.508,-41.016,-17.090,-18.066,54.688
1690986058.959,-39.551,-39.551,-24.902,-35.156,-122.070
1690986058.963,-43.945,-34.668,-23.926,-36.621,-47.363
1690986058.967,-39.551,-37.109,-22.949,-26.367,194.336
1690986058.971,-34.668,-44.434,-22.461,-13.184,-79.590
1690986058.975,-23.926,-44.922,-16.602,9.766,-44.922
1690986058.979,-26.855,-44.434,-17.578,-10.254,99.609
1690986058.983,-30.762,-36.621,-15.625,-23.438,-178.223
1690986058.986,-37.598,-29.785,-22.949,-17.578,-374.023
1690986058.990,-35.156,-29.785,-35.156,-19.531,-196.777
1690986058.994,-31.250,-32.227,-26.855,-16.602,422.363
1690986058.998,-38.574,-35.156,-22.461,-34.180,296.387
1690986059.002,-44.922,-37.598,-30.762,-46.387,-255.859
1690986059.004,-40.039,-33.691,-28.809,-42.969,-287.109
1690986059.008,-29.297,-26.367,-22.949,-27.344,-211.914
1690986059.012,-16.602,-27.832,-20.020,-11.230,-79.590
1690986059.016,-32.227,-27.344,-24.902,-21.973,-55.664
1690986059.020,-39.062,-24.902,-34.180,-34.668,-193.848
1690986059.024,-30.762,-29.297,-33.691,-35.156,-223.633
1690986059.028,-21.484,-30.273,-31.250,-29.785,-165.527
1690986059.031,-15.137,-24.902,-26.855,-19.531,-51.270
1690986059.035,-19.531,-20.020,-19.531,-17.090,247.559
1690986059.039,-24.902,-19.531,-20.020,-31.250,187.988
1690986059.043,-34.180,-19.043,-24.414,-40.527,-333.984
1690986059.047,-23.438,-22.949,-26.367,-36.133,-327.148
1690986059.049,-13.672,-28.320,-27.344,-19.531,54.199
1690986059.053,-20.996,-31.250,-38.086,-15.625,183.594
1690986059.057,-25.879,-30.273,-35.156,-34.180,-92.285
1690986059.061,-30.762,-23.926,-20.508,-40.039,-337.891
1690986059.065,-32.227,-21.484,-15.625,-30.273,-114.746
1690986059.069,-23.926,-20.020,-18.066,-17.578,119.141
1690986059.073,-14.648,-16.113,-30.762,-26.367,123.047
1690986059.076,-28.809,-16.602,-38.086,-52.246,30.762
1690986059.080,-41.016,-22.461,-30.762,-56.152,60.059
1690986059.084,-26.855,-27.344,-24.414,-41.016,-132.324
1690986059.088,-10.742,-30.273,-24.414,-29.297,-172.363
1690986059.092,-13.184,-27.832,-26.367,-24.902,129.883
1690986059.095,-36.133,-28.809,-29.297,-35.156,19.043
1690986059.099,-40.039,-34.668,-40.039,-50.781,-309.570
1690986059.103,-28.320,-34.180,-42.480,-40.527,-310.059
1690986059.107,-25.391,-27.832,-36.133,-18.066,48.828
1690986059.111,-18.066,-27.344,-27.832,-16.602,243.164
1690986059.115,-26.367,-37.598,-27.344,-32.715,83.008
1690986059.119,-31.738,-35.156,-29.785,-42.480,-112.305
1690986059.122,-22.461,-22.461,-19.043,-32.227,-4.395
1690986059.126,-19.043,-18.555,-18.555,-14.160,189.941
1690986059.130,-24.902,-19.531,-25.879,-13.184,94.727
1690986059.134,-29.785,-23.438,-29.297,-33.203,-34.180
1690986059.138,-33.691,-24.414,-34.180,-36.621,-190.430
1690986059.139,-35.645,-23.926,-32.715,-31.250,-240.723
1690986059.143,-21.484,-24.414,-32.227,-36.133,-161.621
1690986059.147,-12.695,-26.367,-30.273,-25.879,38.086
1690986059.151,-21.973,-31.250,-23.438,-26.855,168.457
1690986059.155,-42.480,-32.227,-24.414,-39.062,-76.172
1690986059.159,-42.480,-30.762,-27.832,-39.551,-142.090
1690986059.163,-31.738,-25.391,-27.344,-26.367,4.883
1690986059.166,-19.043,-24.414,-23.438,-6.836,457.520
1690986059.170,-26.855,-28.809,-26.367,-17.090,389.160
1690986059.174,-46.875,-31.738,-28.809,-30.762,-261.230
1690986059.178,-43.457,-32.715,-25.391,-43.457,-350.098
1690986059.182,-32.227,-31.738,-31.250,-41.504,-262.695
1690986059.184,-19.531,-30.273,-36.133,-10.742,-58.594
1690986059.188,-29.785,-29.297,-29.297,-20.508,79.590
1690986059.192,-41.504,-26.367,-25.391,-35.156,-66.406
1690986059.196,-44.434,-34.180,-23.926,-35.156,-273.926
1690986059.200,-43.457,-46.387,-26.367,-33.203,-277.832
1690986059.204,-30.762,-38.574,-34.180,-19.531,-40.527
1690986059.208,-26.855,-35.645,-31.250,-5.859,369.141
1690986059.211,-38.086,-37.598,-26.367,-27.344,402.832
1690986059.215,-48.828,-28.809,-22.461,-55.664,-193.848
1690986059.219,-51.758,-21.484,-24.902,-38.086,-363.281
1690986059.223,-35.156,-25.391,-21.484,-21.973,4.395
1690986059.227,-30.273,-27.832,-26.367,-18.555,142.090
1690986059.229,-42.480,-23.926,-35.156,-33.203,-2.930
1690986059.233,-42.480,-21.484,-27.832,-54.688,-182.129
1690986059.237,-41.016,-23.926,-25.391,-45.898,-181.641
1690986059.241,-38.086,-26.855,-24.902,-31.250,-46.387
1690986059.245,-28.809,-28.809,-25.391,-38.086,2.930
1690986059.249,-37.598,-30.762,-29.785,-47.852,29.785
1690986059.253,-65.430,-27.832,-35.645,-52.246,59.570
1690986059.256,-54.199,-23.438,-35.156,-52.734,-141.113
1690986059.260,-29.785,-23.926,-35.156,-45.410,-179.199
1690986059.264,-29.297,-27.344,-33.691,-44.434,238.281
1690986059.268,-41.504,-30.273,-32.227,-43.945,289.062
1690986059.272,-50.781,-32.227,-35.156,-53.711,-205.078
1690986059.289,-44.922,-32.227,-36.621,-45.898,-355.469
1690986059.293,-32.715,-26.855,-36.133,-31.250,-166.992
1690986059.297,-19.043,-23.438,-30.762,-25.391,63.477
1690986059.301,-26.855,-29.297,-28.809,-31.738,-33.203
1690986059.305,-43.945,-30.273,-30.273,-64.941,-270.508
1690986059.309,-37.598,-26.367,-26.855,-57.617,-231.445
1690986059.313,-29.785,-24.902,-18.066,-23.926,-42.969
1690986059.316,-30.273,-21.484,-20.508,-21.973,87.891
1690986059.320,-28.809,-17.090,-24.414,-37.109,10.254
1690986059.324,-32.715,-21.484,-29.785,-37.109,20.020
1690986059.328,-41.992,-24.902,-29.297,-42.480,-51.758
1690986059.332,-35.645,-21.484,-27.832,-35.156,-246.582
1690986059.334,-27.832,-24.902,-35.645,-20.020,81.543
1690986059.338,-29.297,-30.762,-32.715,-38.086,454.590
1690986059.342,-37.598,-31.250,-23.438,-47.852,103.027
1690986059.346,-40.527,-32.227,-23.438,-38.086,-391.113
1690986059.350,-26.855,-33.691,-22.461,-26.367,-249.512
1690986059.354,-19.531,-31.738,-15.625,-13.184,138.672
1690986059.358,-29.785,-36.133,-23.926,-23.926,248.535
1690986059.361,-44.922,-36.133,-25.879,-44.922,-125.000
1690986059.365,-34.668,-27.344,-19.043,-36.621,-276.367
1690986059.369,-22.949,-20.020,-20.508,-24.414,-149.902
1690986059.373,-10.742,-13.184,-19.531,-13.184,-34.180
1690986059.377,-9.766,-13.672,-20.508,-15.625,39.551
1690986059.379,-28.320,-16.113,-21.484,-29.785,19.043
1690986059.383,-26.367,-17.578,-19.043,-25.391,3.906
1690986059.387,-11.719,-20.996,-26.855,-23.438,-128.418
1690986059.391,-8.789,-23.438,-35.156,-13.672,29.297
1690986059.395,-21.484,-24.414,-32.227,-10.742,266.113
1690986059.399,-31.250,-20.996,-25.879,-30.762,113.770
1690986059.403,-37.109,-18.066,-19.043,-41.504,-144.531
1690986059.406,-36.621,-21.484,-23.438,-35.156,-264.648
1690986059.410,-18.555,-22.949,-26.855,-19.531,111.816
1690986059.414,-13.184,-27.832,-23.438,-15.625,433.594
1690986059.418,-23.926,-29.297,-24.414,-37.598,-92.285
1690986059.422,-20.020,-26.855,-23.926,-42.480,-272.461
1690986059.424,-33.203,-33.203,-26.855,-35.156,-65.918
1690986059.428,-32.227,-38.574,-34.180,-27.344,-19.531
1690986059.432,-29.297,-39.551,-41.504,-26.367,-16.602
1690986059.436,-53.223,-40.527,-34.180,-40.039,-42.969
1690986059.440,-59.570,-38.574,-29.785,-42.480,-119.141
1690986059.444,-53.711,-32.227,-31.738,-47.852,-175.781
1690986059.448,-43.945,-33.203,-29.785,-38.086,-64.453
1690986059.451,-33.691,-37.109,-27.832,-23.438,214.355
1690986059.455,-45.410,-34.668,-26.367,-24.414,434.082
1690986059.459,-50.293,-32.715,-32.227,-38.574,43.457
1690986059.463,-45.410,-30.273,-31.738,-45.898,-396.484
1690986059.467,-36.133,-26.855,-24.902,-28.320,-159.180
1690986059.469,-14.648,-28.320,-28.809,-14.160,136.230
1690986059.473,-15.625,-28.320,-32.227,-20.508,-25.391
1690986059.477,-27.344,-26.855,-25.879,-24.414,-295.898
1690986059.481,-31.738,-25.879,-18.555,-20.996,-214.355
1690986059.485,-25.391,-26.855,-20.508,-17.578,-138.184
1690986059.489,-14.648,-29.297,-26.367,-14.648,61.523
1690986059.493,-15.137,-33.203,-22.461,-18.555,112.305
1690986059.496,-20.996,-28.809,-20.020,-14.648,67.871
1690986059.500,-21.973,-21.484,-22.949,-8.789,194.824
1690986059.504,-10.254,-21.973,-25.879,-4.883,-127.441
1690986059.508,-0.488,-23.438,-21.973,7.812,-48.340
1690986059.512,-7.812,-25.879,-19.043,11.230,137.695
1690986059.514,-29.297,-27.344,-21.973,-11.230,-113.281
1690986059.518,-43.945,-28.809,-26.855,-23.438,-306.152
1690986059.522,-41.504,-30.273,-27.832,-14.648,-212.402
1690986059.526,-28.809,-28.320,-29.785,-5.859,185.059
1690986059.530,-28.320,-22.949,-32.227,-30.273,207.520
1690986059.534,-22.949,-19.531,-27.832,-41.504,-78.125
1690986059.538,-21.973,-23.438,-27.344,-31.738,-108.398
1690986059.541,-26.367,-25.391,-23.438,-25.391,59.082
1690986059.545,-12.695,-26.367,-20.508,-12.695,108.398
1690986059.549,-12.695,-22.461,-26.855,-11.230,26.367
1690986059.553,-28.809,-19.531,-25.879,-24.414,-44.922
1690986059.557,-33.203,-21.973,-20.996,-23.926,-196.289
1690986059.559,-31.738,-25.391,-25.879,-22.461,-316.406
1690986059.563,-22.949,-27.344,-27.832,-24.414,-99.121
1690986059.567,-15.137,-23.438,-26.367,-23.926,166.016
1690986059.571,-27.344,-18.555,-24.414,-28.809,-35.645
1690986059.575,-33.691,-19.531,-27.832,-24.902,-234.863
1690986059.579,-30.762,-20.996,-30.762,-38.574,-153.809
1690986059.583,-32.227,-25.391,-29.297,-31.738,224.121
1690986059.586,-30.762,-34.180,-28.809,-15.137,422.363
1690986059.590,-36.133,-32.227,-28.320,-26.855,-27.344
1690986059.594,-38.574,-27.832,-29.785,-36.621,-264.160
1690986059.598,-35.156,-25.391,-27.344,-25.879,-260.254
1690986059.602,-25.391,-22.949,-26.367,-15.137,-100.098
1690986059.605,-18.066,-24.414,-31.738,-15.625,191.895
1690986059.609,-24.902,-23.438,-34.668,-31.738,132.324
1690986059.613,-25.391,-19.043,-29.785,-43.945,112.793
1690986059.617,-33.691,-21.484,-26.855,-49.805,-19.531
1690986059.621,-33.691,-25.391,-33.203,-43.457,-190.430
1690986059.625,-17.578,-25.879,-35.156,-30.762,143.066
1690986059.629,-37.598,-30.273,-39.551,-44.922,308.105
1690986059.632,-48.340,-31.738,-36.621,-50.781,-57.617
1690986059.636,-39.062,-34.180,-34.668,-40.039,-416.992
1690986059.640,-41.016,-36.621,-40.039,-33.691,-200.684
1690986059.644,-33.203,-38.574,-38.574,-27.832,195.312
1690986059.648,-31.738,-34.668,-37.598,-29.785,64.941
1690986059.664,-40.527,-30.273,-29.297,-35.156,-250.977
1690986059.668,-32.227,-33.691,-27.832,-41.992,-270.020
1690986059.672,-29.297,-34.668,-23.926,-28.809,-208.008
1690986059.676,-30.762,-30.273,-21.484,-14.160,55.176
1690986059.680,-31.250,-30.273,-23.438,-27.832,73.730
1690986059.684,-38.086,-32.715,-31.738,-41.504,125.000
1690986059.688,-37.109,-31.738,-33.691,-43.945,250.000
1690986059.691,-28.809,-32.715,-28.809,-45.410,-164.062
1690986059.695,-19.531,-30.273,-33.691,-34.180,-111.816
1690986059.699,-34.668,-30.762,-31.738,-30.273,250.977
1690986059.703,-43.457,-27.832,-24.902,-45.410,-6.348
1690986059.707,-42.969,-21.973,-21.973,-43.457,-361.816
1690986059.709,-39.551,-23.438,-20.996,-25.879,-252.441
1690986059.713,-20.020,-26.367,-27.832,-18.555,91.797
1690986059.717,-28.320,-28.809,-33.691,-27.344,180.176
1690986059.721,-49.805,-29.297,-27.832,-45.410,-167.969
1690986059.725,-51.270,-29.297,-24.414,-50.781,-252.441
1690986059.729,-44.922,-30.762,-23.438,-33.691,-104.004
1690986059.733,-27.832,-29.785,-31.250,-22.461,43.945
1690986059.736,-16.602,-29.297,-41.504,-36.133,155.273
1690986059.740,-33.203,-33.203,-35.156,-59.082,-8.301
1690986059.744,-39.062,-31.250,-24.902,-51.270,105.469
1690986059.748,-37.598,-23.926,-27.832,-42.480,-42.480
1690986059.752,-24.414,-23.438,-26.367,-31.250,-237.793
1690986059.755,-20.020,-22.949,-21.484,-20.996,76.172
1690986059.759,-31.250,-22.949,-23.438,-39.551,27.344
1690986059.763,-38.086,-24.902,-23.926,-41.504,-304.199
1690986059.767,-43.457,-25.391,-19.531,-38.086,-317.383
1690986059.771,-33.691,-22.461,-22.461,-27.832,-83.496
1690986059.775,-27.832,-17.578,-26.855,-12.695,111.816
1690986059.779,-18.555,-24.902,-24.902,-12.695,129.883
1690986059.782,-17.578,-24.902,-28.320,-24.414,-173.340
1690986059.786,-35.645,-13.184,-37.109,-54.199,-54.688
1690986059.790,-28.320,-14.160,-34.668,-42.480,232.910
1690986059.794,-21.484,-17.090,-31.250,-23.926,97.168
1690986059.798,-32.715,-14.160,-35.156,-38.574,-18.555
1690986059.799,-32.715,-20.020,-36.621,-40.527,166.992
1690986059.803,-39.551,-21.973,-38.086,-45.410,121.582
1690986059.807,-34.180,-24.414,-35.645,-28.809,-230.469
1690986059.811,-12.695,-26.367,-36.621,-18.066,-12.695
1690986059.815,-24.414,-20.020,-43.945,-45.898,66.895
1690986059.819,-29.297,-15.625,-49.316,-51.758,-146.484
1690986059.823,-28.809,-10.742,-48.340,-52.246,-236.816
1690986059.826,-36.621,-9.766,-44.434,-46.387,-124.023
1690986059.830,-22.461,-7.812,-44.922,-19.043,270.508
1690986059.834,-22.949,-5.859,-45.410,-29.785,162.109
1690986059.838,-24.414,-7.812,-42.969,-55.176,-227.539
1690986059.842,-17.578,-8.789,-44.434,-53.223,-126.465
1690986059.844,-21.973,-6.836,-47.363,-44.434,-69.824
1690986059.848,-18.555,-4.883,-44.922,-37.109,-46.875
1690986059.852,-20.020,-6.348,-39.551,-44.434,-7.812
1690986059.856,-22.461,-4.395,-38.086,-50.293,-147.461
1690986059.860,-29.297,-0.488,-41.016,-35.645,-236.816
1690986059.864,-33.691,-7.812,-43.457,-37.109,-155.273
1690986059.868,-13.184,-8.301,-43.945,-30.762,88.867
1690986059.871,-8.789,-3.906,-38.086,-15.625,375.000
1690986059.875,-19.531,-8.789,-38.574,-32.227,213.867
1690986059.879,-21.484,-14.648,-41.016,-38.086,-276.367
1690986059.883,-21.973,-15.625,-31.250,-24.414,-347.168
1690986059.887,-10.742,-17.578,-24.902,-20.508,-83.008
1690986059.905,-3.418,-16.113,-25.879,-18.555,146.484
1690986059.909,-13.184,-15.625,-23.926,-22.949,-23.926
1690986059.913,-20.996,-21.484,-27.344,-31.250,-260.254
1690986059.917,-25.391,-23.438,-33.691,-30.273,-25.391
1690986059.921,-9.766,-18.555,-32.715,-14.648,147.461
1690986059.925,-1.953,-18.066,-28.809,-4.883,79.102
1690986059.929,-23.438,-20.020,-29.297,-20.508,20.020
1690986059.932,-26.855,-20.020,-29.297,-38.086,18.555
1690986059.936,-25.879,-25.879,-32.227,-49.805,-167.480
1690986059.940,-33.203,-27.832,-40.039,-39.551,-251.465
1690986059.944,-26.855,-27.832,-36.621,-28.320,56.641
1690986059.948,-26.855,-27.832,-28.809,-36.621,37.109
1690986059.934,-27.832,-27.832,-31.738,-44.922,-258.789
1690986059.938,-25.879,-30.273,-32.227,-48.340,-354.004
1690986059.942,-23.926,-26.367,-24.902,-32.715,-113.770
1690986059.946,-20.996,-23.438,-21.484,-13.672,183.594
1690986059.950,-27.344,-26.367,-20.996,-33.203,189.453
1690986059.954,-28.809,-22.461,-22.949,-44.922,9.766
1690986059.958,-30.762,-20.508,-28.320,-43.457,-60.059
1690986059.961,-27.344,-27.344,-31.250,-41.504,-103.027
1690986059.965,-18.555,-28.809,-26.367,-22.461,-18.555
1690986059.969,-24.414,-23.926,-26.367,-35.156,-77.637
1690986059.973,-28.320,-22.461,-25.391,-41.016,-2.930
1690986059.977,-28.320,-27.832,-25.879,-29.297,148.926
1690986059.979,-33.691,-34.668,-28.809,-41.504,-131.836
1690986059.983,-30.762,-36.621,-25.391,-26.855,25.879
1690986059.987,-34.180,-32.715,-24.414,-23.438,174.805
1690986059.991,-37.109,-29.297,-27.344,-32.227,-151.855
1690986059.995,-38.574,-31.738,-32.227,-25.391,-352.539
1690986059.999,-31.250,-25.391,-30.762,-23.926,-109.863
1690986060.003,-20.508,-24.414,-29.785,-20.996,355.957
1690986060.006,-31.738,-29.785,-30.762,-25.391,312.988
1690986060.010,-46.387,-27.832,-31.250,-29.297,-154.297
1690986060.014,-45.410,-32.227,-31.738,-27.832,-225.098
1690986060.018,-38.574,-36.621,-27.344,-22.949,-82.520
1690986060.022,-33.691,-37.598,-27.832,-11.719,-19.531
1690986060.039,-31.250,-29.297,-30.762,-32.715,-44.922
1690986060.043,-37.598,-23.438,-33.691,-58.594,-79.590
1690986060.047,-49.316,-24.414,-28.809,-51.270,-104.492
1690986060.051,-49.805,-23.438,-28.809,-51.270,-242.188
1690986060.055,-34.668,-26.855,-32.715,-44.434,-114.258
1690986060.059,-28.809,-26.367,-30.762,-31.250,236.816
1690986060.063,-42.480,-28.320,-34.180,-51.758,171.387
1690986060.066,-42.969,-34.180,-36.133,-60.547,-202.637
1690986060.070,-29.297,-29.297,-28.809,-48.828,-266.113
1690986060.074,-25.879,-22.461,-24.902,-28.809,176.758
1690986060.078,-19.531,-21.973,-28.320,-16.113,480.469
1690986060.082,-28.809,-25.391,-25.879,-34.180,-65.918
1690986060.084,-38.086,-31.738,-23.926,-44.434,-274.902
1690986060.088,-29.297,-29.297,-29.297,-39.551,-61.523
1690986060.092,-25.391,-23.926,-31.738,-25.879,-12.695
1690986060.096,-26.855,-22.949,-29.297,-17.090,17.090
1690986060.100,-18.066,-20.020,-30.762,-27.344,-0.977
1690986060.104,-20.996,-21.484,-29.785,-41.992,-98.633
1690986060.108,-32.227,-22.949,-25.391,-43.457,-171.387
1690986060.111,-25.391,-23.926,-25.391,-26.367,-173.828
1690986060.115,-22.461,-27.344,-23.926,-11.719,73.730
1690986060.119,-30.273,-28.320,-28.320,-14.160,300.293
1690986060.123,-35.645,-22.949,-27.344,-24.902,-82.031
1690986060.127,-41.504,-20.508,-29.785,-48.828,-332.031
1690986060.130,-29.785,-17.578,-33.691,-40.039,-25.879
1690986060.134,-16.113,-15.137,-27.344,-22.461,191.895
1690986060.138,-13.672,-20.996,-30.273,-24.902,5.371
1690986060.142,-31.250,-24.414,-33.691,-38.086,-211.914
1690986060.146,-46.387,-21.973,-29.297,-55.664,-299.805
1690986060.150,-31.738,-22.949,-26.367,-49.316,-97.168
1690986060.154,-20.996,-26.367,-22.949,-34.668,145.508
1690986060.157,-25.879,-25.391,-23.926,-43.457,-10.742
1690986060.161,-45.898,-24.902,-29.785,-48.340,13.672
1690986060.165,-54.199,-24.902,-29.785,-44.434,54.688
1690986060.169,-44.434,-22.949,-27.344,-35.156,-198.730
1690986060.173,-31.250,-24.902,-22.461,-28.809,5.371
1690986060.175,-37.109,-26.855,-30.762,-42.480,204.590
1690986060.179,-41.992,-22.461,-33.203,-44.434,-4.395
1690986060.183,-36.621,-19.531,-22.461,-50.293,-216.797
1690986060.187,-34.668,-22.949,-21.973,-55.176,-217.285
1690986060.191,-18.555,-25.391,-25.391,-39.062,211.914
1690986060.195,-18.066,-22.949,-24.414,-33.691,309.082
1690986060.199,-30.273,-25.879,-24.902,-48.340,-104.004
1690986060.202,-36.133,-34.180,-26.367,-58.105,-190.918
1690986060.206,-42.969,-34.668,-23.438,-48.828,111.816
1690986060.210,-39.551,-31.250,-21.484,-27.344,210.449
1690986060.214,-33.203,-33.691,-22.461,-22.461,3.418
1690986060.218,-38.574,-34.180,-26.367,-45.410,-127.441
1690986060.219,-44.922,-26.855,-28.809,-57.129,-291.504
1690986060.223,-40.527,-27.344,-26.367,-62.988,-372.559
1690986060.227,-35.156,-24.414,-24.902,-49.316,-169.434
1690986060.231,-41.504,-21.484,-27.832,-34.180,141.602
1690986060.235,-45.898,-20.020,-26.855,-50.293,79.102
1690986060.239,-39.062,-19.043,-24.414,-42.969,-133.789
1690986060.243,-33.203,-20.508,-25.391,-33.203,-205.566
1690986060.246,-32.715,-22.461,-27.832,-33.203,98.145
1690986060.250,-28.809,-25.879,-32.227,-27.832,466.797
1690986060.254,-38.574,-30.273,-32.715,-49.805,37.598
1690986060.258,-43.457,-31.738,-29.297,-50.781,-312.012
1690986060.262,-34.668,-26.855,-31.738,-31.738,-257.812
1690986060.279,-23.438,-24.414,-29.785,-24.414,-125.977
1690986060.283,-19.043,-25.391,-26.367,-16.602,38.086
1690986060.287,-28.809,-23.926,-28.320,-29.785,-41.016
1690986060.291,-38.086,-20.508,-24.414,-38.086,-110.352
1690986060.295,-35.645,-25.391,-26.855,-27.832,-203.125
1690986060.299,-27.344,-26.367,-30.762,-24.902,-134.766
1690986060.303,-13.672,-21.973,-29.297,-19.531,176.270
1690986060.306,-15.625,-20.996,-26.367,-20.996,464.355
1690986060.310,-19.531,-20.996,-20.996,-31.738,145.020
1690986060.314,-24.902,-24.414,-25.879,-37.109,-339.355
1690986060.318,-34.180,-27.832,-27.344,-22.461,-178.223
1690986060.322,-24.902,-25.391,-28.320,-13.184,37.598
1690986060.309,-30.273,-26.855,-29.785,-27.832,-8.301
1690986060.313,-35.156,-30.762,-23.926,-38.086,-189.941
1690986060.317,-35.156,-28.320,-22.949,-36.621,-236.816
1690986060.321,-31.250,-29.297,-27.832,-26.367,-200.684
1690986060.325,-13.184,-30.273,-25.391,-12.207,-21.973
1690986060.329,-25.879,-30.273,-23.926,-33.691,175.293
1690986060.333,-41.504,-34.180,-27.344,-44.922,104.980
1690986060.336,-34.668,-37.109,-28.320,-41.992,-125.977
1690986060.340,-32.715,-38.086,-28.320,-40.527,-239.258
1690986060.344,-31.250,-32.227,-25.879,-16.602,-67.383
1690986060.348,-22.461,-24.902,-20.020,-10.742,340.332
1690986060.352,-38.574,-29.785,-26.855,-32.715,312.500
1690986060.354,-48.828,-32.227,-36.133,-41.016,-212.402
1690986060.358,-41.992,-29.785,-29.297,-24.902,-351.074
1690986060.362,-28.320,-27.832,-23.926,-15.625,-3.906
1690986060.366,-23.438,-20.996,-27.344,-26.855,141.602
1690986060.370,-38.574,-23.438,-31.250,-44.434,-183.594
1690986060.374,-36.621,-29.297,-29.297,-43.457,-124.023
1690986060.378,-26.855,-30.762,-23.438,-27.832,172.852
1690986060.381,-15.625,-28.320,-23.926,-17.578,73.242
1690986060.385,-11.719,-25.879,-27.832,-23.438,-1.953
1690986060.389,-31.250,-27.832,-29.297,-35.156,-19.043
1690986060.393,-32.227,-30.273,-26.367,-37.598,-96.680
1690986060.397,-23.926,-27.832,-22.949,-33.691,-220.703
1690986060.400,-13.672,-23.926,-22.461,-20.508,-174.316
1690986060.404,-6.348,-21.484,-21.973,-14.160,145.020
1690986060.408,-21.484,-17.090,-21.973,-27.344,135.254
1690986060.412,-28.809,-16.113,-24.414,-44.434,-286.621
1690986060.416,-32.227,-16.602,-24.414,-39.062,-403.320
1690986060.420,-25.879,-19.043,-29.785,-21.973,-1.953
1690986060.424,-7.812,-22.949,-34.180,-8.789,300.781
1690986060.427,-18.555,-27.832,-33.691,-19.043,-2.930
1690986060.431,-38.086,-28.809,-30.273,-24.414,-302.734
1690986060.435,-30.762,-28.809,-26.367,-16.602,-62.500
1690986060.439,-27.832,-27.832,-30.273,-17.090,88.867
1690986060.443,-26.367,-28.809,-33.691,-23.438,-22.949
1690986060.460,-32.715,-30.273,-38.574,-35.156,66.406
1690986060.464,-38.086,-26.855,-32.227,-40.039,59.082
1690986060.468,-39.062,-28.320,-29.297,-40.039,-144.043
1690986060.472,-34.668,-29.785,-31.250,-27.344,-284.180
1690986060.476,-32.227,-29.785,-23.438,-13.184,-70.312
1690986060.480,-25.879,-31.250,-23.438,-21.484,287.598
1690986060.484,-18.555,-30.273,-25.391,-40.527,111.816
1690986060.487,-41.016,-27.832,-21.484,-41.992,-277.832
1690986060.491,-41.992,-23.438,-17.090,-23.926,-217.285
1690986060.495,-20.020,-25.391,-19.531,-14.648,147.461
1690986060.499,-24.902,-30.273,-23.926,-23.926,90.332
1690986060.503,-38.574,-23.926,-24.902,-23.926,-209.961
1690986060.504,-38.574,-24.414,-18.555,-23.438,-209.473
1690986060.508,-36.133,-27.344,-11.230,-27.344,-182.129
1690986060.512,-28.809,-26.367,-12.695,-18.555,-76.172
1690986060.516,-25.879,-32.227,-20.508,-27.344,71.289
1690986060.520,-29.297,-28.809,-25.879,-41.504,2.441
1690986060.524,-35.645,-25.879,-27.344,-33.691,-96.191
1690986060.528,-38.086,-22.949,-26.367,-24.414,-90.332
1690986060.531,-25.879,-17.578,-23.926,-13.184,-45.898
1690986060.535,-12.207,-14.648,-26.367,-10.742,241.211
1690986060.539,-20.020,-10.254,-25.391,-24.902,343.750
1690986060.543,-42.480,-17.090,-23.438,-42.480,-218.262
1690986060.547,-34.668,-23.926,-22.461,-43.457,-329.590
1690986060.549,-25.391,-25.879,-22.949,-27.344,157.715
1690986060.553,-32.715,-29.297,-25.879,-28.809,267.090
1690986060.557,-47.363,-31.738,-23.926,-44.922,-41.016
1690986060.561,-56.641,-33.691,-23.438,-54.688,-252.441
1690986060.565,-39.062,-30.762,-28.809,-51.758,-175.293
1690986060.569,-25.879,-31.738,-27.832,-30.273,39.062
1690986060.573,-17.090,-32.227,-22.461,-19.531,175.293
1690986060.576,-28.320,-25.879,-25.391,-41.992,61.035
1690986060.580,-31.738,-18.555,-22.949,-34.668,114.258
1690986060.584,-23.926,-15.137,-16.602,-25.879,18.555
1690986060.588,-31.738,-20.508,-20.508,-26.367,-212.891
1690986060.592,-30.762,-19.043,-25.391,-14.648,0.977
1690986060.596,-28.320,-18.555,-18.066,-25.391,-0.977
1690986060.600,-36.621,-22.461,-17.090,-42.969,-303.711
1690986060.604,-42.480,-21.484,-20.996,-44.434,-467.773
1690986060.608,-24.414,-19.531,-17.578,-34.668,-240.234
1690986060.612,-13.184,-15.137,-20.020,-17.578,73.730
1690986060.616,-22.461,-16.113,-24.414,-19.043,71.289
1690986060.620,-28.320,-23.438,-29.785,-38.574,-121.094
1690986060.623,-50.293,-28.320,-32.715,-42.480,-69.336
1690986060.627,-58.105,-29.785,-32.227,-36.621,63.965
1690986060.631,-34.668,-26.367,-30.762,-35.156,83.984
1690986060.635,-38.086,-24.414,-24.902,-38.086,70.312
1690986060.639,-32.227,-21.973,-24.414,-45.898,-91.309
1690986060.639,-30.273,-20.508,-28.809,-37.598,-121.582
1690986060.643,-39.062,-23.438,-24.414,-18.555,-189.453
1690986060.647,-16.113,-27.344,-24.414,-1.953,-26.367
1690986060.651,-24.902,-27.832,-30.762,-13.672,136.230
1690986060.655,-41.016,-32.715,-32.227,-30.273,-83.496
1690986060.659,-35.645,-28.320,-27.344,-32.227,-249.512
1690986060.663,-20.996,-20.020,-21.484,-28.809,-135.742
1690986060.666,-14.160,-23.438,-24.414,-7.812,395.508
1690986060.670,-20.508,-23.438,-32.715,-18.555,429.199
1690986060.674,-25.879,-20.508,-29.785,-42.480,-166.992
1690986060.678,-25.879,-18.555,-23.438,-43.945,-267.090
1690986060.682,-25.391,-26.367,-23.926,-33.691,-159.180
1690986060.685,-16.113,-27.344,-25.879,-21.973,-51.270
1690986060.689,-17.090,-21.973,-31.250,-23.438,-4.395
1690986060.693,-31.738,-22.949,-31.738,-31.250,-21.973
1690986060.697,-32.715,-24.414,-26.855,-36.621,-61.523
1690986060.701,-31.250,-25.879,-20.996,-22.461,-201.172
1690986060.705,-30.273,-22.949,-16.602,-17.578,-30.273
1690986060.709,-27.344,-28.320,-18.555,-13.672,338.379
1690986060.712,-34.668,-30.273,-26.855,-37.109,249.023
1690986060.716,-37.109,-23.926,-35.156,-60.547,-256.836
1690986060.720,-25.391,-26.855,-35.645,-45.898,-335.449
1690986060.724,-15.625,-30.762,-32.227,-34.668,-112.305
1690986060.728,-29.785,-23.438,-25.391,-36.133,39.551
1690986060.744,-41.504,-20.020,-22.461,-41.992,-64.941
1690986060.748,-37.598,-23.438,-24.414,-38.574,-246.582
1690986060.752,-35.645,-33.691,-23.438,-30.273,-15.625
1690986060.756,-31.250,-34.180,-27.832,-27.344,88.867
1690986060.760,-27.344,-21.973,-31.250,-25.879,-40.527
1690986060.764,-26.855,-15.625,-28.320,-26.855,-14.160
1690986060.768,-39.062,-17.090,-20.508,-29.297,226.562
1690986060.771,-39.551,-23.926,-23.926,-20.996,91.797
1690986060.775,-28.809,-30.762,-39.062,-23.438,-191.406
1690986060.779,-27.832,-29.785,-39.062,-31.738,81.543
1690986060.783,-22.949,-20.508,-27.832,-24.902,111.328
1690986060.787,-25.879,-20.020,-26.367,-35.156,-194.336
1690986060.774,-25.391,-21.973,-31.250,-33.203,-330.078
1690986060.778,-23.926,-22.461,-24.414,-22.461,-172.852
1690986060.782,-29.785,-33.203,-22.461,-30.762,19.531
1690986060.786,-31.250,-32.227,-26.367,-38.086,-27.832
1690986060.790,-39.062,-29.297,-24.902,-43.457,-209.473
1690986060.794,-36.621,-29.297,-21.973,-35.156,-96.680
1690986060.798,-24.902,-29.297,-20.508,-20.020,60.059
1690986060.801,-24.902,-31.250,-23.926,-13.672,103.027
1690986060.805,-35.645,-33.691,-28.809,-24.414,-10.254
1690986060.809,-44.434,-34.668,-28.320,-37.109,47.363
1690986060.813,-43.457,-29.297,-30.273,-34.668,27.832
1690986060.817,-42.480,-33.203,-33.691,-33.203,-269.531
1690986060.834,-40.527,-39.062,-34.180,-30.273,7.812
1690986060.838,-39.551,-39.062,-30.762,-21.484,302.734
1690986060.842,-50.781,-39.062,-22.461,-36.621,33.691
1690986060.846,-50.293,-35.156,-21.973,-49.805,-325.684
1690986060.850,-30.273,-31.738,-30.273,-32.715,-274.902
1690986060.854,-6.836,-31.250,-28.809,-20.996,119.629
1690986060.858,-21.484,-37.598,-24.902,-29.785,246.094
1690986060.861,-55.664,-39.062,-27.832,-40.527,-118.164
1690986060.865,-58.105,-31.738,-30.273,-52.246,-230.957
1690986060.869,-52.246,-29.785,-24.414,-47.852,126.953
1690986060.873,-45.410,-31.250,-24.414,-35.156,151.367
1690986060.877,-31.738,-30.762,-29.785,-40.527,10.254
1690986060.879,-28.809,-26.367,-24.902,-52.246,-20.996
1690986060.883,-44.922,-25.391,-28.320,-60.059,-187.012
1690986060.887,-45.898,-28.809,-34.668,-50.293,-290.039
1690986060.891,-34.180,-30.762,-31.738,-29.785,-139.648
1690986060.895,-28.809,-35.156,-31.738,-23.926,134.277
1690986060.899,-37.109,-33.203,-26.855,-39.062,106.445
1690986060.903,-32.715,-27.344,-23.926,-49.805,-30.273
1690986060.906,-20.996,-28.320,-22.949,-44.434,-161.621
1690986060.910,-15.137,-30.273,-23.438,-22.949,112.793
1690986060.914,-15.137,-29.785,-28.809,-12.207,414.062
1690986060.918,-32.227,-27.344,-25.879,-35.645,13.184
1690986060.922,-31.250,-22.949,-22.949,-35.156,-282.227
1690986060.924,-34.668,-25.879,-23.926,-29.785,11.230
1690986060.928,-38.086,-34.668,-26.367,-25.879,189.453
1690986060.932,-16.113,-27.832,-31.250,-10.254,23.438
1690986060.936,-28.320,-26.855,-22.461,-24.414,-46.387
1690986060.940,-33.691,-25.391,-23.438,-39.062,-198.730
1690986060.944,-15.625,-23.438,-26.855,-30.762,-213.867
1690986060.948,-20.020,-33.203,-23.438,-15.137,-111.328
1690986060.951,-18.555,-31.738,-26.367,-16.113,87.402
1690986060.955,-18.555,-24.902,-26.855,-26.855,373.535
1690986060.959,-40.527,-28.809,-28.320,-36.621,40.039
1690986060.963,-30.762,-27.344,-27.832,-38.574,-395.020
1690986060.967,-11.719,-24.414,-26.367,-23.926,-269.043
1690986060.969,-21.484,-30.273,-27.344,-16.602,62.500
1690986060.973,-26.855,-32.227,-27.344,-24.902,99.121
1690986060.977,-44.434,-27.344,-25.879,-37.598,-220.703
1690986060.981,-51.758,-24.414,-26.367,-32.227,-202.637
1690986060.985,-32.227,-24.414,-31.250,-25.391,-39.551
1690986060.989,-15.625,-26.855,-31.738,-19.531,67.871
1690986060.993,-27.832,-28.809,-30.273,-26.367,117.676
1690986060.996,-51.758,-25.879,-29.785,-38.574,137.207
1690986061.000,-51.270,-25.879,-29.297,-35.156,77.637
1690986061.004,-45.410,-28.320,-28.320,-27.344,-200.684
1690986061.008,-29.785,-25.879,-27.832,-16.113,-71.777
1690986061.012,-27.832,-20.996,-28.809,-18.066,43.945
1690986061.014,-41.992,-21.973,-31.250,-29.297,-43.457
1690986061.018,-44.434,-26.855,-29.297,-37.598,-174.805
1690986061.022,-36.621,-26.855,-26.367,-33.203,-204.590
1690986061.026,-16.602,-22.949,-31.250,-14.160,293.457
1690986061.030,-9.766,-23.438,-33.691,-22.949,347.656
1690986061.034,-25.391,-25.391,-27.344,-39.551,-23.926
1690986061.038,-37.109,-22.949,-21.973,-36.133,-98.145
1690986061.041,-32.715,-22.949,-19.043,-19.043,39.551
1690986061.045,-28.809,-22.461,-20.996,-12.695,53.223
1690986061.049,-25.879,-24.414,-29.297,-22.949,-17.578
1690986061.053,-32.715,-26.367,-28.809,-35.156,-65.430
1690986061.057,-43.945,-27.832,-27.344,-45.898,-229.980
1690986061.059,-31.738,-24.414,-31.250,-40.527,-300.781
1690986061.063,-19.043,-23.926,-34.668,-34.180,-132.812
1690986061.067,-26.855,-30.762,-38.574,-20.508,117.676
1690986061.071,-28.809,-28.320,-34.180,-35.645,14.648
1690986061.075,-21.973,-22.461,-32.715,-44.922,-183.105
1690986061.079,-30.273,-26.367,-35.156,-33.203,-238.770
1690986061.083,-30.273,-38.574,-35.156,-22.461,181.152
1690986061.086,-16.113,-39.062,-35.156,-8.301,541.992
1690986061.090,-29.785,-26.855,-33.691,-30.273,13.672
1690986061.094,-37.109,-24.414,-34.180,-45.898,-370.605
1690986061.098,-37.109,-28.320,-30.762,-37.598,-244.629
1690986061.102,-37.109,-28.320,-26.367,-31.250,-80.566
1690986061.104,-23.926,-29.785,-30.273,-20.508,53.223
1690986061.108,-14.648,-26.855,-27.832,-12.207,18.066
1690986061.112,-16.113,-25.391,-22.949,-20.508,-115.723
1690986061.116,-33.691,-26.855,-24.414,-40.039,-174.805
1690986061.120,-32.715,-29.297,-26.855,-41.016,-249.023
1690986061.124,-11.719,-27.832,-25.391,-23.926,29.785
1690986061.128,-25.391,-25.879,-21.484,-22.949,351.562
1690986061.131,-55.664,-31.738,-25.879,-45.898,119.141
1690986061.135,-47.363,-31.250,-34.668,-60.059,-234.375
1690986061.139,-26.855,-24.902,-33.691,-47.363,-181.641
1690986061.143,-19.043,-28.809,-29.297,-17.578,153.809
1690986061.147,-30.273,-27.344,-30.762,-18.555,64.941
1690986061.149,-42.480,-26.855,-31.738,-50.781,-230.469
1690986061.153,-37.109,-26.855,-28.320,-51.270,-241.211
1690986061.157,-39.062,-26.855,-31.250,-38.086,-193.359
1690986061.161,-15.137,-27.344,-32.227,-30.273,-51.758
1690986061.165,-16.602,-25.391,-31.250,-43.457,41.992
1690986061.169,-40.039,-24.414,-24.902,-54.199,-7.812
1690986061.173,-35.645,-23.438,-26.367,-65.430,-63.477
1690986061.176,-45.898,-28.320,-33.203,-64.941,-166.504
1690986061.180,-21.484,-25.879,-28.320,-31.738,-103.027
1690986061.184,-8.301,-19.043,-18.066,-1.465,294.922
1690986061.188,-36.621,-24.902,-18.555,-15.625,262.695
1690986061.192,-46.387,-27.832,-24.414,-14.648,-160.645
1690986061.209,-45.410,-28.320,-22.461,-17.578,-166.016
1690986061.213,-25.879,-30.762,-22.949,-12.695,237.793
1690986061.217,-11.230,-29.785,-25.879,3.418,386.719
1690986061.221,-35.156,-30.762,-28.809,-35.156,-93.262
1690986061.225,-48.828,-33.203,-28.320,-58.105,-246.582
1690986061.229,-38.086,-31.738,-26.855,-46.387,-95.215
1690986061.233,-28.320,-33.691,-21.484,-30.762,63.477
1690986061.236,-20.996,-41.016,-18.555,-19.531,27.344
1690986061.240,-41.992,-37.109,-23.438,-22.949,-54.199
1690986061.244,-36.621,-31.738,-24.902,-26.367,2.441
1690986061.248,-23.438,-30.273,-25.879,-35.645,-242.188
1690986061.252,-27.344,-30.273,-25.879,-28.809,-302.734
1690986061.254,-13.672,-27.344,-22.949,-15.625,106.445
1690986061.258,-29.785,-27.832,-21.973,-29.785,125.977
1690986061.262,-43.945,-28.809,-22.461,-40.039,-231.934
1690986061.266,-38.574,-28.809,-21.973,-30.273,-326.660
1690986061.270,-28.809,-30.762,-24.902,-23.438,-99.121
1690986061.274,-21.484,-27.344,-35.156,-24.902,215.332
1690986061.278,-24.414,-26.855,-32.715,-25.879,128.906
1690986061.281,-29.785,-30.762,-27.832,-37.598,-210.449
1690986061.285,-38.574,-28.320,-29.297,-41.992,-106.445
1690986061.289,-33.203,-24.902,-30.273,-36.621,127.930
1690986061.293,-22.949,-27.344,-31.738,-37.598,12.207
1690986061.297,-36.133,-37.598,-26.855,-34.180,-9.766
1690986061.314,-41.992,-41.016,-26.367,-38.574,-37.598
1690986061.318,-38.574,-33.691,-30.762,-40.527,-169.434
1690986061.322,-44.922,-26.855,-34.180,-30.762,-199.707
1690986061.326,-23.926,-27.344,-33.203,-19.043,22.461
1690986061.330,-20.020,-29.785,-26.367,-30.273,248.047
1690986061.334,-44.922,-32.227,-33.203,-49.316,46.875
1690986061.338,-36.133,-31.250,-31.250,-42.969,-247.559
1690986061.341,-28.320,-33.691,-22.461,-26.367,-129.395
1690986061.345,-29.785,-39.062,-15.625,-2.441,265.137
1690986061.349,-22.461,-25.879,-9.766,-4.883,188.965
1690986061.353,-26.367,-18.555,-14.160,-23.438,-212.891
1690986061.357,-34.668,-19.043,-16.602,-31.738,-267.090
1690986061.345,-25.391,-15.137,-16.113,-29.785,-187.012
1690986061.349,-20.996,-16.113,-21.484,-28.809,-80.566
1690986061.353,-22.949,-20.020,-24.414,-32.715,41.992
1690986061.357,-37.109,-16.602,-25.879,-44.922,-38.086
1690986061.361,-41.016,-20.996,-26.855,-42.480,-159.180
1690986061.365,-26.367,-28.809,-28.320,-41.504,-155.762
1690986061.369,-34.668,-31.250,-28.320,-39.062,69.824
1690986061.372,-37.109,-28.809,-23.926,-31.250,312.500
1690986061.376,-42.480,-22.949,-20.020,-39.551,54.199
1690986061.380,-44.434,-22.461,-22.461,-40.527,-205.566
1690986061.384,-43.457,-25.879,-26.367,-43.945,-262.207
1690986061.388,-34.668,-27.344,-24.902,-34.668,71.777
1690986061.393,-32.715,-29.785,-26.367,-15.137,575.195
1690986061.397,-39.551,-30.762,-27.832,-33.691,144.531
1690986061.401,-35.645,-29.785,-27.344,-43.945,-286.621
1690986061.405,-36.621,-30.762,-27.344,-33.203,-209.961
1690986061.409,-40.527,-26.855,-28.809,-18.555,-105.957
1690986061.413,-29.297,-21.484,-31.250,-11.719,148.926
1690986061.417,-30.273,-24.902,-33.691,-37.109,149.902
1690986061.420,-39.551,-33.203,-36.133,-36.621,123.047
1690986061.424,-32.227,-28.809,-35.156,-38.086,-15.625
1690986061.428,-18.555,-18.555,-30.273,-26.367,-276.367
1690986061.432,-18.555,-16.113,-31.250,-10.254,43.457
1690986061.436,-26.367,-18.066,-31.250,-38.574,170.410
1690986061.435,-34.668,-22.461,-30.762,-50.781,-233.887
1690986061.439,-32.227,-20.508,-29.785,-33.691,-352.539
1690986061.443,-28.320,-20.020,-22.461,-23.438,-163.086
1690986061.447,-24.902,-21.484,-26.367,-18.066,18.066
1690986061.451,-20.020,-20.996,-31.738,-33.203,59.570
1690986061.455,-46.387,-22.949,-26.855,-41.016,-111.816
1690986061.459,-60.547,-27.344,-31.250,-31.738,-35.156
1690986061.462,-32.715,-25.391,-35.156,-26.367,406.250
1690986061.466,-9.277,-25.879,-28.809,-10.254,318.848
1690986061.470,-6.836,-23.438,-26.855,-20.508,-11.719
1690986061.474,-19.043,-19.043,-31.250,-41.504,-144.043
1690986061.478,-28.809,-21.484,-29.785,-35.645,-309.570
1690986061.480,-32.227,-17.090,-23.438,-26.855,-233.887
1690986061.484,-27.832,-15.137,-19.043,-14.160,-21.973
1690986061.488,-15.137,-16.113,-23.926,-15.137,223.145
1690986061.492,-29.785,-18.066,-27.832,-36.621,360.352
1690986061.496,-32.715,-21.484,-28.320,-28.809,-73.242
1690986061.500,-23.438,-27.832,-30.273,-19.043,-258.789
1690986061.504,-15.137,-31.250,-23.438,-20.996,286.133
1690986061.507,-10.254,-20.020,-24.414,-8.789,395.508
1690986061.511,-8.301,-21.484,-28.809,-13.672,-203.613
1690986061.515,-18.555,-30.762,-16.113,-14.160,-417.480
1690986061.519,-41.504,-34.668,-16.113,-19.531,-336.426
1690986061.523,-39.062,-41.992,-20.020,-33.203,-170.410
1690986061.539,-38.574,-44.922,-15.137,-23.926,-64.941
1690986061.543,-54.688,-44.922,-12.695,-25.879,6.836
1690986061.547,-63.477,-49.805,-13.672,-34.180,-11.230
1690986061.551,-63.477,-54.688,-12.695,-43.457,-254.883
1690986061.555,-61.523,-50.781,-8.789,-53.711,-128.418
1690986061.559,-45.898,-43.945,-3.418,-30.762,279.785
1690986061.563,-57.617,-50.293,-0.977,-34.668,212.402
1690986061.566,-79.102,-63.477,-0.977,-37.598,-223.145
1690986061.570,-73.242,-62.012,-1.465,-32.715,-238.281
1690986061.574,-52.734,-52.246,-13.184,-34.668,-127.441
1690986061.578,-45.898,-53.223,-20.020,-24.414,-134.277
1690986061.582,-39.551,-57.129,-16.602,-15.625,175.293
1690986061.585,-36.621,-54.688,-20.996,-5.859,466.309
1690986061.589,-37.598,-49.316,-24.414,-9.766,223.145
1690986061.593,-48.828,-47.852,-19.531,-16.602,-103.516
1690986061.597,-61.035,-46.875,-20.996,-26.855,-249.023
1690986061.601,-59.082,-44.434,-28.809,-28.320,-361.816
1690986061.605,-43.945,-44.434,-27.344,-21.973,-201.172
1690986061.609,-22.949,-39.062,-24.902,-23.926,273.926
1690986061.612,-28.320,-32.227,-26.367,-26.855,205.566
1690986061.616,-41.992,-37.109,-27.344,-33.203,-317.871
1690986061.620,-40.039,-44.922,-29.297,-39.551,-339.355
1690986061.624,-25.879,-42.480,-27.344,-24.414,-89.355
1690986061.628,-22.949,-36.133,-22.949,-5.859,30.273
1690986061.629,-30.273,-34.180,-24.414,-13.184,-104.980
1690986061.633,-44.922,-39.062,-23.438,-25.879,-264.160
1690986061.637,-41.504,-36.621,-22.949,-15.137,-218.262
1690986061.641,-30.273,-35.156,-25.879,-6.836,-29.785
1690986061.645,-17.090,-28.809,-24.414,-20.508,71.777
1690986061.649,-25.391,-24.902,-23.926,-30.762,71.289
1690986061.653,-39.551,-28.809,-28.809,-35.156,239.258
1690986061.656,-31.250,-25.879,-21.484,-33.691,29.297
1690986061.660,-18.066,-22.949,-20.508,-25.879,-229.004
1690986061.664,-10.254,-21.484,-20.996,-16.113,92.773
1690986061.668,-16.113,-25.391,-19.531,-19.043,190.918
1690986061.672,-31.250,-30.273,-24.414,-40.039,-196.289
1690986061.689,-24.902,-26.367,-24.902,-50.293,-376.953
1690986061.693,-27.344,-27.832,-23.926,-33.203,-187.988
1690986061.697,-39.062,-30.273,-26.855,-11.230,47.852
1690986061.701,-24.414,-28.320,-28.809,-31.738,-36.133
1690986061.705,-22.949,-27.832,-28.809,-48.828,-212.402
1690986061.709,-37.109,-35.645,-26.367,-31.250,-197.266
1690986061.713,-34.668,-31.738,-24.414,-37.109,-176.758
1690986061.716,-13.672,-25.879,-25.391,-26.855,-8.301
1690986061.720,-14.160,-28.320,-35.156,-23.926,56.152
1690986061.724,-43.945,-32.227,-40.039,-51.270,74.707
1690986061.728,-41.504,-32.227,-30.273,-36.133,22.461
1690986061.732,-28.320,-28.809,-31.250,-26.367,-209.961
1690986061.734,-28.809,-22.949,-36.133,-31.250,-66.406
1690986061.738,-33.203,-25.879,-33.203,-23.438,68.848
1690986061.742,-35.156,-31.738,-34.668,-38.086,-124.023
1690986061.746,-45.898,-30.273,-30.273,-48.828,-316.406
1690986061.750,-38.574,-28.809,-26.855,-42.480,-254.395
1690986061.754,-27.832,-28.320,-25.391,-28.320,80.078
1690986061.758,-31.738,-24.414,-25.879,-18.066,239.258
1690986061.761,-19.531,-24.414,-30.762,-36.133,-59.082
1690986061.765,-15.137,-25.391,-26.367,-35.156,-144.043
1690986061.769,-25.391,-26.855,-22.949,-14.160,293.945
1690986061.773,-33.691,-32.227,-29.785,-23.926,446.289
1690986061.777,-31.738,-31.738,-36.133,-31.738,111.328
1690986061.779,-31.250,-24.902,-31.250,-27.344,-135.254
1690986061.783,-29.785,-19.531,-26.367,-28.809,-248.047
1690986061.787,-34.180,-22.461,-29.297,-28.809,-326.660
1690986061.791,-14.648,-22.461,-29.297,-8.301,-164.062
1690986061.795,-7.812,-19.043,-23.438,-3.418,99.121
1690986061.799,-37.598,-19.531,-16.602,-33.691,2.441
1690986061.803,-44.922,-26.367,-18.555,-50.293,-167.480
1690986061.806,-41.992,-30.762,-25.391,-35.156,-211.426
1690986061.810,-37.598,-25.879,-22.949,-26.367,7.812
1690986061.814,-38.086,-23.438,-19.531,-22.949,148.926
1690986061.818,-43.945,-25.391,-21.973,-41.016,-59.570
1690986061.822,-30.762,-23.926,-27.344,-62.500,-218.262
1690986061.839,-23.926,-20.996,-26.855,-50.293,29.785
1690986061.843,-22.949,-23.438,-30.762,-28.320,185.059
1690986061.847,-28.320,-31.738,-37.598,-27.832,80.078
1690986061.851,-37.598,-32.227,-33.203,-38.086,-20.508
1690986061.855,-35.156,-23.926,-27.344,-41.504,-162.598
1690986061.859,-32.227,-20.996,-27.832,-29.785,-226.562
1690986061.863,-40.527,-26.367,-27.344,-31.250,-106.445
1690986061.866,-32.227,-27.344,-25.391,-36.133,204.102
1690986061.870,-29.785,-28.809,-26.367,-31.250,336.426
1690986061.874,-45.410,-37.109,-31.738,-47.852,-52.734
1690986061.878,-44.434,-36.133,-29.785,-53.223,-271.973
1690986061.882,-33.691,-26.855,-26.855,-39.551,-122.559
1690986061.870,-26.367,-27.344,-25.879,-28.809,169.434
1690986061.874,-24.414,-26.367,-26.367,-44.434,145.020
1690986061.878,-40.039,-20.996,-29.785,-48.828,-113.281
1690986061.882,-62.012,-27.344,-28.809,-37.598,-213.379
1690986061.886,-51.270,-33.203,-28.809,-38.086,-117.676
1690986061.890,-28.320,-30.762,-29.297,-19.043,84.961
1690986061.894,-29.785,-27.832,-28.809,-17.090,190.918
1690986061.897,-31.738,-25.391,-29.785,-58.594,41.504
1690986061.901,-36.133,-26.855,-25.879,-52.246,-213.867
1690986061.905,-44.922,-31.250,-23.926,-23.438,-300.781
1690986061.909,-28.320,-30.273,-27.344,-26.855,-95.703
1690986061.913,-28.320,-26.855,-30.273,-31.738,316.895
1690986061.914,-40.039,-31.250,-30.273,-43.945,94.727
1690986061.918,-41.504,-31.738,-24.902,-51.270,-374.023
1690986061.922,-41.992,-24.414,-25.391,-35.156,-257.324
1690986061.926,-41.992,-25.879,-29.297,-15.625,93.750
1690986061.930,-42.480,-29.785,-30.273,-20.020,218.750
1690986061.934,-41.992,-36.621,-32.227,-34.180,52.246
1690986061.938,-49.316,-37.109,-34.180,-50.781,-123.047
1690986061.941,-39.551,-26.855,-34.668,-59.082,66.895
1690986061.945,-31.738,-23.926,-29.297,-45.898,111.816
1690986061.949,-34.668,-22.949,-30.273,-46.875,-11.230
1690986061.953,-51.270,-25.879,-35.645,-68.848,82.031
1690986061.957,-51.758,-32.715,-36.621,-77.637,-8.301
1690986061.959,-49.316,-34.180,-35.645,-60.547,-313.965
1690986061.963,-57.129,-31.250,-26.367,-43.457,-205.078
1690986061.967,-35.645,-33.691,-27.344,-43.457,87.402
1690986061.971,-35.645,-35.645,-34.180,-52.734,14.160
1690986061.975,-48.828,-31.738,-31.250,-64.941,-265.137
1690986061.979,-40.527,-21.973,-25.391,-51.758,-235.352
1690986061.983,-28.320,-20.508,-20.996,-24.902,229.492
