timestamps,TP9,AF7,AF8,TP10,Right AUX
1687265849.089,-29.297,-29.785,-22.949,-14.160,-170.410
1687265849.093,-7.812,-19.531,-20.508,0.000,-179.199
1687265849.097,3.418,-16.113,-15.625,-0.488,-171.387
1687265849.101,-29.785,-21.973,-13.672,-38.086,-128.906
1687265849.105,-40.527,-24.902,-20.020,-38.574,-66.895
1687265849.109,-34.180,-22.949,-34.180,-38.086,-17.578
1687265849.113,-39.062,-20.996,-36.621,-52.246,-84.961
1687265849.116,-53.223,-26.855,-29.785,-48.340,202.148
1687265849.120,-57.617,-32.227,-30.762,-41.016,466.797
1687265849.124,-43.457,-30.762,-35.645,-42.969,5.371
1687265849.128,-33.691,-27.344,-32.715,-40.527,-210.938
1687265849.132,-26.367,-24.414,-27.344,-31.250,-58.594
1687265849.134,-17.578,-24.414,-29.297,-4.883,-129.395
1687265849.138,-26.855,-29.785,-27.832,-23.438,-262.207
1687265849.142,-19.531,-29.297,-26.367,-51.758,-154.297
1687265849.146,-15.137,-27.832,-27.344,-32.227,-58.594
1687265849.150,-40.039,-25.879,-21.973,-31.250,-94.727
1687265849.154,-35.156,-22.949,-19.043,-38.574,-106.934
1687265849.158,-9.766,-19.531,-15.625,-17.578,64.453
1687265849.161,-9.766,-22.461,-15.625,-13.184,232.910
1687265849.165,-2.930,-21.973,-22.949,-9.277,-7.812
1687265849.169,8.789,-21.973,-22.461,-16.602,-163.574
1687265849.173,2.930,-31.250,-15.625,-17.578,-19.531
1687265849.177,-16.602,-36.133,-15.625,-5.859,-47.852
1687265849.179,-20.996,-32.715,-20.508,8.301,-172.852
1687265849.183,-24.414,-29.785,-20.508,-14.648,-113.281
1687265849.187,-14.648,-25.879,-18.066,-17.578,-55.176
1687265849.191,-1.953,-25.391,-30.273,-15.625,-79.590
1687265849.195,-17.578,-23.926,-37.598,-28.809,-126.465
1687265849.199,-15.137,-16.113,-33.203,-22.949,-166.016
1687265849.203,3.418,-14.648,-32.715,-17.578,192.871
1687265849.206,9.277,-12.695,-31.738,0.977,360.840
1687265849.210,28.320,-12.207,-28.809,-1.953,-96.191
1687265849.214,13.672,-18.066,-25.391,-6.348,-206.055
1687265849.218,-44.434,-16.602,-37.109,-3.418,-25.879
1687265849.222,-35.645,-14.648,-50.781,-5.371,-50.781
1687265849.225,-5.859,-20.996,-39.551,-16.602,-188.965
1687265849.229,-27.344,-24.414,-19.531,2.930,-63.477
1687265849.233,-48.340,-19.531,-16.113,-12.207,38.574
1687265849.237,-53.223,-20.020,-17.090,-32.715,-86.914
1687265849.241,-46.387,-27.344,-14.648,-13.184,-129.883
1687265849.245,-27.832,-28.320,-20.020,-2.930,93.262
1687265849.249,-6.348,-19.531,-24.414,0.488,195.801
1687265849.252,-20.020,-20.996,-22.461,-24.414,-58.594
1687265849.256,-47.363,-28.809,-24.902,-44.434,-180.664
1687265849.260,-39.062,-21.484,-26.855,-30.762,21.973
1687265849.264,-39.551,-18.066,-23.926,-16.113,117.676
1687265849.268,-55.664,-24.902,-33.691,-22.949,-84.961
1687265849.284,-30.273,-24.414,-44.434,-36.133,-123.047
1687265849.288,-26.855,-20.020,-40.039,-35.156,-60.059
1687265849.292,-30.273,-20.508,-28.809,-27.344,-46.875
1687265849.296,-16.113,-19.531,-23.926,-16.113,3.906
1687265849.300,-2.441,-15.137,-26.367,1.953,-20.508
1687265849.304,-9.277,-14.648,-29.785,-30.762,241.211
1687265849.308,-30.273,-16.113,-35.156,-40.039,368.164
1687265849.311,-37.109,-19.531,-36.133,-40.039,-61.523
1687265849.315,-37.109,-18.555,-34.668,-52.246,-209.473
1687265849.319,-41.504,-20.508,-39.551,-39.551,109.375
1687265849.323,-53.223,-22.949,-40.527,-42.480,139.160
1687265849.327,-39.551,-21.484,-34.180,-52.246,-237.793
1687265849.329,-16.113,-24.414,-31.250,-33.691,-176.270
1687265849.333,-38.086,-24.902,-31.738,-29.785,-122.559
1687265849.337,-39.062,-25.879,-31.250,-52.246,-183.594
1687265849.341,-28.809,-27.344,-29.297,-67.871,-207.031
1687265849.345,-43.945,-29.297,-31.250,-61.523,-79.590
1687265849.349,-31.738,-29.785,-33.203,-37.598,75.195
1687265849.353,-24.902,-33.203,-34.180,-33.691,22.949
1687265849.356,-27.832,-34.668,-32.227,-31.738,-49.316
1687265849.360,-45.898,-26.855,-33.203,-49.316,8.789
1687265849.364,-30.273,-22.949,-40.039,-46.387,317.871
1687265849.368,-4.883,-22.461,-29.785,-26.855,146.484
1687265849.372,-32.227,-22.949,-26.367,-25.879,-154.297
1687265849.374,-35.645,-24.902,-28.809,-24.902,-109.375
1687265849.378,-23.438,-29.785,-31.250,-38.086,-136.230
1687265849.382,-28.320,-31.738,-39.062,-33.691,-183.594
1687265849.386,-25.391,-28.320,-34.668,-24.414,-143.066
1687265849.390,-36.621,-28.320,-30.762,-26.855,-45.898
1687265849.394,-31.250,-28.320,-30.762,-36.621,6.836
1687265849.398,-22.461,-23.926,-26.855,-17.090,-22.461
1687265849.401,-52.246,-18.066,-22.461,-6.836,-37.598
1687265849.405,-39.062,-20.996,-21.973,-24.414,169.434
1687265849.409,-12.695,-22.949,-28.320,-27.832,430.176
1687265849.413,-20.020,-21.973,-32.715,-24.902,73.730
1687265849.417,-43.457,-20.996,-29.297,-10.254,-207.520
1687265849.419,-22.949,-18.066,-32.227,-31.738,-171.387
1687265849.423,-3.906,-20.508,-38.574,-56.641,-183.594
1687265849.427,-34.180,-22.949,-42.480,-47.363,-189.453
1687265849.431,-34.180,-20.508,-42.480,-46.875,-120.605
1687265849.435,-22.949,-16.113,-41.992,-45.898,-43.457
1687265849.439,-32.227,-15.625,-37.598,-42.480,-100.586
1687265849.443,-26.367,-20.508,-33.203,-47.363,-57.617
1687265849.446,-11.719,-18.555,-29.785,-30.762,106.445
1687265849.450,-19.043,-19.531,-38.574,-27.832,215.820
1687265849.454,-16.113,-23.438,-40.039,-15.625,-8.789
1687265849.458,-14.648,-22.461,-29.785,-7.812,-225.098
1687265849.462,-9.766,-21.973,-24.414,-21.973,-10.254
1687265849.464,-18.066,-22.461,-25.391,-20.508,50.781
1687265849.468,-27.344,-25.879,-18.555,-41.016,-116.699
1687265849.472,-13.184,-29.785,-11.719,-49.316,-130.371
1687265849.476,-29.297,-31.250,-16.113,-32.715,-120.117
1687265849.480,-45.898,-32.715,-17.578,-21.973,-112.305
1687265849.484,-30.762,-29.785,-19.531,-16.113,-83.008
1687265849.488,-14.648,-23.926,-27.832,-22.461,7.324
1687265849.491,-26.367,-18.555,-24.414,-40.527,208.496
1687265849.495,-58.594,-28.320,-20.508,-38.574,120.117
1687265849.499,-37.109,-34.668,-26.367,-33.691,-166.992
1687265849.503,-30.762,-33.691,-27.832,-27.832,-172.363
1687265849.507,-50.293,-34.668,-20.020,-18.555,-25.879
1687265849.510,-67.871,-31.738,-18.555,-24.414,-67.383
1687265849.514,-70.312,-31.250,-22.949,-56.641,-93.262
1687265849.518,-59.082,-26.855,-21.973,-62.500,4.883
1687265849.522,-50.781,-23.438,-23.926,-51.758,154.297
1687265849.526,-48.340,-25.391,-23.438,-51.270,121.094
1687265849.530,-36.133,-31.250,-18.555,-40.527,-40.039
1687265849.534,-30.762,-30.273,-19.531,-26.855,142.578
1687265849.537,-49.316,-27.832,-22.949,-39.062,272.461
1687265849.541,-51.270,-26.367,-23.926,-35.645,-17.578
1687265849.545,-22.949,-24.414,-27.344,-8.789,-187.988
1687265849.549,-36.621,-22.949,-26.367,-17.578,-112.793
1687265849.553,-46.875,-25.391,-24.902,-23.438,-115.723
1687265849.570,-22.461,-28.809,-25.879,-5.371,-152.832
1687265849.574,-18.066,-29.785,-27.344,0.000,-133.301
1687265849.578,8.789,-24.902,-32.715,-13.672,-118.652
1687265849.582,-12.207,-23.438,-34.180,-39.062,-69.336
1687265849.586,-41.504,-25.391,-29.297,-24.414,-29.785
1687265849.590,-36.621,-29.785,-26.855,-10.742,-62.012
1687265849.594,-28.320,-34.180,-24.414,-2.930,219.238
1687265849.597,-19.043,-36.621,-19.531,-14.648,562.012
1687265849.601,-43.945,-32.227,-23.438,-20.020,141.602
1687265849.605,-43.945,-30.762,-29.297,-21.973,-238.770
1687265849.609,-11.719,-35.156,-29.785,-20.508,-156.250
1687265849.613,-4.395,-35.645,-29.785,-20.996,-122.559
1687265849.599,-21.484,-32.227,-30.273,-43.457,-175.781
1687265849.603,-12.207,-29.297,-27.344,-19.043,-135.254
1687265849.607,-32.715,-28.320,-24.902,-13.672,-67.383
1687265849.611,-53.223,-29.297,-26.367,-22.461,-123.047
1687265849.615,-38.086,-28.809,-29.297,-11.719,-174.805
1687265849.619,-30.762,-29.785,-32.715,-20.996,57.129
1687265849.623,-37.109,-26.855,-29.785,-36.133,194.824
1687265849.626,-36.621,-21.973,-21.973,-17.578,65.918
1687265849.630,-41.992,-20.996,-17.090,-22.461,-77.148
1687265849.634,-37.598,-20.020,-23.926,-33.691,-55.176
1687265849.638,-17.578,-20.508,-28.320,-35.156,292.480
1687265849.642,-6.348,-19.531,-25.391,-37.109,82.031
1687265849.660,-15.625,-16.602,-24.414,-18.066,-250.977
1687265849.664,-39.551,-15.137,-30.762,-23.438,-165.527
1687265849.668,-40.527,-18.066,-47.852,-35.156,-124.023
1687265849.672,-20.508,-20.996,-36.133,-20.996,-134.766
1687265849.676,-11.719,-18.555,-13.184,-17.090,-115.234
1687265849.680,-15.625,-16.113,-17.090,-28.320,9.766
1687265849.684,-36.133,-20.996,-23.926,-60.059,6.348
1687265849.687,-57.617,-25.879,-21.973,-53.223,-102.051
1687265849.691,-36.621,-21.973,-21.484,-36.621,-111.816
1687265849.695,-33.203,-19.531,-19.531,-25.391,140.625
1687265849.699,-46.387,-20.996,-15.137,-21.973,378.906
1687265849.703,-34.668,-21.973,-18.555,-26.367,7.812
1687265849.704,-33.203,-22.949,-22.461,-20.508,-211.426
1687265849.708,-20.996,-23.438,-21.973,-43.945,-109.863
1687265849.712,-25.391,-23.438,-21.973,-42.480,-191.406
1687265849.716,-33.691,-22.461,-20.508,-32.715,-256.348
1687265849.720,-36.621,-24.414,-30.762,-41.992,-168.457
1687265849.724,-37.598,-28.320,-34.668,-34.668,-11.230
1687265849.728,-33.691,-28.809,-34.180,-26.367,30.762
1687265849.731,-34.180,-29.297,-31.738,-27.832,-106.934
1687265849.735,-24.902,-29.297,-25.879,-33.691,-61.523
1687265849.739,-20.996,-28.809,-23.926,-36.621,58.105
1687265849.743,-11.230,-24.414,-26.367,-33.203,-105.957
1687265849.747,-1.953,-20.508,-27.832,-38.086,-142.090
1687265849.749,-37.109,-21.484,-28.320,-39.062,54.688
1687265849.753,-41.016,-25.391,-24.902,-27.832,250.488
1687265849.757,11.230,-27.344,-22.461,-25.391,-7.812
1687265849.761,-1.465,-20.508,-23.926,-20.508,-181.152
1687265849.765,-35.156,-20.996,-26.367,-20.996,-97.656
1687265849.769,-21.484,-24.414,-34.668,-14.648,-58.105
1687265849.773,-9.277,-24.902,-32.715,-13.184,-41.504
1687265849.776,-16.113,-26.855,-26.367,-25.391,-44.434
1687265849.780,-24.414,-26.855,-24.414,-3.906,170.898
1687265849.784,-25.391,-28.320,-24.414,-5.371,315.430
1687265849.788,-23.926,-21.973,-32.227,-12.207,-32.227
1687265849.792,-2.930,-25.879,-36.133,-4.883,-174.805
1687265849.795,-17.090,-34.668,-25.391,-23.926,-152.344
1687265849.799,-45.898,-33.691,-14.648,-37.598,-166.992
1687265849.803,-38.086,-37.109,-10.254,-24.414,-172.852
1687265849.807,-38.086,-44.922,-12.207,-23.926,-76.172
1687265849.811,-37.598,-49.316,-14.160,-25.391,15.137
1687265849.815,-27.832,-49.316,-14.648,-30.273,-50.781
1687265849.819,-29.297,-43.945,-13.672,-20.996,-89.355
1687265849.822,-44.922,-38.574,-5.859,0.488,-14.648
1687265849.826,-46.387,-43.457,-3.418,-4.883,172.852
1687265849.830,-31.250,-50.293,-4.883,-1.953,-3.906
1687265849.834,-48.340,-48.828,-6.836,-0.488,-155.273
1687265849.838,-56.152,-43.457,-16.602,-18.555,-40.039
1687265849.839,-20.508,-38.086,-14.160,-24.414,-76.172
1687265849.843,-4.395,-32.715,-14.648,-11.719,-152.832
1687265849.847,-24.902,-31.738,-19.531,-30.762,-120.605
1687265849.851,-28.809,-35.645,-17.578,-47.363,-76.172
1687265849.855,-0.977,-38.086,-13.184,-14.160,-18.066
1687265849.859,-4.883,-36.133,-9.277,-5.859,-19.043
1687265849.863,-21.973,-31.250,-6.836,-14.648,24.902
1687265849.866,-9.277,-28.320,-9.766,3.418,293.945
1687265849.870,-8.301,-29.297,-12.695,-3.418,520.508
1687265849.874,-19.531,-30.762,-7.324,-17.578,136.230
1687265849.878,-14.648,-28.809,-0.977,0.000,-223.633
1687265849.882,-13.672,-29.297,-6.348,8.301,-137.695
1687265849.884,-32.715,-30.273,-15.137,-16.602,-191.895
1687265849.888,-27.832,-27.344,-20.996,-37.598,-229.004
1687265849.892,-16.113,-28.320,-16.113,-39.551,-97.168
1687265849.896,-15.625,-31.738,-13.672,-23.926,-49.316
1687265849.900,-0.977,-28.320,-14.648,-3.418,-105.469
1687265849.904,0.977,-24.414,-13.184,-1.465,-42.969
1687265849.908,-24.414,-27.832,-21.973,-19.043,42.480
1687265849.911,-29.785,-31.738,-25.879,-26.367,326.172
1687265849.915,-16.113,-26.855,-22.949,-4.883,186.523
1687265849.919,-21.484,-25.879,-23.438,-1.953,-165.527
1687265849.923,-30.273,-23.926,-24.414,-24.414,-150.879
1687265849.927,-8.789,-27.344,-22.461,-15.625,-167.969
1687265849.929,-5.859,-35.645,-21.973,-9.766,-155.273
1687265849.933,-8.789,-30.762,-24.902,-17.090,-150.879
1687265849.937,-8.789,-23.438,-20.508,2.441,-129.883
1687265849.941,-18.066,-24.414,-18.555,-1.465,-107.422
1687265849.945,-13.184,-23.926,-19.043,-18.066,-129.395
1687265849.949,-11.230,-26.855,-18.555,-2.441,-137.695
1687265849.953,-5.859,-24.902,-20.996,-9.766,178.223
1687265849.956,-3.418,-21.973,-25.391,-6.836,281.738
1687265849.960,-13.672,-24.902,-26.855,7.324,-89.844
1687265849.964,-24.902,-23.926,-19.043,5.371,-86.426
1687265849.968,-19.043,-24.414,-21.484,5.371,192.871
1687265849.972,-25.879,-24.902,-29.785,-2.441,132.812
1687265849.975,-18.066,-22.949,-25.879,-19.043,-198.730
1687265849.979,-14.160,-22.461,-30.273,-19.043,-128.906
1687265849.983,-12.207,-19.043,-31.738,-16.602,-63.965
1687265849.987,5.859,-16.602,-27.344,-18.555,-126.953
1687265849.991,0.000,-20.020,-27.344,-19.531,-197.266
1687265849.995,15.137,-21.484,-27.832,-10.254,40.039
1687265849.999,10.254,-20.996,-33.691,-16.602,296.387
1687265850.002,-28.320,-22.949,-38.086,-39.062,-30.762
1687265850.006,-50.781,-25.391,-31.250,-25.391,-201.172
1687265850.010,-33.203,-26.855,-28.320,-6.348,4.395
1687265850.014,-27.832,-23.926,-33.203,12.207,22.949
1687265850.018,-26.367,-16.602,-32.715,-2.441,-102.051
1687265850.020,-13.184,-16.113,-34.668,-20.508,-126.953
1687265850.024,-23.438,-21.973,-32.715,-25.879,-25.879
1687265850.028,-40.039,-24.902,-26.855,-31.250,34.180
1687265850.032,-42.969,-22.461,-25.879,-27.344,-108.398
1687265850.036,-46.387,-20.508,-28.809,-30.762,-109.375
1687265850.040,-34.180,-18.066,-35.645,-35.156,13.672
1687265850.044,-20.020,-11.719,-29.297,-43.457,72.754
1687265850.047,-29.297,-13.672,-19.531,-25.391,4.883
1687265850.051,-7.812,-17.090,-16.602,-3.418,-112.305
1687265850.055,-5.859,-15.137,-17.578,5.371,108.887
1687265850.059,-41.992,-17.090,-24.902,-2.441,234.863
1687265850.063,-41.016,-19.043,-25.879,-10.742,-140.137
1687265850.080,-42.969,-18.066,-25.391,-19.531,-251.953
1687265850.084,-24.414,-22.949,-27.344,-49.805,-125.488
1687265850.088,-14.160,-25.879,-23.926,-23.926,28.809
1687265850.092,-12.207,-19.531,-21.484,-11.230,-76.660
1687265850.096,-0.977,-16.113,-26.855,-16.113,-124.023
1687265850.100,-3.418,-20.996,-29.785,-4.883,138.184
1687265850.104,3.418,-24.902,-18.555,-4.883,77.148
1687265850.107,14.160,-19.043,-17.578,8.301,-129.883
1687265850.111,-14.648,-16.113,-28.320,-1.465,-43.457
1687265850.115,-38.086,-14.160,-25.879,-36.621,102.051
1687265850.119,-34.180,-17.578,-21.973,-42.480,-63.965
1687265850.123,-38.574,-21.973,-25.391,-33.203,-184.082
1687265850.124,-41.016,-20.020,-26.367,-20.508,-131.348
1687265850.128,-26.855,-19.531,-24.902,-2.441,-95.703
1687265850.132,-15.625,-19.531,-24.902,4.395,-160.156
1687265850.136,-10.254,-20.996,-28.320,-6.836,-168.945
1687265850.140,-20.508,-18.555,-28.809,-23.438,-24.902
1687265850.144,-29.785,-14.648,-24.902,-32.227,31.250
1687265850.148,-31.250,-18.555,-22.949,-38.086,16.602
1687265850.151,-18.066,-17.578,-26.367,-32.715,0.488
1687265850.155,-21.484,-14.648,-25.391,-26.855,151.367
1687265850.159,-37.109,-13.184,-23.926,-18.555,425.293
1687265850.163,-19.531,-16.113,-30.762,-24.902,138.672
1687265850.167,-0.977,-14.160,-29.297,-14.160,-173.340
1687265850.184,-2.930,-12.695,-25.391,-15.625,-110.840
1687265850.188,-1.953,-18.066,-22.949,-26.367,-173.340
1687265850.192,-18.066,-11.230,-25.391,-14.160,-250.977
1687265850.196,-28.809,-2.930,-34.668,-21.973,-195.312
1687265850.200,-30.273,-5.859,-31.738,-27.344,-125.977
1687265850.204,-39.062,-14.160,-25.879,-26.367,-74.707
1687265850.208,-18.555,-15.625,-31.738,-32.715,-20.020
1687265850.211,-5.859,-13.672,-38.086,-36.133,105.957
1687265850.215,-3.418,-13.184,-34.668,-13.672,332.520
1687265850.219,-3.418,-13.672,-28.809,-12.695,138.184
1687265850.223,-0.488,-15.625,-30.762,-24.414,-190.918
1687265850.227,-13.184,-15.137,-35.645,-14.648,-135.254
1687265850.214,-18.066,-10.254,-31.738,-13.672,-135.742
1687265850.218,-12.207,-3.906,-34.180,-26.367,-216.309
1687265850.222,-28.809,-9.277,-39.551,-39.062,-179.199
1687265850.226,-39.062,-14.648,-40.039,-22.949,-110.352
1687265850.230,-49.805,-12.695,-41.992,-39.062,-116.211
1687265850.234,-31.250,-11.230,-40.039,-33.203,-76.172
1687265850.238,-24.902,-11.230,-40.039,-9.277,98.145
1687265850.241,-20.020,-7.324,-33.203,-26.855,228.516
1687265850.245,-7.324,-3.418,-34.180,-34.180,124.512
1687265850.249,-27.344,-4.395,-40.039,-26.367,-48.828
1687265850.253,-25.391,-9.277,-35.156,-30.762,-82.031
1687265850.257,-6.836,-10.742,-30.273,-23.438,210.449
1687265850.259,-16.113,-12.207,-28.320,-5.859,437.012
1687265850.263,-31.250,-16.602,-30.762,-24.902,10.254
1687265850.267,-19.043,-17.578,-32.715,-31.250,-204.102
1687265850.271,-21.973,-18.555,-34.668,-30.762,-150.879
1687265850.275,-27.344,-18.066,-39.062,-25.879,-192.871
1687265850.279,-12.207,-18.066,-38.574,-6.348,-180.664
1687265850.283,-3.906,-20.508,-35.645,-6.836,31.738
1687265850.286,-30.762,-20.020,-34.180,-26.367,257.812
1687265850.290,-43.945,-20.020,-33.203,-39.062,-46.387
1687265850.294,-12.207,-15.137,-38.574,-35.645,-242.188
1687265850.298,-26.367,-16.113,-40.039,-27.832,-96.191
1687265850.302,-33.203,-16.602,-31.738,-21.484,-63.477
1687265850.305,-18.555,-10.254,-29.297,-0.977,-42.969
1687265850.309,-22.949,-16.113,-29.297,-3.906,-72.266
1687265850.313,-27.832,-17.578,-31.250,-12.207,-10.254
1687265850.317,-13.672,-13.184,-33.691,-7.812,11.230
1687265850.321,-0.977,-13.184,-32.715,-24.902,-136.230
1687265850.325,-11.719,-15.137,-28.809,-32.715,-102.539
1687265850.329,1.953,-12.695,-24.902,-24.414,214.844
1687265850.332,-10.742,-10.254,-24.902,-22.461,306.152
1687265850.336,-20.996,-13.672,-28.320,-20.508,-47.852
1687265850.340,-17.578,-18.066,-28.809,-22.949,-158.691
1687265850.344,-14.160,-14.648,-26.367,-16.602,43.457
1687265850.348,6.836,-11.230,-28.809,-14.160,43.945
1687265850.349,-10.742,-12.695,-30.762,-26.855,-215.332
1687265850.353,-50.293,-9.766,-31.250,-20.996,-168.457
1687265850.357,-46.387,-14.648,-37.598,-10.742,-44.434
1687265850.361,-3.418,-15.625,-36.133,-6.348,-71.289
1687265850.365,-1.465,-13.184,-30.762,-18.066,-154.785
1687265850.369,-32.227,-13.672,-31.738,-23.926,-54.199
1687265850.373,-30.273,-10.742,-30.273,-13.672,330.078
1687265850.376,-8.301,-16.113,-34.180,-20.996,210.938
1687265850.380,10.254,-14.160,-36.133,-24.414,-161.133
1687265850.384,-13.672,-7.324,-28.320,-19.531,-143.555
1687265850.388,-14.160,-10.742,-26.855,-7.812,-108.887
1687265850.392,-9.766,-9.766,-32.227,-12.207,-181.152
1687265850.398,-17.578,-12.207,-33.691,-34.668,-227.051
1687265850.402,-18.555,-14.160,-33.203,-23.926,-147.949
1687265850.406,-35.156,-12.207,-34.668,-24.414,-150.879
1687265850.410,-8.301,-12.207,-36.133,-20.996,-203.613
1687265850.414,4.395,-14.160,-33.691,-11.230,-140.137
1687265850.418,-6.836,-13.184,-28.320,-15.625,21.973
1687265850.422,-7.812,-9.277,-27.832,5.371,96.191
1687265850.425,-26.367,-10.742,-29.785,-11.719,33.691
1687265850.429,-23.926,-12.695,-32.715,-31.250,17.090
1687265850.433,-33.691,-14.648,-38.574,-10.254,59.082
1687265850.437,-31.250,-18.066,-35.645,-24.902,-26.367
1687265850.441,-7.812,-13.184,-29.785,-30.762,-148.926
1687265850.454,-12.695,-10.254,-28.809,-22.461,-149.902
1687265850.458,-14.648,-14.160,-27.832,-26.367,-26.855
1687265850.462,-12.695,-11.719,-30.273,-28.809,-49.805
1687265850.466,-11.719,-8.301,-33.691,-16.113,-155.762
1687265850.470,-24.414,-8.789,-35.645,-11.230,-110.840
1687265850.474,-32.227,-10.742,-35.645,-5.859,320.801
1687265850.478,-30.273,-14.160,-24.902,10.742,582.031
1687265850.481,-31.250,-12.207,-24.414,-11.230,160.156
1687265850.485,-33.691,-12.695,-28.809,-19.531,2.441
1687265850.489,-23.926,-15.625,-30.273,-15.137,44.922
1687265850.493,-16.602,-15.625,-33.691,-32.715,-162.109
1687265850.497,-9.277,-12.207,-33.691,-19.531,-223.145
1687265850.515,-15.137,-14.160,-31.738,-8.301,-183.594
1687265850.519,-48.340,-20.996,-28.320,-24.414,-126.953
1687265850.523,-38.086,-21.973,-27.832,-19.043,-133.301
1687265850.527,-14.648,-17.090,-32.227,-12.207,-123.535
1687265850.531,-5.859,-17.090,-30.762,-25.391,-74.707
1687265850.535,-21.484,-16.602,-30.273,-15.625,2.930
1687265850.539,-21.973,-11.719,-27.344,-7.812,51.270
1687265850.542,-19.531,-11.719,-27.832,-10.742,-26.367
1687265850.546,-24.414,-16.113,-34.668,-20.020,172.363
1687265850.550,-32.227,-13.184,-34.180,-24.414,290.039
1687265850.554,-26.855,-11.719,-27.344,-20.996,-64.453
1687265850.558,-23.926,-10.742,-27.344,-23.926,-204.590
1687265850.544,-20.020,-6.348,-32.715,-6.348,-115.723
1687265850.548,3.906,-3.418,-36.621,-5.859,-130.371
1687265850.552,12.207,-4.883,-35.156,-0.488,-231.445
1687265850.556,-12.207,-7.324,-33.203,14.648,-178.711
1687265850.560,-38.574,-10.742,-34.668,-19.531,-89.844
1687265850.564,-40.527,-14.160,-35.645,-30.273,-41.016
1687265850.568,-19.531,-11.230,-32.227,-5.371,-13.672
1687265850.571,-5.371,-9.277,-34.668,-22.461,15.137
1687265850.575,-22.949,-8.789,-34.180,-27.344,-19.043
1687265850.579,-18.066,-9.766,-36.621,-18.555,-147.949
1687265850.583,-12.695,-9.766,-44.434,-25.879,-166.992
1687265850.587,-35.645,-11.719,-41.992,-6.348,33.691
1687265850.590,-29.785,-21.973,-35.156,-2.441,293.457
1687265850.594,-19.043,-16.602,-32.715,-16.113,83.008
1687265850.598,-24.414,-11.230,-35.156,-24.902,-170.898
1687265850.602,-9.766,-14.648,-35.645,-32.715,-32.227
1687265850.606,-16.113,-10.254,-31.250,-18.066,43.457
1687265850.610,-17.090,-8.789,-22.949,8.301,-15.625
1687265850.614,-0.977,-13.184,-27.832,-3.418,-17.578
1687265850.617,-6.348,-14.648,-32.715,-15.137,199.219
1687265850.621,-25.879,-14.648,-31.738,-13.184,384.277
1687265850.625,-39.551,-19.531,-32.227,-16.113,-22.949
1687265850.629,-32.227,-20.508,-31.738,-32.227,-229.980
1687265850.633,-9.277,-20.020,-32.227,-44.922,-161.133
1687265850.634,-17.578,-19.531,-32.715,-38.086,-187.500
1687265850.638,-23.438,-14.160,-33.691,-32.227,-204.590
1687265850.642,-14.160,-14.160,-34.180,-16.602,-133.301
1687265850.646,-20.996,-18.066,-34.668,-31.738,-16.113
1687265850.650,-26.367,-18.066,-34.180,-53.711,-79.102
1687265850.654,-41.992,-19.043,-33.203,-36.621,-104.980
1687265850.658,-46.875,-18.066,-31.250,-32.227,40.039
1687265850.661,-29.785,-13.184,-24.902,-23.926,304.688
1687265850.665,1.465,-11.719,-24.902,-13.672,166.016
1687265850.669,4.395,-13.184,-28.320,-14.648,-174.316
1687265850.673,-28.320,-13.672,-26.367,-15.137,-86.426
1687265850.677,-34.180,-13.184,-25.879,-22.461,-47.852
1687265850.679,-37.598,-17.090,-28.809,-17.578,-141.602
1687265850.683,-42.480,-21.973,-31.738,-11.719,-164.062
1687265850.687,-21.484,-25.879,-35.156,-22.949,-49.805
1687265850.691,-19.531,-26.367,-31.738,-24.414,-58.105
1687265850.695,-18.555,-23.926,-29.297,-17.578,-167.969
1687265850.699,-6.836,-24.414,-29.785,-8.789,-105.957
1687265850.703,-23.438,-22.949,-28.320,-1.465,237.793
1687265850.706,-25.391,-15.625,-32.227,-14.160,348.145
1687265850.710,-5.859,-18.066,-27.832,-28.809,16.113
1687265850.714,0.000,-20.996,-20.020,-6.836,-185.547
1687265850.718,-14.648,-18.066,-23.438,0.488,79.590
1687265850.722,-18.555,-19.531,-26.367,-17.090,187.012
1687265850.724,-17.578,-20.996,-23.926,-16.113,-164.551
1687265850.728,-23.926,-21.973,-22.461,-18.066,-145.996
1687265850.732,-24.414,-25.391,-27.344,-20.508,-106.934
1687265850.736,-24.414,-22.949,-28.320,-20.020,-145.996
1687265850.740,-20.508,-20.508,-23.926,-22.949,-171.875
1687265850.744,-32.715,-20.996,-24.414,-14.160,-28.320
1687265850.748,-43.945,-16.602,-25.391,-22.461,198.730
1687265850.751,-21.973,-17.578,-23.438,-16.602,-0.488
1687265850.755,-11.230,-18.555,-24.902,-8.301,-163.574
1687265850.759,-30.273,-18.555,-27.344,-11.230,16.113
1687265850.763,-21.973,-15.625,-25.879,-3.418,178.711
1687265850.767,-1.953,-11.719,-25.879,-20.508,-79.590
1687265850.784,13.672,-15.137,-26.367,-42.480,-216.797
1687265850.788,0.000,-18.555,-33.691,-34.668,-98.633
1687265850.792,-5.371,-17.090,-37.598,-19.531,-85.938
1687265850.796,-17.090,-14.648,-34.180,-23.438,-127.930
1687265850.800,-24.414,-18.066,-35.156,-28.320,-95.703
1687265850.804,-18.555,-18.066,-33.691,-20.508,14.160
1687265850.808,-26.367,-14.160,-28.809,-13.672,47.363
1687265850.811,-28.809,-15.137,-30.762,-16.113,-5.859
1687265850.815,-24.902,-19.531,-29.785,4.883,-113.770
1687265850.819,-2.441,-20.508,-31.738,0.000,122.559
1687265850.823,-17.090,-12.695,-35.645,-17.578,338.867
1687265850.827,-41.016,-10.742,-31.250,-14.160,-68.359
1687265850.829,-28.320,-15.625,-32.227,-10.254,-218.750
1687265850.833,-53.223,-13.184,-31.738,-15.137,-15.137
1687265850.837,-54.199,-12.695,-26.367,-28.320,-54.688
1687265850.841,-33.691,-14.160,-23.438,-20.020,-208.496
1687265850.845,-30.762,-18.066,-26.855,-12.207,-71.289
1687265850.849,-37.109,-20.508,-33.691,-18.555,43.457
1687265850.853,-20.508,-18.555,-35.645,-15.625,-91.797
1687265850.856,-10.254,-18.066,-26.855,-12.695,-166.504
1687265850.860,-22.461,-22.461,-25.391,-11.719,-57.617
1687265850.864,-20.020,-20.020,-28.809,-23.438,180.176
1687265850.868,-21.973,-15.137,-30.273,-33.691,17.090
1687265850.872,-23.926,-19.531,-32.227,-23.438,-137.207
1687265850.874,-18.066,-22.461,-37.109,-32.715,-58.594
1687265850.878,-4.883,-21.484,-35.156,-29.297,7.812
1687265850.882,-9.766,-18.066,-24.902,-28.809,-47.363
1687265850.886,-19.531,-10.742,-23.926,-37.598,-129.883
1687265850.890,-13.184,-10.254,-30.273,-20.020,-28.320
1687265850.894,-27.344,-18.066,-30.273,-13.184,22.949
1687265850.898,-18.555,-15.625,-27.344,-23.438,-19.531
1687265850.901,4.883,-14.160,-34.180,-38.574,-76.660
1687265850.905,-18.066,-22.461,-38.574,-30.762,211.914
1687265850.909,-41.016,-20.020,-35.156,-21.484,395.996
1687265850.913,-23.926,-15.137,-28.320,-19.531,-37.598
1687265850.917,-18.066,-17.578,-22.949,-12.207,-192.871
1687265850.919,-27.832,-19.043,-26.367,-21.484,-141.113
1687265850.923,-27.832,-16.113,-26.367,-23.438,-126.953
1687265850.927,-11.230,-15.625,-32.227,-20.508,-202.637
1687265850.931,-10.254,-20.508,-31.738,-24.414,-100.098
1687265850.935,-25.879,-24.902,-21.973,-30.762,60.059
1687265850.939,-30.762,-22.949,-22.461,-21.973,49.805
1687265850.943,-29.785,-17.090,-26.367,-9.277,47.852
1687265850.946,-16.602,-14.160,-24.902,-29.785,-13.184
1687265850.950,-38.574,-16.602,-29.785,-41.016,180.664
1687265850.954,-49.316,-20.996,-28.809,-10.254,53.223
1687265850.958,-42.969,-22.949,-22.461,-32.227,-193.848
1687265850.962,-53.711,-11.230,-29.297,-65.430,-115.234
1687265850.964,-44.922,-7.812,-21.484,-52.246,-135.742
1687265850.968,-53.223,-12.207,-20.508,-61.523,-188.965
1687265850.972,-57.617,-7.324,-25.391,-70.801,-175.293
1687265850.976,-74.707,-5.371,-23.438,-105.957,-152.832
1687265850.980,-95.215,-5.371,-29.785,-119.629,-153.320
1687265850.984,-92.773,-3.906,-32.227,-118.164,-138.184
1687265850.988,-105.469,-5.371,-33.691,-135.254,-115.723
1687265850.991,-124.023,-0.977,-34.180,-137.207,177.734
1687265850.995,-142.578,10.254,-33.691,-146.484,502.441
1687265850.999,-102.051,1.465,-28.809,-146.484,137.695
1687265851.003,-113.770,-1.465,-22.949,-149.902,-172.852
1687265851.007,-136.230,6.348,-21.484,-143.555,-121.094
1687265851.009,-103.027,1.953,-12.695,-132.324,-137.207
1687265851.013,-121.094,-6.836,-13.672,-137.207,-197.754
1687265851.017,-148.438,-10.254,-31.250,-141.602,-174.805
1687265851.021,-118.652,-3.418,-30.762,-143.555,-87.402
1687265851.025,-104.492,0.977,-19.531,-134.277,-130.371
1687265851.029,-109.863,5.371,-18.066,-148.438,-148.926
1687265851.033,-105.469,4.883,-26.855,-147.949,10.254
1687265851.036,-116.699,-2.930,-34.668,-141.113,175.293
1687265851.040,-100.098,-8.301,-34.668,-142.090,54.199
1687265851.044,-99.121,-7.812,-29.297,-135.742,-128.418
1687265851.048,-88.379,-6.348,-30.273,-130.859,-41.504
1687265851.052,-83.008,-12.207,-41.504,-109.863,50.293
1687265851.054,-82.031,-15.137,-42.480,-83.496,-146.973
1687265851.058,-74.219,-8.301,-36.621,-89.355,-186.523
1687265851.062,-59.570,-3.906,-44.434,-82.520,-88.867
1687265851.066,-44.434,-9.277,-47.363,-72.266,-65.918
1687265851.070,-47.852,-12.207,-51.270,-63.477,-44.922
1687265851.074,-27.344,-9.766,-45.410,-29.785,-39.551
1687265851.078,-23.926,-16.602,-30.273,-2.930,231.445
1687265851.081,-22.461,-22.949,-31.738,2.441,402.832
1687265851.085,-4.883,-19.043,-41.016,-9.766,20.508
1687265851.089,-9.277,-19.043,-44.922,-19.531,-182.617
1687265851.093,-6.348,-22.949,-42.969,-15.137,-55.664
1687265851.097,20.020,-26.855,-40.527,5.859,20.508
1687265851.099,30.762,-32.227,-38.574,39.551,-117.188
1687265851.103,34.180,-30.762,-33.203,36.133,-133.301
1687265851.107,48.340,-31.250,-38.086,32.715,22.461
1687265851.111,15.625,-40.527,-43.457,49.316,-48.340
1687265851.115,-14.648,-41.504,-36.133,43.457,-149.414
1687265851.119,21.973,-32.227,-34.668,48.340,41.016
1687265851.123,51.758,-24.902,-37.598,42.480,187.500
1687265851.126,42.969,-28.320,-30.762,36.133,-70.312
1687265851.130,19.043,-33.203,-27.344,43.457,-229.004
1687265851.134,5.371,-35.645,-30.273,32.715,-54.199
1687265851.138,19.043,-36.621,-30.273,23.926,43.457
1687265851.142,35.645,-34.668,-31.250,26.367,-144.531
1687265851.145,43.945,-31.738,-31.738,15.625,-181.641
1687265851.149,21.973,-31.250,-28.809,12.695,-68.848
1687265851.153,4.883,-27.832,-23.926,15.625,-37.109
1687265851.157,8.789,-24.902,-25.879,15.625,-82.520
1687265851.161,29.297,-28.809,-24.902,19.043,-79.102
1687265851.165,32.227,-31.738,-20.996,26.367,130.371
1687265851.169,-3.418,-27.344,-23.926,20.996,167.480
1687265851.172,12.695,-27.832,-24.414,23.438,3.906
1687265851.176,23.438,-32.227,-21.484,26.855,-79.590
1687265851.180,0.000,-32.227,-20.996,20.020,117.188
1687265851.184,0.488,-32.715,-18.066,18.555,228.516
1687265851.188,2.930,-35.156,-17.578,-3.906,-176.270
1687265851.204,-9.277,-32.715,-22.461,-9.277,-217.773
1687265851.208,-0.488,-24.414,-21.484,-12.695,-110.840
1687265851.212,1.953,-22.461,-19.043,-5.859,-191.406
1687265851.216,2.930,-25.391,-20.020,6.836,-192.871
1687265851.220,-7.812,-28.320,-14.648,0.000,-1.465
1687265851.224,3.418,-27.832,-12.695,2.441,169.922
1687265851.228,20.996,-24.902,-13.672,7.324,85.449
1687265851.231,-4.883,-24.414,-10.254,-6.836,-94.238
1687265851.235,-3.906,-22.949,-19.043,2.441,-29.785
1687265851.239,-0.977,-24.414,-28.809,16.113,134.277
1687265851.243,-28.320,-26.367,-24.414,-3.906,-68.848
1687265851.247,-26.367,-18.555,-20.508,-9.277,-206.055
1687265851.249,-28.809,-15.137,-29.297,-27.344,-107.910
1687265851.253,-21.484,-26.367,-28.809,-33.691,-89.355
1687265851.257,-17.578,-31.738,-21.484,-15.625,-179.688
1687265851.261,-12.695,-27.832,-20.508,-16.602,-180.176
1687265851.265,15.137,-25.879,-24.902,-5.371,-59.570
1687265851.269,4.883,-25.879,-23.926,-1.465,34.668
1687265851.273,-31.738,-29.785,-17.578,-18.066,-51.758
1687265851.276,-34.668,-35.156,-8.789,-18.555,-79.590
1687265851.280,-14.160,-39.062,-8.789,10.254,291.992
1687265851.284,-25.391,-37.598,-13.184,0.000,356.934
1687265851.288,-20.996,-31.738,-13.184,-8.789,-86.426
1687265851.292,-20.508,-33.691,-10.742,-2.930,-193.848
1687265851.294,-37.109,-40.039,-11.230,-4.395,167.480
1687265851.298,-35.645,-39.062,-12.695,1.953,226.562
1687265851.302,-3.418,-33.203,-11.230,5.859,-174.805
1687265851.306,15.625,-28.809,-17.090,-4.395,-148.926
1687265851.310,-17.578,-33.203,-25.879,-20.996,-55.664
1687265851.314,-24.414,-36.621,-20.020,1.953,-59.082
1687265851.318,-2.930,-32.715,-20.996,9.766,-69.824
1687265851.321,-1.953,-29.785,-22.949,1.953,13.672
1687265851.325,-13.672,-29.785,-11.230,9.766,238.281
1687265851.329,-11.230,-33.691,-13.184,-2.441,77.637
1687265851.333,-2.441,-37.598,-18.555,3.906,-178.223
1687265851.337,-26.855,-32.227,-17.090,11.230,-51.758
1687265851.339,-28.320,-23.926,-19.043,-6.348,-10.254
1687265851.343,-12.695,-20.508,-20.508,-12.695,-154.785
1687265851.347,-14.648,-24.414,-23.438,-4.883,-148.438
1687265851.351,-9.277,-27.344,-24.414,6.836,-129.883
1687265851.355,-2.930,-23.926,-20.996,6.836,-135.742
1687265851.359,0.000,-24.414,-22.949,0.000,-41.504
1687265851.363,-0.977,-26.367,-25.391,-0.488,-33.203
1687265851.366,-7.324,-25.391,-21.484,-7.812,146.484
1687265851.370,3.418,-22.949,-19.043,-0.488,384.277
1687265851.374,18.555,-20.020,-24.414,7.812,5.859
1687265851.378,-19.043,-18.066,-29.785,-0.977,-230.469
1687265851.382,-39.551,-21.973,-25.879,-3.418,-98.633
1687265851.384,-19.043,-28.809,-23.926,-6.836,-117.188
1687265851.388,-10.742,-28.320,-20.508,-4.883,-199.707
1687265851.392,-30.762,-22.461,-14.160,-7.812,-113.281
1687265851.396,-30.762,-23.926,-15.137,-12.695,-29.785
1687265851.400,-20.508,-26.367,-20.508,-18.066,-111.328
1687265851.404,-21.484,-25.879,-30.762,-20.508,-96.680
1687265851.408,-28.320,-24.902,-39.062,-43.457,83.008
1687265851.411,-29.297,-26.855,-32.227,-42.480,214.355
1687265851.415,-33.691,-28.809,-21.973,-24.414,-33.203
1687265851.419,-37.598,-33.691,-17.090,-14.160,-231.934
1687265851.423,-35.645,-39.062,-23.438,-36.133,-88.379
1687265851.427,-29.297,-36.133,-28.320,-44.922,-62.988
1687265851.430,-33.691,-28.809,-29.297,-40.527,-144.531
1687265851.434,-29.297,-27.832,-35.156,-57.129,-111.816
1687265851.438,-18.555,-29.297,-30.762,-39.062,33.691
1687265851.442,-2.930,-25.391,-29.785,-26.855,0.000
1687265851.446,-4.395,-23.926,-33.691,-43.945,-178.223
1687265851.450,-34.180,-20.996,-30.273,-42.480,-166.504
1687265851.454,-52.734,-21.973,-28.320,-30.762,210.449
1687265851.457,-40.527,-27.832,-27.832,-21.484,334.961
1687265851.461,-25.879,-30.273,-28.809,-16.602,-44.434
1687265851.465,-22.949,-23.926,-31.250,-25.391,-127.930
1687265851.469,-13.184,-16.602,-22.949,-35.645,66.406
1687265851.473,-15.137,-19.531,-21.484,-19.531,20.020
1687265851.475,-0.977,-20.996,-24.902,6.348,-152.344
1687265851.479,3.418,-20.996,-22.461,-16.602,-137.695
1687265851.483,-18.066,-20.996,-21.973,-36.621,-94.727
1687265851.487,-28.320,-19.043,-23.438,-25.391,-131.836
1687265851.491,-30.762,-21.973,-26.367,-36.621,-156.250
1687265851.495,-18.555,-30.273,-28.320,-33.691,-15.625
1687265851.499,-21.484,-28.320,-28.320,-21.973,375.977
1687265851.502,-21.973,-23.438,-24.902,-34.668,243.652
1687265851.506,-26.855,-22.461,-25.391,-21.484,-176.270
1687265851.510,-33.691,-22.461,-30.762,-14.160,-80.078
1687265851.514,-40.527,-26.855,-30.762,-13.184,-15.625
1687265851.518,-35.645,-31.738,-24.414,-11.230,-130.859
1687265851.535,-21.484,-33.203,-25.879,-20.508,-170.410
1687265851.539,-23.438,-32.715,-33.691,-17.090,-99.609
1687265851.543,-36.621,-29.297,-29.785,-27.344,-127.930
1687265851.547,-42.480,-29.297,-22.949,-41.016,-240.723
1687265851.551,-35.645,-29.297,-31.250,-39.062,-191.895
1687265851.555,-29.297,-27.832,-33.203,-38.574,29.785
1687265851.559,-28.809,-22.949,-29.785,-42.480,80.078
1687265851.562,-19.531,-23.438,-28.320,-36.133,-43.457
1687265851.566,-37.598,-23.926,-25.879,-37.109,-104.980
1687265851.570,-54.199,-20.508,-23.438,-32.715,113.770
1687265851.574,-48.828,-23.438,-25.879,-20.996,404.297
1687265851.578,-28.809,-22.949,-39.062,-35.156,110.840
1687265851.579,-15.137,-20.508,-38.086,-63.477,-153.809
1687265851.583,-44.434,-29.785,-30.762,-62.500,-114.258
1687265851.587,-61.523,-34.180,-28.320,-38.574,-158.203
1687265851.591,-46.875,-30.273,-28.320,-37.109,-192.871
1687265851.595,-37.598,-30.762,-26.367,-41.504,-118.652
1687265851.599,-46.875,-29.297,-20.996,-56.152,-41.504
1687265851.603,-53.223,-31.250,-22.461,-68.359,7.324
1687265851.606,-38.574,-31.738,-24.414,-62.500,-111.328
1687265851.610,-20.508,-32.227,-22.461,-44.434,-72.754
1687265851.614,-13.184,-28.809,-25.391,-46.387,425.293
1687265851.618,2.441,-23.926,-26.367,-43.945,205.566
1687265851.622,-0.488,-27.832,-22.461,-34.668,-218.750
1687265851.625,-20.996,-29.785,-18.555,-19.531,-152.344
1687265851.629,-40.039,-26.855,-20.996,-3.418,-165.039
1687265851.633,-44.922,-28.320,-20.508,-5.859,-169.434
1687265851.637,-46.875,-28.320,-18.066,-2.930,-121.582
1687265851.641,-44.922,-26.855,-16.602,-4.883,13.184
1687265851.645,-29.297,-28.320,-15.137,-18.066,99.609
1687265851.649,-23.926,-26.855,-14.648,-13.184,37.109
1687265851.652,-34.180,-26.855,-11.230,1.953,-138.184
1687265851.656,-26.855,-28.809,-13.672,-3.906,55.176
1687265851.660,-2.441,-28.809,-19.531,-15.137,312.988
1687265851.664,-14.648,-27.344,-19.531,-18.555,-24.902
1687265851.668,-15.625,-24.414,-21.973,-22.949,-128.906
1687265851.669,-15.137,-23.438,-20.508,-22.461,24.902
1687265851.673,-32.715,-23.926,-19.531,-20.020,-62.500
1687265851.677,-22.949,-23.438,-17.090,-14.160,-193.848
1687265851.681,-15.137,-25.879,-17.090,-14.160,-120.117
1687265851.685,-26.855,-33.691,-25.391,-21.484,-31.250
1687265851.689,-22.461,-31.738,-27.832,-25.391,32.227
1687265851.693,-11.719,-29.297,-25.391,-24.902,-30.273
1687265851.696,-11.230,-34.180,-21.484,-16.602,-34.180
1687265851.700,-19.043,-35.645,-24.414,-15.625,175.293
1687265851.704,-38.086,-34.668,-28.320,-26.367,8.301
1687265851.708,-33.691,-31.738,-29.785,-28.320,-208.496
1687265851.712,-17.090,-30.273,-23.438,-5.371,-97.168
1687265851.715,-17.090,-27.832,-23.438,-3.418,-64.453
1687265851.719,-27.344,-24.902,-28.809,-29.297,-151.367
1687265851.723,-29.297,-22.461,-25.391,-35.156,-99.609
1687265851.727,-23.926,-17.578,-27.344,-32.715,8.301
1687265851.731,-26.855,-17.090,-28.320,-26.367,5.859
1687265851.735,-31.738,-20.020,-31.250,-27.832,-74.707
1687265851.739,-33.203,-24.902,-27.832,-30.273,-73.730
1687265851.742,-28.320,-23.438,-21.973,-29.297,196.289
1687265851.746,-32.715,-20.508,-21.484,-36.621,350.586
1687265851.750,-35.645,-25.391,-20.996,-41.504,-94.238
1687265851.754,-37.109,-31.738,-20.020,-33.203,-235.840
1687265851.758,-49.316,-26.855,-22.461,-36.621,-125.000
1687265851.759,-57.129,-18.555,-29.297,-55.176,-141.602
1687265851.763,-54.199,-22.949,-29.297,-63.965,-142.090
1687265851.767,-31.250,-32.227,-24.414,-65.430,-143.555
1687265851.771,-30.762,-30.273,-26.367,-61.035,-134.766
1687265851.775,-61.035,-29.785,-38.086,-67.871,-104.004
1687265851.779,-75.195,-30.273,-36.621,-81.543,-63.477
1687265851.783,-65.918,-24.414,-32.227,-85.449,84.473
1687265851.786,-50.293,-27.832,-32.227,-78.125,404.785
1687265851.790,-28.809,-31.738,-33.691,-60.059,199.707
1687265851.794,-20.508,-30.762,-33.691,-43.945,-208.496
1687265851.798,-51.270,-31.250,-26.367,-38.574,-145.020
1687265851.802,-61.035,-31.738,-27.832,-55.664,-129.395
1687265851.804,-45.410,-27.344,-29.785,-63.965,-169.434
1687265851.808,-28.320,-21.973,-26.855,-60.059,-89.355
1687265851.812,-18.066,-22.461,-26.855,-43.457,-57.129
1687265851.816,-20.508,-29.297,-27.832,-38.086,-76.172
1687265851.820,-37.109,-30.273,-31.250,-66.895,-66.406
1687265851.824,-49.316,-31.250,-34.180,-54.688,-32.227
1687265851.828,-36.621,-35.156,-37.598,-41.016,270.020
1687265851.831,-57.617,-34.668,-40.527,-50.781,290.039
1687265851.835,-69.336,-35.645,-29.297,-48.828,-8.789
1687265851.839,-54.688,-36.133,-23.438,-48.340,-137.695
1687265851.843,-45.410,-34.180,-27.344,-47.363,61.523
1687265851.847,-32.715,-31.250,-27.344,-53.711,142.578
1687265851.849,-45.410,-31.738,-28.320,-76.660,-204.102
1687265851.853,-37.109,-31.738,-32.227,-74.219,-179.688
1687265851.857,-36.133,-35.156,-32.227,-51.270,-100.098
1687265851.861,-65.918,-36.133,-30.762,-46.387,-116.211
1687265851.865,-55.664,-30.762,-24.902,-41.504,-125.000
1687265851.869,-37.598,-27.832,-22.949,-51.270,13.184
1687265851.873,-32.715,-27.832,-29.297,-57.617,209.473
1687265851.876,-26.367,-28.809,-34.668,-41.504,9.766
1687265851.880,-38.574,-25.879,-33.203,-40.039,-197.754
1687265851.884,-40.039,-25.879,-28.809,-41.016,-47.852
1687265851.888,-42.480,-30.273,-29.297,-46.875,157.227
1687265851.892,-54.688,-27.832,-32.227,-43.945,-68.359
1687265851.909,-42.480,-25.879,-28.809,-29.297,-157.227
1687265851.913,-37.598,-35.645,-22.949,-24.902,-72.266
1687265851.917,-54.199,-39.551,-17.578,-26.855,-41.016
1687265851.921,-45.898,-34.180,-21.484,-33.203,-106.445
1687265851.925,-27.832,-31.738,-30.273,-37.598,-182.617
1687265851.929,-22.461,-35.156,-34.668,-35.645,-43.945
1687265851.933,-24.902,-37.109,-41.504,-22.949,37.109
1687265851.936,-27.344,-40.527,-38.574,-17.090,-80.566
1687265851.940,-33.203,-34.668,-29.297,-42.969,-182.617
1687265851.944,-36.621,-31.250,-30.273,-47.852,65.918
1687265851.948,-45.898,-38.086,-32.715,-28.320,301.758
1687265851.952,-51.270,-39.062,-29.297,-19.043,-9.766
1687265851.954,-24.902,-35.645,-27.344,-21.484,-109.375
1687265851.958,0.000,-29.297,-29.785,-24.902,16.602
1687265851.962,-15.137,-31.250,-30.273,-21.973,-32.715
1687265851.966,-45.410,-38.574,-32.227,-30.273,-155.762
1687265851.970,-60.547,-35.156,-33.203,-46.875,-128.906
1687265851.974,-59.082,-34.180,-29.297,-41.504,-10.254
1687265851.978,-41.016,-37.598,-28.809,-38.574,20.020
1687265851.981,-21.484,-35.156,-31.250,-33.691,-106.934
1687265851.985,-30.273,-37.598,-35.645,-25.391,-79.102
1687265851.989,-49.805,-43.457,-32.227,-42.969,138.184
1687265851.993,-43.457,-41.504,-29.785,-39.551,-75.195
1687265851.997,-8.301,-32.227,-35.156,-18.555,-209.473
1687265851.999,-23.438,-24.902,-35.645,-28.320,-81.543
1687265852.003,-53.711,-19.043,-37.598,-33.203,-104.980
1687265852.007,-50.293,-22.949,-33.203,-31.250,-107.910
1687265852.011,-59.570,-28.809,-25.879,-35.645,-97.656
1687265852.015,-51.270,-24.902,-31.250,-39.062,-1.953
1687265852.019,-48.340,-27.344,-31.738,-34.668,110.840
1687265852.023,-44.434,-30.762,-28.809,-30.762,57.129
1687265852.026,-35.156,-33.691,-29.297,-41.504,-9.766
1687265852.030,-19.043,-31.250,-26.855,-34.180,180.664
1687265852.034,-5.371,-26.367,-27.344,-28.320,375.000
1687265852.038,-19.531,-24.902,-25.391,-45.410,-1.465
1687265852.042,-37.598,-25.879,-24.902,-42.480,-205.566
1687265852.044,-38.574,-31.738,-27.832,-36.621,-65.918
1687265852.048,-30.273,-33.691,-26.367,-46.387,-56.152
1687265852.052,-38.086,-30.762,-27.344,-44.922,-122.559
1687265852.056,-26.855,-29.297,-28.320,-30.273,-149.414
1687265852.060,-16.113,-28.809,-28.809,-27.344,-140.137
1687265852.064,-25.879,-29.785,-25.391,-38.086,-62.988
1687265852.068,-19.531,-32.227,-26.855,-49.316,46.387
1687265852.071,-14.160,-34.180,-32.715,-43.457,67.871
1687265852.075,-26.367,-35.156,-34.180,-32.227,224.121
1687265852.079,-10.742,-30.762,-27.344,-24.414,96.680
1687265852.083,0.488,-26.855,-26.855,-18.066,-191.406
1687265852.087,-33.203,-28.809,-31.250,-24.414,-128.906
1687265852.089,-60.547,-33.691,-28.320,-40.527,-116.211
1687265852.093,-51.270,-37.109,-30.273,-50.293,-185.059
1687265852.097,-30.762,-35.156,-32.715,-46.875,-182.129
1687265852.101,-21.973,-31.738,-29.785,-33.691,-89.355
1687265852.105,-24.414,-28.809,-26.855,-37.598,-61.523
1687265852.109,-36.621,-31.738,-27.344,-33.203,-51.270
1687265852.113,-34.180,-30.273,-31.738,-29.785,-26.855
1687265852.116,-20.996,-25.391,-32.227,-39.062,280.273
1687265852.120,-39.062,-28.320,-29.297,-31.250,389.160
1687265852.124,-40.039,-27.832,-28.809,-30.273,-0.488
1687265852.128,-31.250,-24.902,-26.855,-28.809,-145.020
1687265852.132,-38.086,-24.902,-20.996,-17.090,118.652
1687265852.134,-36.133,-24.902,-18.555,-30.273,253.906
1687265852.138,-31.738,-26.855,-22.949,-37.598,-126.465
1687265852.142,-41.504,-31.738,-28.320,-52.734,-189.941
1687265852.146,-44.434,-29.297,-28.809,-61.523,-121.582
1687265852.150,-36.621,-26.367,-26.855,-42.969,-155.762
1687265852.154,-32.715,-27.832,-27.344,-40.527,-92.285
1687265852.158,-30.273,-30.762,-27.832,-48.828,62.012
1687265852.161,-36.621,-28.809,-27.832,-45.898,258.789
1687265852.165,-45.898,-31.250,-29.297,-41.992,-39.551
1687265852.169,-44.922,-33.203,-27.832,-44.922,-268.555
1687265852.173,-38.574,-31.250,-28.320,-56.152,-50.781
1687265852.177,-52.246,-36.133,-31.250,-57.617,-30.273
1687265852.179,-52.246,-33.691,-30.762,-50.293,-208.008
1687265852.183,-52.734,-33.203,-26.367,-47.363,-207.031
1687265852.187,-50.293,-38.086,-22.949,-46.875,-20.508
1687265852.191,-36.621,-34.668,-28.809,-48.340,-19.043
1687265852.195,-43.457,-30.762,-26.367,-41.016,-131.836
1687265852.199,-58.105,-32.227,-22.949,-45.410,-42.480
1687265852.203,-52.246,-35.645,-27.832,-53.223,197.754
1687265852.206,-37.109,-35.645,-32.715,-46.875,357.422
1687265852.210,-33.203,-38.086,-37.598,-51.270,32.227
1687265852.214,-46.387,-42.969,-36.621,-51.758,-208.008
1687265852.218,-54.688,-43.457,-34.668,-48.828,-94.727
1687265852.222,-61.035,-39.551,-33.203,-49.805,-94.238
1687265852.225,-51.270,-36.621,-26.367,-41.504,-146.973
1687265852.229,-31.738,-38.086,-27.344,-62.988,-107.910
1687265852.233,-39.551,-36.621,-30.762,-67.383,-39.062
1687265852.237,-38.086,-33.691,-30.762,-48.828,-48.828
1687265852.241,-26.855,-35.156,-30.273,-42.969,-192.871
1687265852.245,-36.621,-37.109,-32.227,-37.598,-96.191
1687265852.249,-46.875,-34.668,-34.668,-51.270,163.574
1687265852.252,-39.551,-33.203,-31.738,-49.805,-21.484
1687265852.256,-40.527,-35.156,-31.250,-39.062,-251.953
1687265852.260,-46.387,-37.109,-36.621,-48.828,-94.727
1687265852.264,-48.828,-41.016,-37.109,-44.434,-7.324
1687265852.268,-34.668,-35.645,-26.855,-38.086,-148.926
1687265852.284,-27.832,-31.250,-25.879,-44.922,-142.090
1687265852.288,-39.062,-35.645,-22.461,-42.969,-52.246
1687265852.292,-44.922,-36.621,-20.996,-32.227,-59.082
1687265852.296,-41.016,-39.062,-23.926,-34.668,-65.430
1687265852.300,-52.246,-40.039,-22.949,-45.410,-154.785
1687265852.304,-56.641,-34.668,-22.949,-34.668,123.535
1687265852.308,-41.992,-29.297,-22.461,-42.969,440.918
1687265852.311,-38.574,-29.785,-26.367,-62.500,62.500
1687265852.315,-55.664,-33.691,-26.855,-44.922,-186.523
1687265852.319,-64.453,-36.133,-22.949,-25.879,103.516
1687265852.323,-44.434,-36.621,-24.902,-31.250,218.262
1687265852.327,-38.574,-37.109,-28.320,-43.945,-147.949
1687265852.329,-54.199,-39.062,-24.902,-38.574,-157.715
1687265852.333,-48.340,-36.621,-18.555,-32.227,-86.426
1687265852.337,-39.551,-33.691,-19.043,-44.434,-177.734
1687265852.341,-41.504,-32.227,-26.367,-55.176,-215.332
1687265852.345,-47.852,-29.297,-26.855,-49.316,-93.262
1687265852.349,-39.062,-26.855,-26.367,-39.062,-19.531
1687265852.353,-41.992,-28.809,-30.273,-53.223,-46.387
1687265852.356,-41.992,-35.645,-31.738,-65.430,-19.043
1687265852.360,-35.645,-31.738,-26.367,-50.293,8.789
1687265852.364,-26.367,-27.344,-26.367,-39.551,245.117
1687265852.368,-29.297,-33.691,-28.809,-43.945,163.574
1687265852.372,-48.828,-33.203,-22.461,-51.270,-141.602
1687265852.374,-45.898,-36.621,-20.508,-37.109,-115.234
1687265852.378,-42.480,-40.527,-20.020,-33.203,-93.750
1687265852.382,-59.082,-38.574,-13.672,-33.203,-171.387
1687265852.386,-65.918,-45.410,-13.672,-29.785,-201.172
1687265852.390,-39.551,-50.293,-17.090,-32.227,-69.824
1687265852.394,-27.344,-48.828,-17.090,-25.879,25.391
1687265852.398,-23.438,-44.434,-19.531,-20.020,-53.711
1687265852.401,-10.742,-44.434,-21.973,-41.504,-83.984
1687265852.405,-5.859,-49.316,-21.973,-45.898,168.457
1687265852.409,-9.277,-44.922,-24.902,-17.090,497.070
1687265852.413,-21.484,-38.574,-24.414,-16.113,191.895
1687265852.417,-21.973,-35.645,-20.508,-19.043,-118.164
1687265852.419,-16.113,-31.738,-17.578,-10.254,-130.859
1687265852.423,-21.973,-31.738,-18.555,-6.836,-159.180
1687265852.427,-36.621,-34.668,-19.531,-4.395,-159.668
1687265852.431,-47.852,-37.598,-16.113,-13.184,-160.156
1687265852.435,-41.016,-35.156,-15.625,-27.832,-128.418
1687265852.439,-36.133,-28.320,-16.602,-18.066,-48.828
1687265852.443,-25.879,-27.832,-17.090,-12.207,7.324
1687265852.446,-8.789,-29.785,-18.066,-18.066,10.254
1687265852.450,-1.465,-31.250,-20.020,-19.531,170.410
1687265852.454,-22.949,-31.250,-23.438,-17.578,-4.883
1687265852.458,-40.039,-33.203,-21.973,-7.812,-159.180
1687265852.462,-30.762,-36.621,-19.043,-17.578,51.758
1687265852.464,-25.879,-37.598,-21.973,-23.926,53.223
1687265852.468,-31.250,-37.109,-24.414,-18.555,-104.980
1687265852.472,-22.461,-34.668,-22.949,-35.645,-144.531
1687265852.476,-14.160,-31.738,-20.020,-41.992,-20.996
1687265852.480,-20.020,-31.250,-26.855,-27.832,27.832
1687265852.484,-28.320,-32.227,-29.785,-24.902,0.488
1687265852.488,-34.668,-34.668,-25.391,-19.043,8.301
1687265852.491,-28.809,-41.504,-26.855,-16.602,180.664
1687265852.495,-33.203,-39.551,-27.832,-23.438,345.703
1687265852.499,-39.551,-35.156,-28.809,-40.039,-57.617
1687265852.503,-36.133,-36.621,-29.785,-33.203,-226.074
1687265852.507,-26.367,-36.621,-24.902,-36.621,-85.449
1687265852.525,-13.672,-35.156,-25.879,-33.203,-100.098
1687265852.529,-14.160,-33.691,-30.762,-17.090,-151.367
1687265852.533,-21.973,-32.715,-29.785,-22.949,-142.090
1687265852.537,-36.133,-34.180,-29.297,-27.832,-54.199
1687265852.541,-53.223,-37.598,-32.227,-25.879,-90.820
1687265852.545,-41.016,-36.133,-29.297,-28.809,-111.816
1687265852.549,-26.367,-30.762,-31.250,-41.992,55.664
1687265852.552,-19.043,-29.297,-32.227,-60.059,62.012
1687265852.556,-31.738,-32.227,-25.879,-51.270,-106.934
1687265852.560,-32.715,-37.109,-22.949,-24.414,-202.637
1687265852.564,-21.973,-30.762,-30.762,-13.184,-33.691
1687265852.568,-32.227,-18.555,-32.715,-25.391,189.453
1687265852.554,-23.438,-17.578,-28.809,-28.320,-32.715
1687265852.558,-15.625,-23.926,-26.367,-23.926,-185.547
1687265852.562,-23.926,-25.391,-26.855,-20.020,-168.945
1687265852.566,-20.508,-23.926,-28.320,-23.926,-51.758
1687265852.570,-14.648,-22.949,-29.297,-41.016,-91.797
1687265852.574,-0.977,-25.391,-31.738,-41.992,-80.078
1687265852.578,-13.184,-25.391,-29.785,-41.504,41.016
1687265852.581,-36.621,-25.391,-31.250,-40.039,41.016
1687265852.585,-24.902,-27.832,-32.227,-24.414,-2.441
1687265852.589,-25.391,-26.367,-30.273,-10.742,-116.699
1687265852.593,-35.645,-27.832,-26.367,-29.297,90.820
1687265852.597,-33.203,-32.227,-26.855,-47.852,444.336
1687265852.599,-24.414,-32.715,-30.273,-40.039,154.785
1687265852.603,-13.184,-31.738,-26.855,-37.109,-155.762
1687265852.607,-32.715,-25.391,-24.414,-29.785,-159.668
1687265852.611,-46.387,-24.902,-30.273,-34.180,-217.285
1687265852.615,-27.344,-28.320,-34.180,-45.410,-246.582
1687265852.619,-46.387,-27.832,-30.762,-39.551,-66.895
1687265852.623,-56.152,-28.809,-26.855,-38.086,100.586
1687265852.626,-25.879,-32.227,-24.414,-47.852,-41.016
1687265852.630,-19.531,-32.227,-22.461,-53.711,-210.938
1687265852.634,-15.625,-31.250,-26.367,-38.086,-94.727
1687265852.638,-21.973,-29.297,-30.762,-28.809,178.223
1687265852.642,-27.344,-30.762,-30.762,-37.109,-30.273
1687265852.660,-30.762,-31.250,-30.762,-39.551,-177.734
1687265852.664,-43.945,-26.367,-29.785,-39.551,-89.844
1687265852.668,-24.902,-25.879,-28.320,-27.344,-100.586
1687265852.672,-20.508,-29.785,-29.785,-13.184,-140.625
1687265852.676,-35.645,-34.668,-31.250,-20.020,-112.305
1687265852.680,-16.113,-33.203,-31.738,-16.602,47.852
1687265852.684,5.371,-31.738,-33.691,-31.738,103.027
1687265852.687,-13.672,-31.738,-35.156,-42.969,6.836
1687265852.691,-37.598,-28.809,-30.273,-34.180,-44.922
1687265852.695,-28.320,-30.762,-24.414,-34.668,193.848
1687265852.699,-19.531,-33.691,-27.344,-23.438,437.988
1687265852.703,-17.578,-35.156,-25.391,-27.344,93.262
1687265852.704,-12.695,-31.738,-21.484,-18.555,-179.688
1687265852.708,-24.414,-28.809,-22.461,-10.254,-147.949
1687265852.712,-38.574,-26.855,-22.461,-26.367,-173.828
1687265852.716,-24.902,-26.367,-23.926,-26.855,-202.637
1687265852.720,-29.785,-33.203,-24.414,-32.227,-103.516
1687265852.724,-41.992,-36.621,-26.855,-43.945,-20.508
1687265852.728,-52.734,-38.086,-30.273,-51.270,-52.734
1687265852.731,-52.734,-39.062,-34.180,-42.480,-105.469
1687265852.735,-42.480,-37.109,-35.645,-25.879,-24.902
1687265852.739,-33.203,-34.668,-28.320,-19.043,191.895
1687265852.743,-23.438,-33.691,-21.973,-20.508,62.012
1687265852.747,-27.832,-33.203,-21.973,-26.855,-97.656
1687265852.749,-28.809,-33.203,-26.367,-29.785,-5.371
1687265852.753,-22.949,-31.250,-27.832,-34.180,2.441
1687265852.757,-31.250,-33.691,-26.855,-38.086,-155.762
1687265852.761,-48.340,-32.715,-24.414,-41.504,-144.043
1687265852.765,-42.969,-33.691,-23.926,-42.480,-111.816
1687265852.769,-33.203,-35.156,-27.344,-37.109,19.531
1687265852.773,-38.574,-33.691,-27.832,-24.902,47.852
1687265852.776,-44.922,-29.297,-26.855,-26.855,-100.586
1687265852.780,-44.434,-30.273,-29.297,-34.180,144.531
1687265852.784,-41.504,-35.156,-27.344,-26.855,353.516
1687265852.788,-35.156,-35.156,-28.809,-34.180,-36.621
1687265852.792,-38.574,-33.203,-30.273,-40.527,-191.406
1687265852.795,-27.344,-35.156,-28.320,-32.227,-103.516
1687265852.799,-23.438,-37.109,-25.879,-37.109,-60.547
1687265852.803,-41.992,-34.668,-29.785,-46.875,-144.531
1687265852.807,-39.062,-36.133,-30.762,-50.781,-133.789
1687265852.811,-25.391,-34.180,-29.297,-33.691,18.555
1687265852.815,-21.973,-27.344,-25.391,-27.344,9.766
1687265852.819,-37.109,-26.855,-22.949,-28.809,-63.965
1687265852.822,-36.133,-26.367,-31.738,-22.461,-26.367
1687265852.826,-29.297,-28.320,-29.297,-26.367,168.945
1687265852.830,-47.852,-31.250,-28.809,-39.551,-15.137
1687265852.834,-49.316,-33.203,-34.668,-52.246,-227.051
1687265852.838,-18.066,-34.180,-36.133,-47.852,-166.504
1687265852.839,-28.320,-31.250,-38.086,-44.922,-157.715
1687265852.843,-61.523,-34.180,-32.715,-33.203,-171.387
1687265852.847,-33.203,-33.203,-27.344,-31.250,-116.699
1687265852.851,-7.324,-27.832,-26.855,-31.250,-52.246
1687265852.855,-22.949,-26.367,-27.344,-34.668,-76.660
1687265852.859,-35.156,-29.297,-30.273,-43.945,-60.059
1687265852.863,-28.809,-25.879,-28.320,-40.527,-33.203
1687265852.866,-20.020,-23.926,-24.414,-35.156,153.320
1687265852.870,-13.672,-31.738,-22.949,-16.602,456.055
1687265852.874,-25.879,-29.785,-25.391,-34.668,175.781
1687265852.878,-29.785,-25.391,-25.391,-57.129,-216.797
1687265852.882,-45.410,-29.785,-24.902,-37.109,-188.965
1687265852.884,-62.988,-30.273,-26.855,-37.598,-130.859
1687265852.888,-41.992,-27.832,-26.367,-41.016,-167.480
1687265852.892,-17.578,-24.902,-25.391,-37.598,-139.648
1687265852.896,-20.996,-26.855,-27.344,-39.062,-83.984
1687265852.900,-34.180,-29.297,-23.926,-40.039,-123.535
1687265852.904,-26.367,-27.832,-21.484,-29.297,-57.617
1687265852.908,-26.367,-32.227,-18.555,-22.949,145.996
1687265852.911,-42.480,-32.227,-18.555,-28.320,433.105
1687265852.915,-47.363,-29.785,-24.414,-40.039,226.074
1687265852.919,-50.293,-31.738,-21.973,-50.781,-204.590
1687265852.923,-64.941,-30.273,-21.973,-55.176,-145.996
1687265852.927,-62.988,-32.227,-27.832,-45.410,-104.980
1687265852.929,-52.246,-34.668,-29.297,-36.621,-174.805
1687265852.933,-41.992,-37.109,-30.273,-51.270,-215.820
1687265852.937,-29.297,-37.109,-30.762,-37.109,-122.559
1687265852.941,-29.297,-37.598,-33.203,-29.297,-33.691
1687265852.945,-23.926,-38.086,-32.227,-31.250,-84.961
1687265852.949,-22.461,-35.156,-30.762,-34.180,-64.453
1687265852.953,-44.922,-35.645,-33.203,-46.875,284.668
1687265852.956,-64.453,-41.016,-32.227,-45.410,424.805
1687265852.960,-58.105,-39.062,-26.855,-50.781,5.859
1687265852.964,-53.711,-34.180,-24.902,-55.176,-152.832
1687265852.968,-28.809,-36.621,-23.926,-30.273,65.918
1687265852.972,-33.691,-37.598,-22.949,-24.902,60.547
1687265852.975,-70.312,-35.156,-27.832,-56.641,-263.184
1687265852.979,-55.176,-34.668,-30.762,-63.965,-261.230
1687265852.983,-27.344,-40.527,-30.762,-50.293,-126.953
1687265852.987,-37.598,-41.016,-28.320,-45.898,-129.395
1687265852.991,-45.898,-37.109,-28.809,-45.898,-187.012
1687265852.995,-33.691,-38.574,-30.762,-41.504,-14.648
1687265852.999,-30.762,-37.109,-24.902,-30.273,219.238
1687265853.002,-36.621,-35.156,-25.391,-32.715,57.617
1687265853.006,-27.832,-37.109,-27.344,-30.762,-177.246
1687265853.010,-38.574,-40.039,-24.414,-40.039,-78.613
1687265853.014,-49.316,-36.133,-28.809,-42.969,3.418
1687265853.018,-50.293,-33.203,-26.367,-41.992,-87.402
1687265853.021,-71.289,-36.621,-20.020,-51.758,-156.250
1687265853.025,-43.945,-36.133,-23.438,-20.508,-33.203
1687265853.029,-25.879,-37.598,-26.855,-20.020,27.344
1687265853.033,-41.992,-36.133,-29.785,-46.387,-147.461
1687265853.037,-33.691,-33.691,-27.832,-43.457,-128.418
1687265853.041,-39.062,-34.180,-31.738,-55.176,-15.625
1687265853.045,-33.691,-31.250,-37.598,-49.805,58.105
1687265853.048,-5.859,-33.203,-32.715,-43.457,29.785
1687265853.052,-19.531,-35.645,-32.715,-49.805,-106.445
1687265853.056,-42.480,-34.180,-29.297,-38.574,97.656
1687265853.060,-40.527,-33.203,-23.438,-24.902,326.660
1687265853.064,-34.668,-32.715,-27.344,-29.297,-61.035
1687265853.079,-31.250,-28.809,-29.785,-31.738,-177.246
1687265853.083,-37.598,-27.832,-30.273,-29.297,-76.660
1687265853.087,-25.391,-30.273,-30.762,-29.785,-118.652
1687265853.091,-25.879,-27.832,-28.320,-28.809,-152.832
1687265853.095,-36.621,-24.902,-22.949,-35.156,-70.801
1687265853.099,-46.387,-26.367,-23.438,-32.227,211.914
1687265853.103,-53.711,-28.809,-26.367,-25.879,213.867
1687265853.106,-44.922,-27.344,-28.809,-21.484,-112.793
1687265853.110,-33.691,-32.715,-26.855,-37.109,-124.023
1687265853.114,-28.809,-35.645,-24.414,-29.785,24.414
1687265853.118,-47.852,-37.109,-24.902,-29.785,-119.141
1687265853.122,-36.621,-40.039,-24.414,-37.109,-174.316
1687265853.124,-12.695,-31.250,-26.367,-28.809,-111.328
1687265853.128,-18.066,-29.297,-30.273,-36.621,-83.984
1687265853.132,-29.297,-34.668,-31.738,-40.039,-80.566
1687265853.136,-33.691,-28.809,-30.762,-48.340,-97.168
1687265853.140,-33.203,-25.391,-33.691,-49.805,2.441
1687265853.144,-36.621,-30.762,-35.645,-45.410,39.551
1687265853.148,-33.691,-31.250,-26.367,-55.176,-23.438
1687265853.151,-33.203,-28.809,-22.949,-53.711,-39.551
1687265853.155,-29.297,-25.879,-26.367,-39.551,111.816
1687265853.159,-26.855,-27.832,-27.344,-37.598,397.461
1687265853.163,-42.969,-29.785,-25.391,-28.809,107.422
1687265853.167,-41.992,-32.715,-21.973,-29.785,-202.148
1687265853.169,-26.367,-33.691,-21.973,-51.270,-146.973
1687265853.173,-16.113,-27.344,-29.785,-39.062,-193.848
1687265853.177,-9.766,-27.832,-33.203,-36.621,-182.129
1687265853.181,-20.020,-32.715,-27.832,-40.527,-81.055
1687265853.185,-24.902,-33.691,-21.484,-29.297,-64.453
1687265853.189,-17.578,-34.668,-20.020,-21.484,31.250
1687265853.193,-10.254,-32.715,-22.461,-15.625,16.602
1687265853.196,-15.137,-29.297,-30.762,-30.273,-64.941
1687265853.200,-48.340,-33.203,-32.715,-33.691,250.488
1687265853.204,-62.500,-35.645,-28.320,-27.344,195.312
1687265853.208,-38.086,-34.180,-26.367,-18.066,-158.691
1687265853.212,-34.668,-32.715,-26.855,-26.367,-128.418
1687265853.214,-54.199,-30.273,-28.809,-32.715,-122.070
1687265853.218,-37.598,-31.250,-25.391,-10.742,-176.270
1687265853.222,-39.551,-34.668,-24.414,-23.438,-174.805
1687265853.226,-39.551,-30.762,-26.367,-44.922,-78.125
1687265853.230,-22.461,-26.367,-30.273,-43.457,-57.129
1687265853.234,-31.738,-21.484,-31.738,-43.457,-37.109
1687265853.238,-31.250,-25.879,-30.273,-44.922,-3.906
1687265853.241,-18.066,-32.227,-30.273,-28.809,204.102
1687265853.245,-41.016,-31.738,-34.180,-28.320,440.430
1687265853.249,-46.387,-29.297,-30.762,-41.016,113.281
1687265853.253,-18.555,-25.879,-30.762,-32.227,-143.066
1687265853.257,-20.020,-28.809,-26.367,-20.996,-81.055
1687265853.259,-44.434,-31.250,-20.020,-24.902,-151.367
1687265853.263,-39.062,-29.297,-24.414,-33.691,-211.914
1687265853.267,-23.438,-30.273,-25.879,-49.316,-144.531
1687265853.271,-29.785,-34.668,-24.902,-49.316,-57.129
1687265853.275,-37.109,-33.203,-23.438,-43.457,-93.750
1687265853.279,-38.086,-31.738,-23.438,-52.246,-70.312
1687265853.283,-43.457,-29.785,-25.879,-35.645,127.441
1687265853.286,-34.668,-30.273,-26.855,-26.855,105.469
1687265853.290,-22.949,-32.715,-27.344,-30.762,-115.723
1687265853.294,-39.062,-37.109,-24.414,-39.062,-241.211
1687265853.298,-44.922,-38.086,-23.438,-41.992,-75.195
1687265853.302,-24.414,-31.250,-26.367,-24.414,152.344
1687265853.319,-30.762,-30.273,-25.391,-21.973,-27.344
1687265853.323,-50.293,-35.156,-26.367,-23.438,-178.711
1687265853.327,-34.180,-30.273,-23.926,-12.207,-22.949
1687265853.331,-21.484,-30.762,-22.949,-26.855,16.602
1687265853.335,-26.855,-33.691,-23.926,-42.969,-132.812
1687265853.339,-33.691,-32.227,-26.367,-41.992,-152.344
1687265853.343,-39.551,-32.227,-26.855,-41.504,156.738
1687265853.346,-38.086,-38.574,-25.391,-39.062,400.879
1687265853.350,-34.180,-35.645,-25.879,-34.180,-36.621
1687265853.354,-37.109,-24.902,-21.484,-31.738,-238.770
1687265853.358,-41.504,-27.832,-21.484,-39.551,-71.289
1687265853.362,-39.551,-31.738,-21.973,-43.945,-52.734
1687265853.350,-38.086,-30.762,-22.949,-43.945,-173.828
1687265853.354,-41.992,-31.250,-30.762,-45.898,-126.465
1687265853.358,-46.387,-31.738,-30.762,-44.922,-36.621
1687265853.362,-34.668,-27.344,-22.461,-45.898,-126.953
1687265853.366,-31.738,-23.926,-19.531,-46.875,-208.984
1687265853.370,-29.297,-22.461,-24.414,-32.715,1.465
1687265853.374,-19.043,-21.973,-24.902,-37.598,176.758
1687265853.377,-43.457,-22.949,-26.367,-43.457,-105.957
1687265853.381,-34.668,-25.391,-34.180,-40.039,-247.070
1687265853.385,-16.602,-23.926,-32.227,-47.852,-65.918
1687265853.389,-29.297,-20.996,-27.344,-33.203,247.559
1687265853.393,-31.738,-25.879,-32.227,-22.461,63.965
1687265853.409,-41.504,-32.715,-33.691,-25.879,-230.957
1687265853.413,-45.898,-33.691,-30.762,-32.715,-62.500
1687265853.417,-31.250,-30.762,-29.297,-38.574,1.465
1687265853.421,-24.902,-32.227,-28.320,-43.457,-138.184
1687265853.425,-41.016,-30.273,-26.367,-31.738,-159.180
1687265853.429,-42.969,-31.738,-26.367,-26.855,174.805
1687265853.433,-37.109,-36.621,-32.715,-39.062,335.938
1687265853.436,-29.785,-35.645,-36.621,-41.992,34.180
1687265853.440,-36.621,-34.668,-32.227,-42.480,-65.918
1687265853.444,-51.270,-36.133,-28.809,-45.898,141.113
1687265853.448,-51.758,-29.785,-29.785,-30.762,177.246
1687265853.452,-40.039,-24.902,-32.715,-27.832,-150.879
1687265853.454,-32.227,-28.809,-32.227,-34.180,-224.609
1687265853.458,-33.691,-29.785,-21.484,-27.344,-166.992
1687265853.462,-51.270,-36.133,-19.043,-43.945,-146.973
1687265853.466,-60.547,-33.691,-17.090,-41.504,-222.168
1687265853.470,-41.016,-30.273,-13.184,-34.668,-92.285
1687265853.474,-14.160,-34.668,-15.137,-35.645,98.145
1687265853.478,-26.855,-33.203,-16.602,-19.531,-6.348
1687265853.481,-70.801,-33.691,-19.531,-29.785,-57.129
1687265853.485,-66.895,-35.156,-22.949,-32.715,-22.949
1687265853.489,-45.410,-31.738,-22.461,-15.625,274.902
1687265853.493,-36.133,-28.809,-25.391,-16.602,160.645
1687265853.497,-29.785,-32.715,-25.879,-25.879,-201.172
1687265853.500,-28.809,-32.715,-21.484,-32.715,-65.430
1687265853.504,-29.297,-29.785,-24.414,-35.645,-20.020
1687265853.508,-32.227,-32.227,-27.344,-21.973,-158.203
1687265853.512,-17.578,-32.715,-28.809,-14.160,-142.578
1687265853.516,-15.625,-27.832,-33.203,-27.344,-55.664
1687265853.520,-51.270,-26.367,-30.273,-36.621,55.176
1687265853.524,-54.199,-25.391,-22.949,-26.367,41.992
1687265853.527,-32.715,-26.855,-22.461,-19.043,-56.152
1687265853.531,-31.250,-31.250,-26.367,-20.508,113.770
1687265853.535,-24.902,-31.738,-30.762,-28.320,472.168
1687265853.539,-15.137,-31.738,-35.156,-25.879,234.375
1687265853.543,-23.438,-34.668,-32.227,-16.113,-116.211
1687265853.544,-35.645,-34.668,-30.273,-19.043,-74.707
1687265853.548,-29.297,-33.203,-33.691,-21.973,-95.215
1687265853.552,-28.320,-39.551,-31.250,-27.832,-192.871
1687265853.556,-42.969,-38.086,-32.227,-36.133,-175.781
1687265853.560,-39.062,-31.738,-36.621,-36.621,-105.469
1687265853.564,-40.527,-27.344,-40.527,-37.598,-76.660
1687265853.568,-45.898,-28.320,-34.180,-36.621,-78.125
1687265853.571,-39.551,-33.203,-29.785,-35.645,-41.504
1687265853.575,-33.203,-34.668,-28.320,-27.344,190.430
1687265853.579,-34.180,-32.227,-25.391,-27.832,31.250
1687265853.583,-40.039,-30.762,-22.461,-49.316,-219.727
1687265853.587,-26.855,-29.297,-20.508,-44.922,-106.934
1687265853.589,-13.672,-27.832,-23.438,-18.555,-45.410
1687265853.593,-39.551,-30.273,-36.133,-35.156,-126.953
1687265853.597,-37.109,-37.598,-35.645,-39.551,-207.520
1687265853.601,-28.320,-32.227,-27.832,-27.832,-28.809
1687265853.605,-46.875,-18.555,-21.973,-42.969,40.527
1687265853.609,-48.340,-19.043,-25.879,-56.641,-95.703
1687265853.613,-47.363,-22.461,-25.879,-71.777,-113.770
1687265853.616,-61.035,-22.949,-20.020,-77.637,170.898
1687265853.620,-70.312,-22.949,-21.484,-76.660,440.430
1687265853.624,-61.523,-26.855,-20.508,-85.449,47.852
1687265853.628,-76.660,-29.297,-20.508,-81.543,-149.414
1687265853.632,-99.609,-28.320,-22.949,-87.891,-69.336
1687265853.635,-106.445,-25.879,-25.879,-94.727,-128.418
1687265853.639,-91.309,-28.320,-26.855,-93.262,-154.785
1687265853.643,-62.988,-29.785,-31.738,-89.355,-54.199
1687265853.647,-54.688,-33.203,-37.598,-81.055,59.082
1687265853.651,-51.758,-35.645,-37.109,-64.453,-50.781
1687265853.655,-34.668,-32.227,-33.203,-44.922,-105.957
1687265853.659,-52.246,-34.668,-33.691,-50.781,-42.969
1687265853.662,-61.035,-40.039,-37.109,-53.711,207.031
1687265853.666,-41.016,-37.109,-35.156,-35.645,64.941
1687265853.670,-40.039,-35.645,-33.203,-55.176,-224.121
1687265853.674,-32.715,-32.227,-33.203,-58.594,-77.148
1687265853.678,-33.691,-25.879,-32.715,-36.133,-57.129
1687265853.679,-33.203,-24.414,-30.762,-28.320,-134.277
1687265853.683,-19.043,-22.949,-32.715,-9.766,-134.277
1687265853.687,-12.207,-25.879,-37.109,-27.344,-76.172
1687265853.691,-26.855,-28.809,-35.645,-43.457,-70.312
1687265853.695,-30.762,-31.250,-33.203,-35.156,-98.633
1687265853.699,-19.043,-30.762,-29.785,-45.410,-139.160
1687265853.703,-40.527,-24.414,-29.297,-41.016,194.824
1687265853.706,-59.570,-25.879,-22.461,-35.645,427.246
1687265853.710,-29.297,-20.508,-18.066,-45.410,45.410
1687265853.714,-5.859,-18.066,-19.043,-43.945,-181.641
1687265853.718,-16.602,-25.391,-24.414,-34.668,79.102
1687265853.722,-17.578,-29.785,-26.367,-23.438,176.758
1687265853.739,-14.160,-28.809,-24.902,-36.621,-175.781
1687265853.743,-22.949,-28.320,-27.832,-35.156,-172.363
1687265853.747,-55.176,-28.320,-29.297,-40.527,-78.613
1687265853.751,-47.363,-24.902,-32.227,-44.434,-156.250
1687265853.755,-23.926,-29.785,-32.227,-27.344,-225.098
1687265853.759,-26.367,-34.668,-34.668,-30.762,-89.355
1687265853.763,-26.367,-34.668,-34.668,-38.574,176.758
1687265853.766,-31.738,-37.109,-31.738,-27.832,20.020
1687265853.770,-32.715,-35.645,-28.320,-22.949,-197.754
1687265853.774,-32.715,-33.203,-23.438,-23.926,-9.766
1687265853.778,-28.320,-35.156,-24.414,-21.484,115.723
1687265853.782,-17.090,-34.180,-23.926,-10.254,-80.566
1687265853.784,-9.277,-26.855,-20.996,-14.648,-144.043
1687265853.788,-20.508,-27.832,-18.555,-24.902,-81.543
1687265853.792,-52.734,-31.738,-19.531,-15.625,-35.645
1687265853.796,-39.062,-31.250,-20.508,-20.996,-124.023
1687265853.800,-23.438,-31.250,-23.438,-23.926,-156.250
1687265853.804,-24.414,-33.203,-23.926,-17.578,120.605
1687265853.808,-15.625,-35.156,-23.438,-23.438,173.828
1687265853.811,-25.879,-33.203,-27.344,-16.602,22.461
1687265853.815,-32.227,-32.227,-24.414,-20.508,-39.062
1687265853.819,-21.973,-30.762,-22.949,-41.016,68.848
1687265853.823,-22.461,-30.762,-16.113,-32.715,411.133
1687265853.827,-18.066,-25.391,-16.113,-12.207,128.418
1687265853.829,-18.555,-18.066,-18.066,-9.766,-211.426
1687265853.833,-19.043,-21.484,-20.508,-12.207,-167.969
1687265853.837,-24.414,-23.926,-26.367,-12.207,-205.078
1687265853.841,-30.273,-24.902,-26.367,-21.973,-243.652
1687265853.845,-26.367,-27.344,-24.902,-39.062,-158.203
1687265853.849,-38.574,-25.391,-23.926,-20.996,23.926
1687265853.853,-35.645,-25.391,-29.785,-8.301,19.043
1687265853.856,-19.043,-27.832,-30.273,-20.508,-72.754
1687265853.860,-27.344,-29.297,-33.203,-19.531,-51.758
1687265853.864,-31.738,-34.180,-35.156,-25.879,180.176
1687265853.868,-40.039,-32.715,-31.250,-39.551,68.359
1687265853.872,-37.109,-26.367,-29.297,-43.457,-174.316
1687265853.874,-27.344,-34.668,-31.738,-51.758,-87.891
1687265853.878,-41.992,-34.668,-28.320,-42.969,-39.551
1687265853.882,-24.414,-33.691,-20.996,-30.762,-136.230
1687265853.886,-12.207,-30.762,-24.902,-28.809,-193.848
1687265853.890,-25.879,-26.367,-27.344,-30.762,-89.355
1687265853.894,-40.039,-29.297,-27.344,-32.715,30.762
1687265853.898,-47.363,-31.250,-29.297,-36.133,-29.785
1687265853.901,-32.227,-35.156,-32.227,-36.133,-71.777
1687265853.905,-31.250,-37.109,-29.785,-41.504,166.016
1687265853.909,-38.574,-38.086,-27.832,-41.016,395.996
1687265853.913,-39.551,-35.645,-25.391,-36.133,43.945
1687265853.917,-46.387,-32.227,-26.855,-43.945,-193.359
1687265853.920,-59.570,-31.738,-30.762,-51.270,-142.578
1687265853.924,-57.617,-37.598,-26.855,-43.945,-88.379
1687265853.928,-49.316,-40.527,-34.180,-42.480,-78.613
1687265853.932,-46.387,-39.062,-35.645,-45.898,-69.824
1687265853.936,-41.992,-37.109,-25.391,-40.039,-8.301
1687265853.940,-36.133,-36.133,-23.926,-32.715,-15.625
1687265853.944,-26.367,-32.715,-25.391,-31.738,-55.176
1687265853.947,-22.461,-30.273,-25.391,-31.738,-7.812
1687265853.951,-31.738,-30.762,-27.344,-28.320,185.059
1687265853.955,-29.297,-32.227,-28.809,-24.902,14.648
1687265853.959,-4.395,-30.762,-29.297,-30.273,-203.125
1687265853.963,-1.953,-35.156,-27.344,-34.668,-117.188
1687265853.965,-0.977,-47.363,-29.297,-23.438,-90.332
1687265853.969,14.160,-33.203,-40.527,-18.555,-172.363
1687265853.973,5.371,-16.602,-44.922,-32.715,-173.340
1687265853.977,-28.809,-20.508,-40.039,-41.992,-109.375
1687265853.981,-54.199,-18.555,-37.109,-26.367,-79.102
1687265853.985,-48.340,-16.113,-35.156,-13.672,3.906
1687265853.989,-44.434,-14.160,-35.645,-34.180,-45.410
1687265853.992,-37.109,-13.184,-37.598,-32.227,182.129
1687265853.996,-35.156,-12.207,-40.039,-32.227,550.781
1687265854.000,-39.551,-4.395,-40.039,-43.945,134.277
1687265854.004,-35.156,-10.742,-36.621,-36.133,-233.398
1687265854.008,-18.066,-17.578,-38.574,-28.320,-2.930
1687265854.010,-9.766,-17.578,-40.527,-33.203,-8.301
1687265854.014,-18.555,-15.625,-44.434,-59.570,-208.008
1687265854.018,-28.809,-11.719,-49.805,-62.500,-149.902
1687265854.022,-33.691,-12.207,-42.480,-58.594,-83.984
1687265854.026,-37.109,-18.066,-41.504,-57.129,-127.930
1687265854.030,-32.227,-23.438,-47.852,-41.992,-105.957
1687265854.034,-18.555,-22.461,-51.758,-30.273,30.762
1687265854.037,-17.578,-19.043,-48.828,-37.598,266.602
1687265854.041,-18.555,-20.020,-43.945,-52.246,126.953
1687265854.045,-14.648,-21.973,-46.875,-56.152,-167.969
1687265854.049,-14.648,-18.066,-44.922,-48.828,6.348
1687265854.053,-26.367,-20.996,-41.504,-43.457,97.656
1687265854.055,-23.438,-24.414,-37.109,-24.414,-151.367
1687265854.059,-16.113,-21.484,-32.715,-12.695,-164.551
1687265854.063,-19.531,-23.438,-37.598,-32.715,-27.344
1687265854.067,-14.160,-25.391,-41.504,-41.016,-80.566
1687265854.071,-8.301,-27.344,-41.016,-33.691,-110.352
1687265854.075,-33.691,-21.973,-39.551,-27.344,-67.871
1687265854.079,-28.809,-16.113,-40.039,-32.715,179.688
1687265854.082,-6.836,-18.555,-39.062,-44.922,325.195
1687265854.086,-9.277,-24.902,-36.621,-45.410,-43.945
1687265854.090,-17.578,-21.484,-34.668,-39.062,-189.453
1687265854.094,-28.809,-20.020,-31.738,-39.062,-14.648
1687265854.098,-42.480,-25.879,-35.645,-33.691,-30.762
1687265854.099,-43.457,-28.320,-36.621,-27.344,-176.758
1687265854.103,-29.785,-25.391,-30.762,-32.715,-170.898
1687265854.107,-21.973,-20.020,-34.668,-32.715,28.809
1687265854.111,-26.855,-24.902,-34.180,-33.691,5.859
1687265854.115,-25.879,-31.738,-25.391,-37.598,-182.617
1687265854.119,-24.902,-31.738,-26.855,-41.992,-12.695
1687265854.123,-36.133,-29.297,-28.809,-25.391,405.762
1687265854.126,-17.090,-26.855,-22.949,-10.254,283.691
1687265854.130,-2.930,-24.902,-20.020,-26.855,-179.199
1687265854.134,-16.113,-29.297,-21.973,-39.062,-181.641
1687265854.138,-15.625,-31.738,-20.996,-19.531,-147.461
1687265854.142,-21.484,-33.691,-22.461,-19.531,-183.105
1687265854.145,-21.484,-31.250,-23.926,-23.438,-149.902
1687265854.149,-13.184,-26.855,-22.461,-16.113,-11.230
1687265854.153,-14.160,-27.344,-25.879,-25.391,15.625
1687265854.157,-12.207,-31.250,-27.832,-31.738,-135.742
1687265854.161,-18.066,-34.668,-28.320,-40.039,-178.223
1687265854.165,-25.391,-28.809,-23.438,-35.645,-76.172
1687265854.169,-13.184,-29.785,-21.973,-18.066,-2.441
1687265854.172,-19.043,-27.344,-25.391,-16.113,-38.086
1687265854.176,-12.207,-21.973,-25.879,-14.648,-103.027
1687265854.180,5.859,-27.832,-18.555,2.930,74.219
1687265854.184,-1.465,-29.297,-19.043,0.977,255.371
1687265854.188,-19.043,-22.949,-21.973,-14.648,-82.520
1687265854.205,-18.066,-17.578,-24.902,-22.461,-231.445
1687265854.209,-26.367,-15.625,-21.484,-23.926,-136.719
1687265854.213,-26.855,-16.602,-17.090,-24.902,-168.457
1687265854.217,-4.395,-16.602,-26.855,-32.227,-152.832
1687265854.221,-16.113,-16.602,-27.344,-39.062,-50.781
1687265854.225,-28.809,-20.996,-22.949,-35.156,182.617
1687265854.229,-31.738,-23.438,-29.785,-29.297,185.059
1687265854.232,-44.922,-23.926,-37.109,-24.414,-142.090
1687265854.236,-29.785,-29.785,-30.273,-18.555,-120.117
1687265854.240,-17.090,-32.715,-21.484,-21.484,64.453
1687265854.244,-20.020,-26.367,-25.879,-24.414,-92.285
1687265854.248,-25.391,-27.344,-29.297,-14.160,-205.566
1687265854.249,-45.898,-32.227,-31.250,-19.043,-48.828
1687265854.253,-44.434,-28.809,-30.273,-38.086,-38.574
1687265854.257,-37.598,-30.762,-26.367,-39.062,-159.668
1687265854.261,-29.785,-29.785,-25.879,-26.367,-131.836
1687265854.265,-12.207,-23.926,-21.973,-8.789,-20.996
1687265854.269,-3.906,-25.879,-22.949,-12.695,33.691
1687265854.273,-19.043,-27.832,-22.949,-21.973,-10.254
1687265854.276,-35.156,-28.809,-21.484,-13.672,60.059
1687265854.280,-50.293,-28.320,-27.344,-18.555,192.871
1687265854.284,-47.852,-26.855,-26.855,-25.879,453.613
1687265854.288,-31.250,-25.879,-28.320,-30.762,194.824
1687265854.292,-28.320,-24.902,-29.785,-42.480,-250.000
1687265854.295,-31.738,-26.367,-28.809,-53.223,-208.008
1687265854.299,-40.527,-28.320,-24.902,-50.781,-194.336
1687265854.303,-51.270,-34.180,-24.902,-49.316,-241.699
1687265854.307,-54.199,-35.645,-33.691,-39.551,-193.359
1687265854.311,-44.434,-31.250,-35.645,-42.480,-91.797
1687265854.315,-39.551,-28.809,-31.738,-52.734,-15.137
1687265854.319,-44.434,-26.367,-29.297,-47.363,-52.734
1687265854.322,-46.875,-27.344,-25.391,-41.016,-74.219
1687265854.326,-31.250,-27.344,-26.855,-37.109,126.953
1687265854.330,-20.020,-30.273,-29.297,-44.922,34.180
1687265854.334,-34.668,-33.203,-27.344,-38.086,-185.059
1687265854.338,-40.527,-30.273,-30.273,-45.410,-26.855
1687265854.339,-40.527,-29.785,-28.809,-69.336,205.078
1687265854.343,-37.109,-27.832,-25.879,-43.945,-8.301
1687265854.347,-35.645,-22.949,-23.926,-25.391,-177.246
1687265854.351,-28.809,-20.020,-26.367,-32.715,-40.527
1687265854.355,-23.926,-22.949,-32.715,-29.297,-21.973
1687265854.359,-39.551,-29.297,-30.762,-35.645,-100.586
1687265854.363,-32.227,-31.250,-30.273,-42.969,-63.477
1687265854.366,-30.762,-31.738,-29.297,-39.551,215.332
1687265854.370,-52.734,-31.738,-26.367,-27.832,485.352
1687265854.374,-27.832,-26.855,-28.320,-31.250,79.590
1687265854.378,-24.414,-27.832,-26.367,-38.086,-220.215
1687265854.382,-53.223,-33.203,-27.344,-36.621,-79.590
1687265854.384,-41.016,-32.227,-30.762,-40.039,-79.102
1687265854.388,-39.062,-33.203,-30.273,-39.062,-201.172
1687265854.392,-29.785,-35.645,-28.320,-34.180,-187.012
1687265854.396,-26.855,-34.668,-31.250,-28.809,-138.184
1687265854.400,-38.574,-28.809,-32.715,-27.832,-145.996
1687265854.404,-38.574,-29.297,-29.785,-44.922,-118.164
1687265854.408,-30.762,-31.250,-31.738,-41.504,20.508
1687265854.411,-18.555,-31.738,-33.203,-21.484,218.262
1687265854.415,-11.719,-30.273,-28.320,-31.738,16.113
1687265854.419,-9.277,-29.785,-24.414,-34.668,-196.777
1687265854.423,-32.715,-34.180,-24.414,-37.598,-135.254
1687265854.427,-34.668,-31.250,-24.902,-51.270,-80.078
1687265854.430,-22.949,-27.344,-30.273,-45.410,-124.512
1687265854.434,-31.250,-30.762,-30.273,-36.621,-101.562
1687265854.438,-26.367,-34.180,-25.391,-32.227,93.262
1687265854.442,-26.367,-36.133,-26.855,-38.574,93.262
1687265854.446,-36.621,-36.621,-30.273,-36.133,-134.766
1687265854.450,-41.016,-32.227,-29.297,-45.410,-111.328
1687265854.454,-46.875,-24.902,-26.855,-39.062,202.637
1687265854.457,-39.062,-21.484,-29.785,-29.785,340.820
1687265854.461,-22.461,-20.996,-25.391,-32.227,-27.832
1687265854.465,-18.555,-23.926,-24.414,-25.391,-218.750
1687265854.469,-27.344,-25.879,-32.715,-37.109,3.418
1687265854.473,-20.020,-23.438,-31.738,-29.785,6.348
1687265854.475,-35.156,-23.926,-28.320,-37.598,-223.145
1687265854.479,-38.086,-26.367,-25.391,-43.945,-184.570
1687265854.483,-29.785,-29.785,-23.926,-35.156,-118.652
1687265854.487,-35.156,-29.785,-30.273,-38.574,-96.680
1687265854.491,-39.062,-29.785,-29.297,-35.645,-58.105
1687265854.495,-39.062,-29.297,-23.438,-28.809,42.480
1687265854.499,-29.785,-31.250,-28.320,-33.691,411.133
1687265854.502,-29.785,-32.715,-36.621,-29.297,293.457
1687265854.506,-27.832,-34.668,-33.203,-29.297,-195.801
1687265854.510,-22.461,-36.133,-25.879,-29.785,-188.477
1687265854.514,-20.020,-34.180,-27.832,-20.508,-150.879
1687265854.518,-22.461,-27.832,-38.086,-27.832,-180.664
1687265854.519,-13.184,-22.949,-41.016,-29.297,-152.344
1687265854.523,-12.695,-23.926,-31.250,-17.090,-49.316
1687265854.527,-22.461,-20.996,-29.297,-14.648,-41.504
1687265854.531,-27.344,-17.090,-31.738,-23.926,-133.301
1687265854.535,-41.016,-21.484,-29.297,-31.738,-119.629
1687265854.539,-24.902,-21.973,-28.809,-24.902,21.973
1687265854.543,-19.531,-24.414,-31.250,-31.738,59.082
1687265854.546,-27.832,-26.855,-31.738,-32.715,-8.789
1687265854.550,-24.414,-24.414,-29.297,-27.344,-9.766
1687265854.554,-35.645,-26.855,-28.320,-17.090,141.602
1687265854.558,-33.203,-23.926,-27.344,-6.836,393.066
1687265854.562,-18.066,-24.902,-31.738,-41.504,95.215
1687265854.579,-17.578,-30.762,-40.039,-57.617,-202.148
1687265854.583,-31.250,-28.809,-35.156,-41.016,-178.223
1687265854.587,-47.363,-33.203,-32.227,-36.133,-196.289
1687265854.591,-52.246,-38.574,-37.598,-45.410,-191.406
1687265854.595,-41.504,-31.738,-39.062,-56.641,-102.539
1687265854.599,-24.414,-34.180,-37.598,-40.039,83.496
1687265854.603,-18.066,-36.621,-31.738,-40.527,75.195
1687265854.606,-19.043,-23.438,-25.391,-49.316,-122.070
1687265854.610,-12.207,-20.020,-28.320,-27.832,-59.570
1687265854.614,-12.207,-30.273,-25.879,-19.043,293.457
1687265854.618,-16.113,-26.855,-15.625,-18.066,104.492
1687265854.622,-30.762,-33.691,-7.812,-30.762,-201.172
1687265854.624,-31.250,-39.062,-6.836,-50.781,-117.188
1687265854.628,-10.254,-40.527,-19.531,-38.574,-116.699
1687265854.632,-30.762,-45.410,-13.672,-33.203,-175.781
1687265854.636,-50.293,-39.551,-9.277,-36.621,-146.484
1687265854.640,-30.762,-35.645,-17.090,-35.156,-105.469
1687265854.644,-40.039,-35.156,-19.531,-23.438,-45.898
1687265854.648,-50.293,-33.203,-23.926,-29.297,-30.762
1687265854.651,-33.691,-31.738,-22.461,-36.621,-53.711
1687265854.655,-25.879,-31.250,-24.414,-22.461,126.953
1687265854.659,-22.949,-25.391,-23.438,-23.926,305.176
1687265854.663,-20.996,-30.762,-19.043,-32.715,-46.387
1687265854.667,-18.555,-39.062,-23.926,-30.762,-210.938
1687265854.669,-20.996,-37.598,-29.785,-24.902,-66.406
1687265854.673,-21.484,-36.133,-26.367,-8.301,-145.020
1687265854.677,-20.508,-31.250,-22.949,-11.230,-209.473
1687265854.681,-29.297,-28.809,-24.902,-24.902,-161.133
1687265854.685,-29.785,-27.832,-22.461,-5.859,-78.125
1687265854.689,1.465,-26.855,-18.066,-5.371,6.348
1687265854.693,5.371,-26.367,-20.996,-8.789,-8.301
1687265854.696,-23.438,-21.484,-27.344,-13.672,-5.859
1687265854.700,-35.156,-20.020,-28.320,-23.438,196.289
1687265854.704,-35.156,-26.855,-23.438,-27.344,68.848
1687265854.708,-32.227,-27.832,-24.414,-27.832,-163.086
1687265854.712,-34.180,-21.973,-24.902,-30.273,-114.746
1687265854.715,-24.414,-21.484,-24.902,-25.879,-138.672
1687265854.719,-31.250,-21.973,-26.855,-15.625,-96.191
1687265854.723,-32.715,-20.020,-22.949,-20.020,-60.547
1687265854.727,-21.973,-23.926,-23.438,-12.695,10.254
1687265854.731,-15.625,-25.391,-26.855,-9.766,38.574
1687265854.735,-23.926,-22.461,-27.344,-13.672,-48.340
1687265854.739,-29.785,-25.391,-22.461,-19.531,-25.879
1687265854.742,-28.320,-28.809,-19.531,-20.996,234.863
1687265854.746,-26.855,-29.297,-20.020,-24.414,429.688
1687265854.750,-29.785,-35.156,-21.484,-35.645,20.508
1687265854.754,-54.199,-37.598,-23.926,-37.109,-237.305
1687265854.758,-51.270,-32.715,-23.926,-41.016,-176.270
1687265854.759,-29.297,-27.832,-24.902,-41.016,-146.484
1687265854.763,-25.391,-29.297,-25.391,-34.180,-164.551
1687265854.767,-20.508,-30.273,-25.879,-27.832,-173.828
1687265854.771,-5.371,-33.203,-27.344,-34.180,-106.934
1687265854.775,-8.789,-35.156,-26.855,-28.809,-79.590
1687265854.779,-20.996,-29.785,-32.227,-38.086,-35.156
1687265854.783,-23.438,-28.809,-33.691,-55.176,116.211
1687265854.786,-15.137,-27.344,-29.785,-28.809,396.973
1687265854.790,-24.902,-25.879,-34.668,-19.531,232.910
1687265854.794,-41.016,-25.391,-32.227,-35.645,-161.133
1687265854.798,-50.293,-24.414,-23.926,-34.180,-95.703
1687265854.802,-55.664,-30.762,-24.902,-16.113,-109.375
1687265854.804,-41.504,-28.809,-32.715,-11.719,-186.523
1687265854.808,-34.180,-21.484,-37.109,-19.531,-172.852
1687265854.812,-35.645,-27.832,-29.297,-18.555,-105.957
1687265854.816,-43.457,-35.156,-22.949,-28.320,-92.773
1687265854.820,-37.598,-36.621,-24.902,-31.250,-109.375
1687265854.824,-27.344,-35.156,-22.461,-22.949,-55.176
1687265854.828,-36.133,-32.227,-24.414,-23.926,212.891
1687265854.831,-53.711,-34.668,-24.902,-41.504,413.086
1687265854.835,-65.430,-35.156,-20.020,-59.082,102.539
1687265854.839,-62.988,-31.738,-20.996,-53.223,-149.902
1687265854.843,-39.062,-29.785,-27.832,-41.992,58.105
1687265854.847,-25.391,-30.762,-28.320,-46.387,126.465
1687265854.849,-34.180,-27.832,-27.344,-45.410,-200.684
1687265854.853,-37.598,-25.391,-30.273,-34.180,-214.355
1687265854.857,-39.551,-26.855,-23.926,-29.785,-145.020
1687265854.861,-17.090,-27.832,-22.461,-26.855,-150.879
1687265854.865,-22.461,-30.273,-25.391,-33.203,-168.457
1687265854.869,-43.945,-26.855,-22.461,-27.344,-63.965
1687265854.873,-29.785,-16.602,-22.461,-16.113,253.418
1687265854.876,-30.273,-22.949,-23.438,-29.785,99.609
1687265854.880,-16.113,-29.297,-24.414,-33.691,-233.398
1687265854.884,-17.090,-26.855,-28.809,-19.043,-15.625
1687265854.888,-29.297,-29.297,-33.203,-9.766,130.859
1687265854.892,-21.973,-29.297,-32.715,-17.090,-90.332
1687265854.895,-31.250,-27.344,-32.227,-16.113,-146.973
1687265854.899,-27.344,-22.949,-31.738,-16.602,-81.543
1687265854.903,-20.020,-23.438,-26.855,-17.578,-87.891
1687265854.907,-28.320,-30.273,-29.785,-20.996,-133.789
1687265854.911,-42.480,-31.250,-30.273,-17.090,-140.137
1687265854.915,-20.996,-33.691,-20.020,-13.184,114.258
1687265854.919,-5.859,-29.297,-25.879,-9.766,163.574
1687265854.922,-30.273,-24.902,-30.762,-18.066,38.574
1687265854.926,-39.062,-33.691,-30.273,-23.438,-32.715
1687265854.930,-31.250,-30.273,-29.297,-25.879,82.520
1687265854.934,-31.738,-23.926,-26.367,-35.156,178.711
1687265854.938,-20.020,-21.973,-26.367,-32.715,-97.168
1687265854.955,-12.695,-20.996,-23.926,-26.367,-105.957
1687265854.959,-38.574,-20.020,-29.785,-21.973,-57.129
1687265854.963,-38.574,-19.043,-28.809,-21.973,-92.285
1687265854.967,-25.879,-22.949,-23.926,-20.508,-212.402
1687265854.971,-25.391,-22.949,-24.414,-42.480,-131.348
1687265854.975,-21.484,-21.484,-25.879,-43.945,206.543
1687265854.979,-14.160,-23.438,-24.902,-23.926,125.000
1687265854.982,-3.906,-19.043,-23.438,-26.367,-213.379
1687265854.986,-17.090,-12.207,-24.902,-25.391,-159.668
1687265854.990,-33.203,-16.113,-22.949,-26.367,45.898
1687265854.994,-24.414,-22.949,-28.809,-21.973,-88.379
1687265854.998,-5.859,-20.020,-33.691,-20.508,-194.336
1687265855.000,-15.625,-17.090,-31.250,-27.344,-59.082
1687265855.004,-47.363,-20.020,-29.785,-29.785,-64.941
1687265855.008,-42.480,-20.020,-33.203,-33.203,-65.918
1687265855.012,-21.973,-22.461,-34.668,-31.250,-78.125
1687265855.016,-28.320,-27.832,-33.691,-41.016,27.832
1687265855.020,-32.715,-26.367,-32.227,-41.992,185.059
1687265855.024,-22.461,-24.902,-28.320,-24.902,-8.789
1687265855.027,-28.809,-23.926,-24.902,-24.902,-106.445
1687265855.031,-26.367,-22.461,-24.414,-22.461,125.000
1687265855.035,-17.090,-23.926,-24.414,-20.996,356.934
1687265855.039,-17.578,-20.508,-27.832,-20.508,23.926
1687265855.043,-27.832,-14.160,-32.715,-26.855,-195.801
1687265855.045,-39.062,-11.719,-22.949,-24.902,-119.141
1687265855.049,-27.832,-15.625,-15.625,-27.832,-148.926
1687265855.053,-26.855,-21.484,-20.508,-31.250,-197.754
1687265855.057,-42.480,-23.926,-23.926,-22.461,-169.434
1687265855.061,-42.480,-25.391,-31.250,-25.879,-49.316
1687265855.065,-25.879,-22.949,-36.621,-28.809,17.578
1687265855.069,-14.648,-23.438,-34.180,-29.297,29.297
1687265855.072,-30.273,-22.949,-26.855,-28.809,22.461
1687265855.076,-36.133,-27.832,-23.438,-35.156,276.367
1687265855.080,-38.574,-31.738,-28.809,-47.852,211.426
1687265855.084,-55.176,-25.879,-31.250,-41.016,-221.191
1687265855.088,-61.523,-26.855,-28.809,-44.434,-161.621
1687265855.089,-52.246,-29.785,-28.320,-41.016,-143.066
1687265855.093,-29.785,-29.297,-23.926,-19.043,-207.031
1687265855.097,-19.531,-28.320,-21.973,-22.949,-145.996
1687265855.101,-31.738,-28.320,-20.508,-22.461,-116.699
1687265855.105,-34.180,-29.785,-22.461,-16.113,-97.168
1687265855.109,-35.645,-32.715,-25.391,-14.160,-15.137
1687265855.113,-34.668,-33.691,-24.414,-11.230,42.480
1687265855.116,-30.273,-23.926,-24.902,-21.973,210.449
1687265855.120,-23.438,-19.043,-27.344,-16.602,441.406
1687265855.124,-29.785,-20.996,-28.809,-11.719,41.992
1687265855.128,-29.297,-22.461,-28.809,-21.973,-282.715
1687265855.132,-20.996,-29.297,-31.250,-28.809,-97.168
1687265855.134,-28.809,-32.715,-30.273,-31.250,-109.863
1687265855.138,-37.109,-31.250,-28.320,-33.203,-210.449
1687265855.142,-40.039,-29.297,-26.855,-23.438,-156.250
1687265855.146,-27.832,-29.785,-23.926,-12.207,-137.695
1687265855.150,-19.043,-32.715,-26.367,-34.668,-151.367
1687265855.154,-35.156,-28.809,-33.691,-43.945,-88.379
1687265855.158,-41.504,-26.855,-30.762,-28.320,56.152
1687265855.161,-30.273,-31.738,-32.715,-22.461,254.883
1687265855.165,-24.414,-31.250,-36.621,-27.832,67.383
1687265855.169,-17.578,-31.250,-26.855,-53.223,-100.098
1687265855.173,-34.668,-32.227,-20.508,-53.711,47.852
1687265855.177,-60.059,-33.691,-15.625,-27.832,24.902
1687265855.179,-52.734,-33.691,-14.648,-24.414,-99.121
1687265855.183,-42.969,-32.227,-20.508,-18.555,-174.805
1687265855.187,-33.203,-27.832,-23.438,-14.648,-138.672
1687265855.191,-34.668,-24.414,-23.438,-31.738,-96.680
1687265855.195,-24.414,-26.855,-25.879,-41.016,-148.438
1687265855.199,-15.625,-27.344,-27.344,-41.016,-124.512
1687265855.203,-29.297,-30.762,-23.926,-37.109,215.332
1687265855.206,-33.203,-31.738,-22.949,-28.320,376.953
1687265855.210,-17.578,-23.438,-21.484,-17.578,-23.926
1687265855.214,-19.531,-20.508,-23.438,-30.273,-211.914
1687265855.218,-47.363,-25.879,-23.438,-25.391,4.395
1687265855.222,-42.969,-32.715,-26.367,-10.254,32.227
1687265855.240,-29.785,-35.645,-24.414,-23.926,-165.527
1687265855.244,-33.203,-29.785,-20.996,-31.738,-137.695
1687265855.248,-30.273,-28.809,-23.438,-36.133,-22.949
1687265855.252,-16.113,-30.762,-26.367,-39.062,-72.754
1687265855.256,-6.836,-21.973,-30.273,-42.969,-174.805
1687265855.260,-20.020,-20.020,-27.344,-38.086,-15.625
1687265855.264,-23.926,-21.973,-32.715,-30.762,247.559
1687265855.267,-34.668,-19.531,-36.133,-26.855,29.297
1687265855.271,-43.457,-19.043,-28.809,-18.555,-235.352
1687265855.275,-34.668,-18.555,-28.320,-22.949,-93.750
1687265855.279,-21.973,-16.602,-27.344,-25.391,-30.762
1687265855.283,-2.930,-23.926,-30.762,-18.555,-141.602
1687265855.300,-5.371,-23.926,-32.227,-11.719,-166.016
1687265855.304,-22.461,-22.949,-27.344,-20.508,-100.586
1687265855.308,-20.996,-30.273,-21.484,-20.996,10.254
1687265855.312,-16.602,-27.832,-23.438,-24.902,12.695
1687265855.316,-24.414,-26.367,-31.738,-26.367,-111.816
1687265855.320,-12.207,-21.973,-28.320,-12.695,25.391
1687265855.324,-15.625,-16.602,-23.438,-13.184,101.074
1687265855.327,-18.555,-16.113,-21.484,-13.672,-3.906
1687265855.331,-14.160,-15.625,-27.832,-17.578,-46.875
1687265855.335,-30.762,-21.973,-33.691,-24.414,87.891
1687265855.339,-35.645,-27.832,-32.227,-22.949,433.594
1687265855.343,-42.969,-28.320,-34.668,-36.133,185.059
1687265855.329,-40.527,-25.391,-31.250,-33.203,-214.844
1687265855.333,-34.668,-25.391,-22.949,-17.578,-153.809
1687265855.337,-29.297,-37.109,-20.996,-31.738,-162.598
1687265855.341,-31.738,-38.574,-15.625,-43.457,-235.352
1687265855.345,-38.574,-28.320,-17.578,-47.363,-173.340
1687265855.349,-43.945,-27.344,-22.461,-41.504,-19.043
1687265855.353,-45.898,-31.250,-18.066,-33.203,4.395
1687265855.356,-39.551,-28.809,-20.508,-38.574,-52.734
1687265855.360,-39.062,-28.809,-23.926,-35.156,-30.273
1687265855.364,-35.645,-26.367,-26.367,-42.480,-3.906
1687265855.368,-40.527,-28.809,-30.762,-45.898,-93.750
1687265855.372,-47.852,-34.668,-24.414,-44.922,-160.156
1687265855.375,-35.156,-36.133,-20.996,-39.551,-20.996
1687265855.379,-33.691,-37.109,-21.973,-32.715,334.961
1687265855.383,-44.922,-33.691,-21.484,-26.367,182.129
1687265855.387,-55.176,-35.156,-27.344,-29.297,-160.645
1687265855.391,-36.621,-35.645,-32.227,-38.574,-136.719
1687265855.395,-17.578,-27.832,-26.855,-22.461,-92.773
1687265855.399,-36.621,-28.320,-24.902,-24.902,-57.617
1687265855.402,-47.852,-34.668,-24.414,-29.297,-104.980
1687265855.406,-43.945,-34.668,-24.902,-17.090,41.016
1687265855.410,-26.367,-30.273,-27.832,-14.160,449.707
1687265855.414,-1.465,-27.344,-26.367,-19.043,179.688
1687265855.418,10.254,-25.879,-26.855,-18.066,-240.723
1687265855.419,-19.043,-23.438,-29.297,-27.832,-161.621
1687265855.423,-37.598,-21.973,-27.832,-54.199,-130.859
1687265855.427,-39.551,-24.414,-29.297,-43.945,-199.707
1687265855.431,-34.180,-28.320,-31.738,-22.461,-145.508
1687265855.435,-19.531,-29.297,-31.738,-17.090,-74.219
1687265855.439,-22.949,-25.879,-31.250,-13.672,-45.898
1687265855.443,-31.738,-25.879,-34.180,-8.301,18.066
1687265855.446,-32.715,-28.809,-33.691,-6.348,33.203
1687265855.450,-21.973,-28.320,-28.320,-8.789,141.602
1687265855.454,-21.484,-28.320,-27.832,-20.508,7.812
1687265855.458,-29.785,-23.926,-31.250,-27.832,-184.082
1687265855.462,-31.738,-28.320,-33.691,-21.973,-86.426
1687265855.464,-19.531,-34.668,-34.668,-22.949,40.527
1687265855.468,-15.137,-38.574,-32.715,-34.180,-67.871
1687265855.472,-28.809,-41.992,-29.785,-37.109,-133.301
1687265855.476,-35.645,-41.504,-31.250,-31.738,-58.105
1687265855.480,-22.461,-38.574,-28.320,-35.156,-43.945
1687265855.484,-10.742,-32.715,-27.832,-38.086,-6.836
1687265855.488,-12.695,-28.320,-28.320,-25.879,-37.598
1687265855.491,-33.203,-29.297,-26.367,-15.625,125.000
1687265855.495,-40.527,-30.273,-30.273,-20.996,459.961
1687265855.499,-34.180,-26.855,-30.762,-30.273,61.035
1687265855.503,-41.504,-28.809,-30.762,-30.273,-222.656
1687265855.507,-39.551,-31.738,-34.180,-34.668,-126.953
1687265855.511,-33.203,-31.738,-41.016,-36.621,-39.551
1687265855.515,-29.297,-33.691,-38.574,-43.457,-52.246
1687265855.519,-27.832,-29.785,-35.156,-43.945,-139.160
1687265855.523,-39.062,-31.738,-35.645,-35.156,-76.660
1687265855.527,-46.875,-39.062,-33.691,-34.180,-111.328
1687265855.531,-33.203,-27.832,-30.762,-41.504,-112.305
1687265855.535,-26.367,-25.879,-27.344,-42.480,-5.371
1687265855.538,-30.762,-37.109,-26.367,-22.461,208.984
1687265855.542,-12.695,-29.785,-32.227,-22.949,100.586
1687265855.546,-20.996,-17.578,-41.504,-44.434,-146.484
1687265855.550,-36.133,-18.066,-43.945,-46.875,-38.574
1687265855.554,-19.043,-18.555,-42.969,-40.527,-25.391
1687265855.555,-18.066,-16.113,-47.852,-51.270,-134.277
1687265855.559,-29.297,-14.160,-52.246,-46.387,-163.574
1687265855.563,-16.602,-15.137,-49.805,-40.527,16.113
1687265855.567,-2.930,-12.695,-47.363,-45.410,109.863
1687265855.571,-19.531,-6.348,-45.898,-41.016,-62.988
1687265855.575,-43.945,-10.742,-41.992,-40.527,-101.562
1687265855.579,-41.504,-19.043,-39.551,-36.621,70.801
1687265855.582,-22.949,-17.578,-41.504,-51.270,424.805
1687265855.586,-28.809,-18.555,-41.504,-50.293,162.598
1687265855.590,-26.367,-17.578,-42.480,-35.645,-221.680
1687265855.594,-21.484,-16.113,-44.922,-52.246,-168.945
1687265855.598,-20.020,-14.648,-39.551,-44.922,-163.574
1687265855.599,-21.973,-18.066,-33.691,-28.809,-216.309
1687265855.603,-24.414,-24.414,-33.203,-34.180,-195.312
1687265855.607,-23.926,-29.297,-36.133,-46.875,-130.859
1687265855.611,-14.160,-32.227,-40.527,-36.621,-124.512
1687265855.615,-1.465,-28.809,-38.574,-22.949,-144.043
1687265855.619,-10.254,-23.438,-39.551,-29.297,-40.527
1687265855.623,-10.742,-18.555,-39.551,-31.250,247.559
1687265855.626,-0.977,-21.973,-31.738,-30.762,170.410
1687265855.630,-3.418,-20.996,-26.855,-39.551,-149.902
1687265855.634,4.395,-19.043,-26.367,-40.039,-72.266
1687265855.638,-4.883,-22.949,-30.762,-40.527,140.625
1687265855.642,-26.855,-19.531,-33.203,-40.039,-35.645
1687265855.644,-37.598,-15.625,-30.762,-43.945,-192.383
1687265855.648,-20.020,-21.973,-27.344,-36.133,-124.512
1687265855.652,-22.461,-24.414,-29.297,-45.898,-89.355
1687265855.656,-38.574,-21.484,-32.715,-51.270,-102.539
1687265855.660,-28.809,-25.391,-27.344,-27.832,-152.832
1687265855.664,-28.320,-30.273,-25.391,-29.785,33.691
1687265855.668,-18.555,-31.738,-26.855,-31.250,169.434
1687265855.671,-25.879,-31.250,-24.414,-31.738,-41.992
1687265855.675,-45.410,-32.227,-25.879,-41.992,-130.371
1687265855.679,-38.086,-32.715,-30.273,-36.621,120.117
1687265855.683,-38.574,-28.809,-33.203,-38.086,309.570
1687265855.687,-34.668,-25.391,-36.621,-42.969,5.859
1687265855.705,-15.137,-24.414,-29.297,-18.066,-204.590
1687265855.709,-14.648,-24.414,-26.367,-14.648,-168.945
1687265855.713,-18.066,-26.367,-32.227,-25.879,-136.230
1687265855.717,-23.926,-26.855,-25.391,-15.625,-124.512
1687265855.721,-21.484,-19.531,-20.020,-19.531,-77.637
1687265855.725,-12.207,-16.602,-23.926,-31.250,82.520
1687265855.729,-8.789,-22.949,-25.391,-32.715,25.391
1687265855.732,-27.344,-30.273,-23.926,-20.020,-155.762
1687265855.736,-39.062,-27.832,-23.438,-20.020,-74.707
1687265855.740,-21.973,-21.484,-24.902,-22.461,96.680
1687265855.744,-20.996,-22.949,-27.832,-15.137,1.953
1687265855.748,-9.277,-25.391,-29.297,-11.230,-145.020
1687265855.749,3.418,-24.414,-29.297,-18.555,-82.520
1687265855.753,11.230,-25.879,-27.344,-17.578,2.930
1687265855.757,3.906,-27.832,-29.785,-14.648,-94.238
1687265855.761,-26.367,-27.344,-26.367,-20.020,-145.508
1687265855.765,-31.250,-27.832,-20.996,-4.883,-94.238
1687265855.769,-20.508,-27.832,-25.391,-6.836,-1.953
1687265855.773,-9.277,-27.832,-31.738,-14.160,16.602
1687265855.776,-21.973,-28.320,-37.598,-20.996,-61.035
1687265855.780,-35.645,-24.902,-39.551,-30.273,93.750
1687265855.784,-35.645,-24.902,-36.621,-28.809,341.309
1687265855.788,-37.598,-22.461,-32.227,-20.020,5.859
1687265855.792,-38.574,-21.484,-25.391,-4.395,-217.285
1687265855.795,-37.109,-22.949,-21.973,-13.184,-118.652
1687265855.799,-19.531,-21.484,-26.855,-17.090,-138.184
1687265855.803,-14.160,-23.926,-30.273,-12.695,-197.754
1687265855.807,-24.414,-22.949,-29.785,-13.184,-192.383
1687265855.811,-21.973,-20.508,-25.879,-17.090,-54.688
1687265855.815,-32.715,-22.461,-21.973,-26.855,-34.668
1687265855.819,-32.715,-27.344,-20.508,-40.039,-59.570
1687265855.822,-25.879,-33.691,-20.508,-43.457,-35.645
1687265855.826,-25.879,-33.203,-23.438,-23.926,142.090
1687265855.830,-17.578,-27.832,-21.973,-9.277,62.988
1687265855.834,-3.906,-31.250,-21.973,-9.766,-148.438
1687265855.838,-27.344,-30.762,-23.438,-16.602,-112.305
1687265855.839,-45.410,-26.855,-23.438,-28.809,-109.375
1687265855.843,-35.645,-27.832,-24.902,-22.461,-134.766
1687265855.847,-32.227,-31.738,-24.902,-26.855,-115.723
1687265855.851,-16.113,-34.180,-23.438,-16.602,56.152
1687265855.855,-20.996,-32.227,-20.508,-25.391,38.086
1687265855.859,-41.992,-29.785,-25.391,-48.828,-64.941
1687265855.863,-22.949,-27.344,-29.785,-37.109,-33.691
1687265855.866,-1.465,-26.367,-25.879,-29.785,99.121
1687265855.870,3.906,-22.461,-23.926,-28.809,443.848
1687265855.874,-20.020,-19.043,-27.832,-25.879,190.430
1687265855.878,-60.547,-20.020,-28.809,-40.527,-245.117
1687265855.882,-45.898,-19.043,-37.109,-59.082,-209.473
1687265855.885,-18.066,-23.926,-37.598,-37.109,-161.621
1687265855.889,-29.785,-27.832,-22.949,-42.480,-208.008
1687265855.893,-41.992,-30.273,-18.066,-49.316,-173.828
1687265855.897,-41.016,-35.156,-19.043,-36.133,-169.922
1687265855.901,-46.875,-34.668,-25.391,-40.039,-173.828
1687265855.905,-27.344,-34.180,-24.414,-36.133,-110.352
1687265855.909,-25.391,-30.762,-22.949,-26.855,-84.473
1687265855.912,-22.461,-25.879,-31.250,-34.180,350.098
1687265855.916,-17.090,-30.762,-27.832,-38.574,254.395
1687265855.920,-45.898,-33.691,-25.391,-36.133,-255.371
1687265855.924,-33.203,-32.227,-24.414,-26.367,-187.500
1687265855.928,-25.391,-30.273,-25.391,-6.348,-145.020
1687265855.929,-45.898,-32.227,-23.926,-6.348,-235.840
1687265855.933,-41.016,-31.738,-22.461,-15.625,-232.910
1687265855.937,-38.574,-30.762,-24.414,-14.160,-127.930
1687265855.941,-34.180,-24.902,-23.926,-14.648,-105.469
1687265855.945,-26.855,-23.438,-17.578,-19.531,-126.953
1687265855.949,-19.531,-31.250,-19.531,-22.461,-102.539
1687265855.953,-23.438,-31.250,-23.926,-27.344,154.297
1687265855.956,-29.297,-31.738,-20.020,-31.250,344.238
1687265855.960,-38.086,-32.715,-20.020,-29.785,24.414
1687265855.964,-29.297,-28.320,-26.367,-32.715,-114.746
1687265855.968,-22.949,-30.273,-27.832,-39.062,135.742
1687265855.972,-31.738,-36.133,-25.879,-32.227,168.945
1687265855.974,-35.645,-35.645,-24.902,-29.785,-183.105
1687265855.978,-38.574,-35.645,-20.508,-28.320,-188.965
1687265855.982,-23.438,-33.203,-20.996,-19.531,-79.102
1687265855.986,-20.508,-33.203,-28.320,-29.785,-62.500
1687265855.990,-43.457,-28.320,-30.273,-38.574,-114.258
1687265855.994,-34.180,-26.367,-24.902,-20.020,-7.324
1687265855.998,-28.809,-32.715,-25.391,-21.973,230.957
1687265856.001,-29.297,-32.715,-28.320,-25.391,41.504
1687265856.005,-29.297,-27.832,-29.297,-32.715,-202.148
1687265856.009,-39.062,-25.391,-29.297,-25.879,-70.801
1687265856.013,-31.250,-27.832,-31.738,-17.090,113.770
1687265856.017,-36.621,-28.809,-30.273,-37.598,-46.387
1687265856.034,-43.945,-27.832,-28.320,-40.527,-165.039
1687265856.038,-28.320,-29.785,-30.762,-40.527,-2.930
1687265856.042,-16.602,-22.461,-32.227,-32.715,55.176
1687265856.046,-20.020,-24.902,-27.344,-19.043,-84.473
1687265856.050,-22.461,-36.133,-23.438,-20.508,-110.840
1687265856.054,-24.414,-33.691,-20.020,-28.809,177.246
1687265856.058,-34.180,-25.879,-26.855,-23.926,262.207
1687265856.061,-15.137,-25.879,-39.551,-31.250,84.473
1687265856.065,-18.066,-35.645,-33.203,-37.109,-37.109
1687265856.069,-40.039,-37.109,-20.996,-18.066,118.164
1687265856.073,-59.570,-39.551,-6.836,-21.973,299.316
1687265856.077,-51.270,-37.109,-10.742,-42.480,-51.270
1687265856.079,-36.621,-36.133,-19.531,-32.227,-126.953
1687265856.083,-34.668,-38.086,-16.602,-20.020,-32.715
1687265856.087,-25.879,-31.250,-19.043,-21.484,-69.824
1687265856.091,-33.691,-34.180,-23.438,-35.645,-149.902
1687265856.095,-35.156,-37.109,-24.414,-37.109,-138.184
1687265856.099,-31.738,-34.180,-21.484,-21.973,78.613
1687265856.103,-29.297,-32.715,-20.020,-18.066,111.816
1687265856.106,-30.273,-30.762,-20.508,-21.973,-35.156
1687265856.110,-24.414,-34.668,-23.438,-12.207,-85.938
1687265856.114,-7.324,-35.645,-25.879,-12.207,182.617
1687265856.118,-12.207,-32.715,-23.438,-23.926,105.957
1687265856.122,-53.711,-36.133,-23.926,-31.738,-181.152
1687265856.125,-73.242,-34.668,-31.250,-35.645,-156.738
1687265856.129,-51.270,-35.156,-36.133,-45.898,-119.141
1687265856.133,-42.969,-35.156,-35.645,-38.574,-161.621
1687265856.137,-40.039,-30.273,-31.738,-29.297,-116.211
1687265856.141,-38.086,-32.715,-31.250,-30.762,181.641
1687265856.145,-22.949,-33.203,-30.762,-29.297,206.543
1687265856.149,-16.113,-30.762,-29.785,-34.668,-43.945
1687265856.152,-28.320,-35.156,-25.879,-40.039,-57.617
1687265856.156,-26.367,-32.715,-26.367,-23.926,106.445
1687265856.160,-24.414,-26.367,-28.809,-7.812,338.867
1687265856.164,-41.504,-25.879,-30.273,-23.926,70.312
1687265856.168,-37.598,-29.297,-26.855,-25.879,-177.246
1687265856.184,-38.574,-32.227,-26.367,-20.996,-168.457
1687265856.188,-65.430,-35.645,-32.227,-34.180,-182.129
1687265856.192,-38.086,-41.504,-33.203,-29.785,-193.848
1687265856.196,-22.949,-37.109,-29.785,-14.648,-208.008
1687265856.200,-32.227,-32.227,-30.762,-17.578,-138.184
1687265856.204,-7.812,-35.645,-30.762,-16.113,-2.441
1687265856.208,-6.836,-35.645,-28.809,-16.602,50.781
1687265856.211,-27.344,-33.691,-34.180,-27.344,4.883
1687265856.215,-34.668,-36.621,-32.715,-20.020,273.438
1687265856.219,-49.805,-36.133,-25.879,-14.160,188.965
1687265856.223,-41.992,-33.691,-26.367,-37.598,-210.938
1687265856.227,-30.762,-23.926,-23.438,-41.504,-109.375
1687265856.214,-25.879,-15.625,-23.926,-32.715,-57.129
1687265856.218,-22.949,-20.508,-28.809,-34.668,-139.160
1687265856.222,-33.203,-18.555,-29.297,-44.434,-169.922
1687265856.226,-36.621,-15.625,-25.391,-44.434,-108.398
1687265856.230,-28.809,-21.484,-23.926,-44.434,-59.082
1687265856.234,-26.367,-21.973,-25.879,-39.551,-66.406
1687265856.238,-30.762,-21.484,-24.902,-25.879,7.324
1687265856.241,-31.738,-24.902,-24.414,-30.762,154.297
1687265856.245,-41.992,-25.879,-24.414,-32.227,133.301
1687265856.249,-39.551,-27.832,-27.832,-32.715,-8.301
1687265856.253,-34.180,-21.973,-32.227,-31.738,-83.496
1687265856.257,-43.457,-20.508,-35.156,-28.320,41.504
1687265856.259,-36.621,-25.391,-29.297,-22.461,419.434
1687265856.263,-32.715,-21.484,-27.344,-16.113,180.664
1687265856.267,-25.391,-24.902,-28.809,-12.695,-168.945
1687265856.271,4.883,-27.832,-27.832,-9.766,-123.535
1687265856.275,-1.465,-24.414,-27.832,-12.207,-165.527
1687265856.279,-27.832,-22.949,-28.320,-22.461,-185.547
1687265856.283,-26.367,-20.996,-27.832,-37.598,-51.758
1687265856.286,-25.391,-23.438,-33.203,-38.086,212.402
1687265856.290,-20.508,-26.367,-34.668,-27.832,49.805
1687265856.294,-24.414,-27.832,-27.344,-26.855,-235.840
1687265856.298,-40.039,-23.438,-32.227,-32.715,-161.621
1687265856.302,-28.809,-22.949,-38.574,-34.180,-61.035
1687265856.305,-27.344,-32.715,-33.203,-54.688,-113.770
1687265856.309,-46.387,-40.527,-30.273,-61.035,-183.594
1687265856.313,-35.156,-42.480,-23.926,-35.156,24.414
1687265856.317,-39.062,-35.156,-20.020,-42.969,116.211
1687265856.321,-48.340,-38.086,-23.438,-42.969,-93.750
1687265856.325,-62.500,-40.039,-27.832,-40.527,-86.914
1687265856.329,-50.293,-31.250,-26.855,-44.434,226.074
1687265856.332,-20.996,-31.250,-25.879,-38.086,434.082
1687265856.336,-30.762,-30.762,-31.250,-49.805,4.883
1687265856.340,-52.734,-26.855,-31.250,-42.969,-289.062
1687265856.344,-45.410,-20.508,-26.855,-40.527,-135.742
1687265856.348,-22.949,-21.973,-17.578,-27.832,-77.637
1687265856.350,-27.832,-26.855,-19.043,-15.137,-206.543
1687265856.354,-23.438,-27.344,-24.902,-22.949,-159.180
1687265856.358,-23.926,-27.832,-24.414,-23.438,-30.273
1687265856.362,-22.949,-24.414,-18.555,-19.531,-65.430
1687265856.366,-16.602,-27.832,-21.484,-8.301,-109.863
1687265856.370,-23.438,-27.832,-25.391,-8.301,-75.684
1687265856.374,-26.367,-27.832,-23.438,-23.438,363.770
1687265856.377,-18.066,-24.414,-25.391,-19.043,376.953
1687265856.381,-21.484,-18.555,-29.785,-14.648,-144.043
1687265856.385,-37.598,-23.438,-26.855,-24.414,-163.574
1687265856.389,-43.945,-22.461,-24.414,-37.598,-125.977
1687265856.393,-39.551,-25.879,-24.414,-32.227,-186.035
1687265856.394,-40.039,-30.762,-22.461,-25.879,-206.055
1687265856.398,-37.598,-27.344,-25.391,-46.387,-131.836
1687265856.402,-27.344,-22.949,-29.297,-47.363,-67.383
1687265856.406,-24.902,-24.902,-30.273,-36.133,-117.188
1687265856.410,-39.551,-25.391,-29.297,-42.969,-127.441
1687265856.414,-49.316,-24.902,-28.320,-47.363,151.855
1687265856.418,-41.992,-30.273,-26.855,-53.711,453.613
1687265856.421,-32.715,-28.809,-25.391,-46.387,169.434
1687265856.425,-20.020,-23.926,-26.855,-36.133,-131.348
1687265856.429,-30.762,-22.949,-31.738,-37.109,-13.184
1687265856.433,-38.574,-27.344,-32.227,-42.480,38.574
1687265856.437,-28.320,-29.297,-33.691,-41.992,-207.520
1687265856.454,-39.551,-31.738,-33.203,-28.320,-181.641
1687265856.458,-55.664,-33.691,-29.785,-29.297,-110.352
1687265856.462,-45.898,-32.715,-25.391,-33.203,-137.695
1687265856.466,-45.898,-35.156,-26.855,-36.133,-176.270
1687265856.470,-27.344,-33.691,-26.855,-38.574,-139.648
1687265856.474,-11.230,-36.621,-25.879,-34.180,29.785
1687265856.478,-17.578,-36.621,-30.273,-36.133,70.801
1687265856.481,-3.906,-23.926,-35.645,-26.367,-17.578
1687265856.485,-9.766,-20.508,-41.016,-20.508,-48.340
1687265856.489,-21.484,-26.367,-33.691,-21.973,208.496
1687265856.493,-23.926,-29.297,-25.879,-41.016,169.434
1687265856.497,-27.344,-31.738,-26.855,-43.457,-92.773
1687265856.499,-24.414,-31.738,-25.391,-33.691,-49.316
1687265856.503,-51.270,-34.180,-22.949,-47.852,-34.668
1687265856.507,-62.988,-39.551,-27.344,-39.551,-119.141
1687265856.511,-55.176,-36.133,-25.391,-40.527,-193.848
1687265856.515,-48.340,-29.297,-30.273,-38.574,-139.648
1687265856.519,-35.156,-28.809,-31.738,-25.391,-8.789
1687265856.523,-31.738,-26.367,-25.391,-23.438,-18.555
1687265856.526,-36.621,-26.367,-23.926,-23.926,-79.102
1687265856.530,-33.203,-29.785,-23.438,-27.832,76.172
1687265856.534,-44.434,-33.691,-20.508,-34.180,446.777
1687265856.538,-55.176,-32.227,-24.902,-36.621,211.426
1687265856.542,-55.176,-26.855,-21.484,-34.668,-206.055
1687265856.544,-58.594,-26.855,-18.555,-32.715,-185.547
1687265856.548,-48.828,-28.320,-22.461,-39.062,-166.504
1687265856.552,-36.133,-31.250,-27.344,-61.523,-151.855
1687265856.556,-34.668,-31.738,-25.391,-55.176,-150.391
1687265856.560,-32.715,-30.273,-20.996,-40.039,-122.559
1687265856.564,-45.898,-30.762,-23.438,-42.969,-55.664
1687265856.568,-48.828,-29.785,-20.508,-41.992,-11.719
1687265856.571,-39.551,-28.809,-22.949,-41.992,-65.430
1687265856.575,-38.574,-29.297,-30.273,-29.297,155.273
1687265856.579,-38.574,-31.250,-29.297,-32.227,92.285
1687265856.583,-39.062,-31.738,-26.855,-53.711,-220.703
1687265856.587,-37.109,-36.133,-30.273,-41.504,-20.996
1687265856.589,-38.574,-35.645,-26.855,-30.762,82.520
1687265856.593,-34.668,-32.227,-21.973,-34.668,-138.184
1687265856.597,-39.062,-33.691,-24.414,-28.320,-205.078
1687265856.601,-41.016,-26.855,-28.809,-24.902,-150.391
1687265856.605,-26.855,-27.344,-26.367,-28.320,-105.957
1687265856.609,-23.438,-27.344,-23.438,-24.902,-68.848
1687265856.613,-20.996,-22.461,-22.461,-20.996,-82.520
1687265856.616,-10.742,-21.973,-20.020,-8.301,103.027
1687265856.620,-19.531,-20.020,-20.996,-4.395,360.352
1687265856.624,-17.090,-20.508,-24.902,-5.859,51.270
1687265856.628,-5.371,-25.391,-30.273,-11.230,-233.887
1687265856.632,-26.367,-30.762,-35.645,-27.344,-124.023
1687265856.635,-29.785,-33.691,-33.691,-31.738,-46.875
1687265856.639,-22.949,-31.250,-29.785,-34.180,-123.047
1687265856.643,-23.926,-24.414,-28.809,-39.062,-97.656
1687265856.647,-23.438,-23.438,-29.785,-30.762,70.801
1687265856.651,-16.602,-26.855,-25.879,-34.668,-17.578
1687265856.655,-14.648,-31.738,-22.949,-41.016,-112.305
1687265856.659,-41.992,-33.203,-27.832,-45.898,-20.020
1687265856.662,-43.457,-30.762,-24.902,-39.062,205.078
1687265856.666,-33.691,-27.832,-24.414,-24.414,126.953
1687265856.670,-27.832,-24.414,-25.879,-20.996,-182.617
1687265856.674,-20.020,-23.438,-23.438,-22.949,-180.664
1687265856.678,-13.184,-27.344,-25.391,-42.969,-125.977
1687265856.679,-22.461,-20.020,-31.250,-31.250,-133.301
1687265856.683,-35.645,-17.090,-28.809,-32.715,-155.762
1687265856.687,-30.762,-20.996,-25.391,-44.922,-67.871
1687265856.691,-27.344,-24.902,-24.414,-30.762,-36.133
1687265856.695,-26.367,-31.250,-23.438,-39.062,-25.879
1687265856.699,-22.949,-30.273,-22.461,-37.109,-6.348
1687265856.703,-2.930,-22.949,-24.902,-12.207,134.277
1687265856.706,-5.859,-23.438,-32.715,-23.926,490.723
1687265856.710,-28.320,-31.738,-31.738,-40.039,173.828
1687265856.714,-43.945,-35.156,-25.879,-34.180,-220.703
1687265856.718,-53.223,-39.551,-31.738,-30.273,-96.680
1687265856.722,-28.809,-37.109,-30.762,-18.066,-102.051
1687265856.724,-25.879,-35.645,-21.973,-32.715,-148.438
1687265856.728,-43.945,-38.574,-22.949,-54.199,-140.625
1687265856.732,-51.270,-38.086,-25.879,-43.457,-101.074
1687265856.736,-41.504,-36.133,-27.344,-46.875,-96.680
1687265856.740,-35.645,-35.156,-25.879,-40.039,-186.035
1687265856.744,-20.020,-30.273,-25.879,-35.156,-42.480
1687265856.748,-12.207,-28.809,-30.273,-42.480,267.578
1687265856.751,-26.855,-30.273,-28.809,-36.133,138.672
1687265856.755,-21.484,-28.320,-25.879,-27.832,-189.941
1687265856.759,-31.738,-31.738,-21.484,-18.066,-157.227
1687265856.763,-21.973,-28.809,-23.926,-19.531,27.344
1687265856.767,-3.418,-25.879,-29.785,-25.391,-111.328
1687265856.784,-13.184,-32.227,-26.367,-5.859,-211.914
1687265856.788,-31.738,-31.250,-20.996,-5.859,-117.188
1687265856.792,-11.719,-27.832,-21.484,-23.438,-94.727
1687265856.796,-16.602,-33.203,-25.879,-24.414,-131.348
1687265856.800,-39.062,-36.133,-23.926,-15.137,-155.273
1687265856.804,-26.367,-26.367,-32.715,-27.832,125.977
1687265856.808,-37.598,-24.414,-35.645,-42.480,209.961
1687265856.811,-46.875,-31.250,-29.297,-27.344,-19.531
1687265856.815,-41.992,-33.203,-30.762,-20.508,-93.262
1687265856.819,-15.625,-29.297,-27.832,-8.301,145.020
1687265856.823,-10.254,-26.855,-26.367,-3.418,435.059
1687265856.827,-20.508,-27.344,-28.320,-18.066,-20.508
1687265856.829,3.418,-28.809,-29.785,-20.020,-264.648
1687265856.833,-6.348,-30.762,-35.645,-13.184,-87.402
1687265856.837,-26.855,-28.809,-37.598,-23.438,-96.680
1687265856.841,-25.879,-23.926,-33.691,-29.297,-181.641
1687265856.845,-35.156,-27.344,-31.738,-22.949,-102.539
1687265856.849,-27.344,-32.715,-38.574,-25.391,24.902
1687265856.853,-18.555,-33.691,-40.039,-31.250,-48.340
1687265856.856,-17.578,-32.227,-40.039,-45.898,-161.621
1687265856.860,-34.180,-35.156,-42.969,-41.992,-112.305
1687265856.864,-40.039,-36.621,-33.691,-29.297,181.152
1687265856.868,-39.551,-32.715,-25.879,-23.438,95.703
1687265856.872,-34.180,-31.738,-23.438,-30.273,-184.570
1687265856.875,-32.227,-35.156,-28.809,-36.133,-26.855
1687265856.879,-35.156,-32.227,-32.227,-20.020,82.520
1687265856.883,-34.668,-29.297,-29.785,-22.461,-86.426
1687265856.887,-36.133,-35.156,-29.297,-38.086,-172.363
1687265856.891,-30.762,-32.227,-25.879,-43.457,-115.234
1687265856.895,-36.621,-28.320,-25.879,-40.039,-52.246
1687265856.899,-54.199,-33.203,-27.832,-36.621,-43.945
1687265856.902,-52.246,-34.180,-31.738,-44.922,-55.176
1687265856.906,-39.062,-31.250,-33.203,-52.246,95.703
1687265856.910,-41.504,-28.320,-28.809,-32.715,360.352
1687265856.914,-44.434,-28.320,-25.391,-24.414,89.844
1687265856.918,-53.223,-24.414,-26.367,-46.387,-161.133
1687265856.920,-52.734,-28.809,-22.461,-49.316,-102.539
1687265856.924,-39.062,-31.738,-19.531,-40.527,-156.250
1687265856.928,-27.832,-23.926,-21.973,-36.133,-127.441
1687265856.932,-23.438,-19.043,-22.949,-21.973,-76.172
1687265856.936,-18.066,-19.043,-23.438,-26.855,-44.922
1687265856.940,-25.879,-16.602,-15.625,-38.086,-3.418
1687265856.944,-39.551,-14.648,-16.602,-46.387,-8.301
1687265856.947,-31.738,-17.578,-22.461,-40.039,-18.066
1687265856.951,-25.391,-20.996,-27.344,-35.156,189.453
1687265856.955,-29.785,-20.508,-32.227,-40.527,115.234
1687265856.959,-24.414,-29.785,-26.855,-43.945,-212.891
1687265856.963,-28.320,-31.738,-24.414,-56.152,-111.328
1687265856.964,-46.875,-27.832,-26.367,-55.176,25.391
1687265856.968,-63.965,-32.715,-31.738,-34.180,-121.582
1687265856.972,-42.480,-35.156,-31.738,-32.715,-193.359
1687265856.976,-35.645,-31.738,-32.715,-54.199,-122.559
1687265856.980,-27.344,-27.832,-34.180,-55.664,-148.926
1687265856.984,-16.602,-29.785,-30.762,-58.594,-160.645
1687265856.988,-39.551,-28.809,-31.738,-57.129,-72.754
1687265856.991,-38.574,-30.273,-27.344,-31.250,68.359
1687265856.995,-30.762,-30.762,-23.926,-29.297,393.066
1687265856.999,-30.762,-26.367,-17.578,-27.832,163.086
1687265857.003,-38.574,-24.414,-23.926,-27.832,-219.238
1687265857.007,-33.691,-23.926,-32.227,-27.344,-159.668
1687265857.009,-22.461,-21.973,-28.320,-23.438,-172.852
1687265857.013,-32.715,-26.367,-26.367,-39.062,-227.539
1687265857.017,-53.711,-30.273,-31.738,-50.293,-186.035
1687265857.021,-46.875,-35.156,-33.691,-46.875,-137.207
1687265857.025,-38.574,-38.574,-37.109,-52.734,-148.926
1687265857.029,-33.203,-33.691,-38.086,-48.828,-115.723
1687265857.033,-33.203,-34.668,-31.738,-51.758,-16.113
1687265857.036,-60.547,-38.086,-32.715,-41.992,269.043
1687265857.040,-73.730,-42.969,-26.367,-54.688,199.707
1687265857.044,-65.918,-50.293,-24.902,-41.016,-190.918
1687265857.048,-44.922,-31.250,-33.691,-19.043,-169.434
1687265857.052,-28.320,-11.230,-36.133,-36.133,-111.328
1687265857.054,-24.902,-15.137,-34.668,-52.246,-157.715
1687265857.058,-29.297,-23.926,-38.574,-49.805,-210.938
1687265857.062,-13.184,-17.578,-48.340,-44.922,-99.609
1687265857.066,-19.043,-8.789,-49.805,-46.387,-35.156
1687265857.070,-24.902,-8.301,-44.434,-41.992,-106.445
1687265857.074,-35.645,-12.695,-39.551,-57.129,-121.094
1687265857.078,-49.316,-16.113,-41.016,-42.480,146.973
1687265857.081,-42.480,-12.207,-45.410,-36.133,394.531
1687265857.085,-37.598,-12.207,-40.039,-52.734,17.090
1687265857.089,-34.668,-11.230,-31.250,-41.504,-235.840
1687265857.093,-32.227,-8.789,-36.621,-46.875,79.590
1687265857.097,-5.371,-4.395,-43.457,-40.527,142.090
1687265857.099,-23.926,-9.766,-43.945,-45.898,-187.988
1687265857.103,-34.180,-17.090,-35.645,-60.059,-202.637
1687265857.107,-23.438,-13.672,-36.133,-45.898,-161.621
1687265857.111,-25.879,-20.020,-38.086,-52.734,-195.312
1687265857.115,-17.578,-20.508,-33.203,-38.574,-174.805
1687265857.119,-21.484,-13.672,-36.133,-27.832,-50.293
1687265857.123,-37.598,-20.508,-29.785,-33.691,257.812
1687265857.126,-32.227,-26.855,-23.438,-30.273,137.207
1687265857.130,-13.672,-27.344,-29.297,-28.320,-203.613
1687265857.134,-23.438,-26.367,-30.273,-27.344,-130.859
1687265857.138,-35.156,-24.902,-25.879,-33.203,-61.523
1687265857.142,-25.391,-24.902,-19.531,-26.367,-143.555
1687265857.145,-28.809,-24.902,-22.949,-28.809,-88.379
1687265857.149,-31.250,-22.949,-29.297,-37.598,47.852
1687265857.153,-20.508,-18.555,-31.250,-42.969,69.336
1687265857.157,-6.836,-20.020,-34.668,-45.410,-100.098
1687265857.161,-11.230,-20.508,-29.297,-23.438,-124.023
1687265857.165,-20.508,-20.996,-24.902,-13.184,46.875
1687265857.169,-11.719,-20.020,-37.109,-25.879,44.922
1687265857.172,-20.020,-22.461,-35.645,-19.531,-85.449
1687265857.176,-28.809,-25.879,-33.691,-29.297,-82.031
1687265857.180,-20.020,-23.438,-40.039,-40.527,10.254
1687265857.184,-22.461,-20.508,-35.645,-38.086,-51.270
1687265857.188,-25.391,-21.973,-32.227,-30.273,-130.859
1687265857.205,-21.973,-27.832,-33.691,-21.973,-125.488
1687265857.209,-6.348,-21.484,-30.762,-43.457,100.586
1687265857.213,-16.602,-16.602,-26.855,-45.898,270.020
1687265857.217,-36.621,-25.879,-28.809,-31.738,-37.109
1687265857.221,-31.250,-29.785,-35.156,-20.996,-161.133
1687265857.225,-24.902,-27.344,-37.109,-18.555,24.902
1687265857.229,-30.273,-30.273,-38.574,-35.156,32.715
1687265857.232,-33.203,-29.785,-39.551,-70.801,-149.414
1687265857.236,-39.551,-26.855,-40.527,-69.824,-172.852
1687265857.240,-59.570,-32.227,-37.598,-41.992,40.039
1687265857.244,-63.965,-30.762,-33.203,-43.945,-25.391
1687265857.248,-59.082,-29.785,-32.227,-41.992,-187.012
1687265857.249,-58.105,-28.809,-28.320,-42.969,-88.379
1687265857.253,-60.547,-28.809,-28.809,-60.059,-68.359
1687265857.257,-42.969,-29.297,-26.855,-50.293,-106.934
1687265857.261,-45.410,-31.738,-26.855,-53.711,-119.141
1687265857.265,-67.383,-36.133,-29.297,-61.523,-62.012
1687265857.269,-66.895,-29.785,-29.785,-50.781,-5.371
1687265857.273,-57.129,-29.785,-30.273,-51.758,71.289
1687265857.276,-38.086,-31.250,-23.926,-47.363,66.406
1687265857.280,-40.527,-28.320,-25.391,-40.039,101.562
1687265857.284,-50.293,-29.297,-35.156,-35.645,423.340
1687265857.288,-64.941,-28.320,-31.738,-28.809,210.449
1687265857.292,-62.500,-23.438,-21.484,-29.297,-205.078
1687265857.294,-48.340,-25.879,-20.996,-31.250,-145.996
1687265857.298,-42.969,-35.156,-22.949,-49.316,-128.906
1687265857.302,-15.137,-36.133,-18.555,-32.227,-141.113
1687265857.306,-5.371,-26.855,-18.555,-14.648,-118.652
1687265857.310,-36.621,-28.320,-25.391,-38.086,-88.867
1687265857.314,-48.340,-31.250,-23.438,-31.738,-26.367
1687265857.318,-41.016,-26.367,-22.461,-21.484,-42.480
1687265857.321,-7.812,-31.738,-23.926,-14.648,-54.688
1687265857.325,-0.977,-33.691,-22.949,-14.648,292.969
1687265857.329,-15.137,-34.668,-26.855,-28.320,268.066
1687265857.333,-26.367,-35.645,-25.391,-35.156,-160.645
1687265857.337,-32.715,-26.367,-21.484,-41.016,-157.227
1687265857.339,-20.508,-25.879,-26.855,-36.133,-93.262
1687265857.343,-3.906,-24.902,-29.785,-35.645,-169.434
1687265857.347,-5.859,-23.926,-27.344,-31.738,-189.453
1687265857.351,-21.973,-29.785,-32.227,-22.461,-77.148
1687265857.355,-26.855,-27.832,-33.691,-28.320,-83.984
1687265857.359,-41.992,-24.902,-28.809,-26.367,-133.301
1687265857.363,-45.410,-27.344,-31.738,-25.391,-104.004
1687265857.366,-36.621,-32.227,-31.250,-24.414,214.355
1687265857.370,-40.039,-38.086,-21.484,-22.461,580.566
1687265857.374,-29.297,-37.109,-21.973,-25.879,210.938
1687265857.378,-40.527,-35.156,-19.043,-28.809,-57.129
1687265857.382,-63.965,-36.133,-24.414,-38.086,88.867
1687265857.384,-57.617,-36.621,-31.738,-27.832,20.020
1687265857.388,-45.410,-34.668,-23.926,-25.879,-86.426
1687265857.392,-36.133,-34.668,-19.531,-31.250,-72.754
1687265857.396,-17.090,-32.715,-19.531,-17.578,-48.340
1687265857.400,-12.207,-26.855,-20.996,-21.484,-54.199
1687265857.404,-21.973,-21.973,-21.484,-35.645,-63.965
1687265857.408,-15.137,-25.391,-22.949,-38.574,-10.254
1687265857.411,-7.324,-22.949,-25.879,-28.809,219.727
1687265857.415,3.418,-17.090,-25.391,-9.766,79.102
1687265857.419,-3.418,-19.531,-30.762,-19.531,-256.348
1687265857.423,-25.391,-19.043,-32.227,-30.762,-72.266
1687265857.427,-11.719,-22.461,-28.320,-16.602,46.875
1687265857.430,14.648,-24.414,-23.438,-12.207,-41.992
1687265857.434,-21.484,-27.344,-21.484,-20.996,-45.898
1687265857.438,-25.879,-31.250,-23.926,-12.207,58.105
1687265857.442,1.465,-26.367,-21.484,4.395,62.988
1687265857.446,-7.812,-28.320,-21.973,-10.254,-96.680
1687265857.450,-13.184,-28.320,-23.438,-32.227,-111.328
1687265857.454,-12.695,-25.879,-27.832,-18.066,81.055
1687265857.457,0.488,-26.367,-31.738,-10.742,341.309
