timestamps,TP9,AF7,AF8,TP10,Right AUX
1687269940.294,-43.457,-24.414,-33.203,-34.668,-228.027
1687269940.298,-36.133,-21.484,-29.785,-27.832,-73.242
1687269940.302,-28.809,-24.414,-25.879,-50.781,4.395
1687269940.306,-29.297,-24.902,-19.531,-43.945,-147.461
1687269940.310,-24.902,-19.531,-20.996,-26.367,-177.734
1687269940.314,-24.414,-17.578,-27.344,-25.391,-109.863
1687269940.318,-30.273,-26.367,-32.715,-25.391,-35.156
1687269940.321,-23.926,-25.391,-32.715,-25.879,-24.414
1687269940.325,-29.297,-9.277,-35.156,-16.113,-44.434
1687269940.329,-41.992,-14.648,-29.297,-21.484,148.438
1687269940.333,-51.758,-21.484,-20.508,-41.016,105.469
1687269940.337,-45.898,-15.137,-26.367,-41.992,-158.691
1687269940.340,-37.598,-16.113,-28.320,-36.621,-117.188
1687269940.344,-39.062,-19.531,-29.785,-14.160,-32.227
1687269940.348,-46.387,-23.438,-27.832,2.930,-70.801
1687269940.352,-43.945,-24.414,-21.973,-35.645,-173.828
1687269940.356,-33.203,-20.996,-21.973,-51.758,-99.609
1687269940.360,-26.855,-20.020,-22.461,-27.344,-20.508
1687269940.364,-35.156,-18.555,-26.855,-32.715,-7.812
1687269940.367,-41.992,-22.949,-26.367,-41.992,-126.465
1687269940.371,-44.922,-27.832,-24.902,-26.855,-79.102
1687269940.375,-43.457,-22.949,-31.738,-23.926,528.809
1687269940.379,-47.363,-23.438,-37.109,-40.527,383.789
1687269940.383,-59.570,-27.344,-34.180,-48.340,-197.266
1687269940.385,-62.500,-26.367,-26.367,-44.922,-129.883
1687269940.389,-59.570,-23.926,-25.391,-47.852,-108.887
1687269940.393,-57.617,-19.043,-32.715,-57.617,-138.184
1687269940.397,-58.105,-15.625,-33.203,-61.035,-152.832
1687269940.401,-65.430,-21.973,-31.738,-56.152,-23.926
1687269940.405,-75.195,-23.438,-30.762,-50.293,110.840
1687269940.409,-65.430,-18.066,-27.344,-63.965,3.906
1687269940.412,-68.359,-16.602,-31.250,-108.887,-174.805
1687269940.416,-75.195,-23.926,-24.414,-96.680,23.926
1687269940.420,-97.168,-28.320,-22.949,-94.727,198.242
1687269940.424,-128.418,-21.973,-20.996,-122.070,-94.238
1687269940.428,-119.141,-22.461,-10.254,-101.562,-89.844
1687269940.429,-116.211,-8.789,-17.090,-107.422,-63.965
1687269940.433,-153.320,9.277,-15.137,-147.949,-96.191
1687269940.437,-165.039,10.254,-13.184,-171.387,-135.742
1687269940.441,-165.039,8.301,-12.207,-169.922,-133.301
1687269940.445,-167.969,19.531,-9.277,-170.410,-31.250
1687269940.449,-175.293,22.461,-8.789,-195.312,-21.484
1687269940.453,-202.148,34.668,-10.254,-217.285,-68.848
1687269940.456,-198.242,46.875,-21.484,-215.332,-81.055
1687269940.460,-188.477,31.250,-20.020,-213.379,240.234
1687269940.464,-212.402,22.461,-9.766,-217.285,293.457
1687269940.468,-190.918,25.391,-22.461,-195.801,-150.391
1687269940.472,-167.969,23.926,-29.785,-176.758,-76.660
1687269940.475,-162.109,35.156,-35.645,-181.152,81.543
1687269940.479,-143.555,44.434,-32.227,-158.203,-118.164
1687269940.483,-125.488,25.391,-32.227,-136.230,-201.660
1687269940.487,-93.750,20.508,-46.875,-133.789,-139.648
1687269940.491,-78.613,18.066,-36.133,-96.191,-67.871
1687269940.495,-51.270,8.789,-50.781,-57.617,-35.156
1687269940.499,-41.992,-11.719,-56.641,-33.203,-53.711
1687269940.502,-34.180,-31.738,-35.156,-16.602,143.066
1687269940.506,0.977,-26.367,-43.457,-13.672,254.883
1687269940.510,17.578,-17.578,-54.688,6.836,-128.418
1687269940.514,41.016,-18.066,-45.410,47.363,-300.293
1687269940.518,43.945,-20.996,-40.039,51.270,-208.984
1687269940.519,54.688,-26.855,-48.828,26.855,-182.129
1687269940.523,72.754,-38.086,-41.504,19.043,-240.723
1687269940.527,65.918,-39.062,-38.574,42.969,-208.008
1687269940.531,50.781,-37.598,-56.152,57.617,-98.633
1687269940.535,46.387,-47.363,-51.270,57.129,-87.891
1687269940.539,83.496,-47.363,-49.805,55.176,-41.504
1687269940.543,90.820,-49.805,-52.734,54.688,21.973
1687269940.546,69.824,-59.570,-41.016,59.082,185.547
1687269940.550,56.641,-51.758,-36.133,65.430,73.730
1687269940.554,61.035,-43.457,-39.551,76.660,-167.480
1687269940.558,66.406,-55.176,-28.320,68.359,44.922
1687269940.562,50.781,-58.594,-25.391,47.363,211.914
1687269940.564,45.410,-56.152,-28.809,46.875,-126.465
1687269940.568,37.598,-47.363,-38.574,52.246,-278.809
1687269940.572,24.414,-47.852,-39.062,52.246,-169.922
1687269940.576,35.156,-55.664,-29.785,43.945,-152.344
1687269940.580,32.715,-42.480,-41.016,41.504,-151.855
1687269940.584,23.438,-42.480,-35.645,43.945,-125.977
1687269940.588,31.738,-40.527,-32.227,44.434,108.887
1687269940.591,25.391,-37.109,-36.621,31.250,171.875
1687269940.595,22.949,-40.039,-40.039,20.996,-148.438
1687269940.599,8.789,-42.969,-34.668,21.484,-202.148
1687269940.603,-14.160,-47.363,-24.414,14.160,-118.164
1687269940.607,-14.648,-41.016,-28.809,14.160,-92.285
1687269940.610,-4.395,-40.039,-21.973,23.438,-104.004
1687269940.614,10.742,-35.156,-24.902,25.391,-53.711
1687269940.618,8.789,-32.227,-41.504,28.320,28.809
1687269940.622,-2.930,-36.621,-36.621,27.344,-52.734
1687269940.626,0.000,-32.227,-34.668,33.203,-176.758
1687269940.630,19.531,-41.016,-28.809,37.109,-9.766
1687269940.634,14.648,-41.504,-26.367,2.930,256.348
1687269940.637,-6.836,-32.227,-41.016,-17.090,74.707
1687269940.641,-1.465,-26.855,-41.016,-12.695,-175.781
1687269940.645,7.324,-27.832,-35.645,-8.789,17.578
1687269940.649,-22.461,-32.227,-41.992,-8.789,229.980
1687269940.653,-38.574,-32.227,-44.434,-25.879,30.273
1687269940.669,-41.504,-33.691,-36.621,-31.250,-138.672
1687269940.673,-33.691,-29.785,-35.645,-11.230,-97.168
1687269940.677,-6.348,-27.832,-41.504,-19.043,-83.984
1687269940.681,-5.371,-28.320,-36.133,-35.645,-63.477
1687269940.685,-21.973,-18.066,-35.645,-22.949,-126.953
1687269940.689,-29.297,-23.926,-41.504,-18.066,163.574
1687269940.693,-23.438,-35.645,-33.691,-15.137,318.359
1687269940.696,-23.926,-28.320,-32.715,-25.879,-93.750
1687269940.700,-28.809,-23.438,-30.762,-38.574,-217.773
1687269940.704,-23.926,-26.367,-29.297,-21.973,-8.301
1687269940.708,-25.391,-28.320,-35.645,-18.555,17.578
1687269940.712,-22.461,-34.180,-36.133,-32.227,-145.020
1687269940.714,-28.809,-36.621,-35.156,-30.762,-113.281
1687269940.718,-43.945,-38.086,-36.133,-17.578,-82.031
1687269940.722,-36.621,-36.133,-34.668,-20.996,-105.469
1687269940.726,-37.109,-25.879,-33.203,-29.785,-125.488
1687269940.730,-23.926,-26.367,-35.156,-30.762,-90.332
1687269940.734,-12.695,-29.297,-34.180,-22.949,-34.180
1687269940.738,-29.785,-22.949,-31.250,-30.762,45.410
1687269940.741,-36.133,-20.996,-27.832,-46.387,0.000
1687269940.745,-26.855,-26.855,-33.691,-40.039,-55.664
1687269940.749,-35.645,-34.668,-31.738,-23.926,353.516
1687269940.753,-58.594,-31.738,-27.344,-30.762,345.703
1687269940.757,-45.898,-27.344,-39.062,-53.711,-122.070
1687269940.759,-36.621,-28.320,-40.039,-56.152,-138.672
1687269940.763,-39.062,-26.367,-27.832,-41.504,-60.547
1687269940.767,-37.109,-31.250,-25.391,-37.598,-131.348
1687269940.771,-42.969,-32.227,-33.203,-38.086,-165.527
1687269940.775,-26.855,-26.367,-28.809,-25.879,-143.555
1687269940.779,-23.438,-25.391,-20.996,-31.738,-67.871
1687269940.783,-32.227,-30.762,-23.438,-27.344,-70.312
1687269940.786,-33.691,-22.949,-28.809,-19.043,-114.258
1687269940.790,-40.039,-23.438,-27.344,-29.297,143.555
1687269940.794,-45.898,-35.156,-26.855,-50.293,256.348
1687269940.798,-37.109,-36.621,-32.715,-76.660,-75.195
1687269940.802,-20.020,-30.273,-36.133,-76.172,-200.195
1687269940.819,-18.066,-24.902,-39.551,-58.594,-150.879
1687269940.823,-22.461,-23.926,-42.969,-56.152,-165.039
1687269940.827,-16.113,-27.832,-35.645,-39.062,-175.293
1687269940.831,-19.043,-32.715,-22.949,-17.090,-137.207
1687269940.835,-24.414,-33.691,-23.438,-19.531,-121.582
1687269940.839,-30.762,-26.367,-36.133,-30.762,-122.559
1687269940.843,-53.711,-23.926,-33.691,-47.363,-105.469
1687269940.846,-75.195,-31.250,-24.902,-49.316,-49.805
1687269940.850,-83.008,-32.715,-29.297,-57.129,179.199
1687269940.854,-67.383,-35.156,-35.645,-43.457,155.762
1687269940.858,-76.660,-37.598,-22.949,-38.086,-42.480
1687269940.862,-68.848,-39.551,-20.508,-44.922,26.367
1687269940.850,-50.781,-36.621,-33.691,-31.738,157.715
1687269940.854,-50.781,-34.180,-30.762,-26.855,-25.391
1687269940.858,-45.898,-32.715,-33.691,-35.156,-140.625
1687269940.862,-39.551,-31.738,-33.203,-26.855,-73.242
1687269940.866,-41.016,-31.250,-31.738,-25.391,-77.148
1687269940.870,-46.387,-39.062,-27.832,-32.227,-124.512
1687269940.874,-47.852,-36.133,-25.391,-26.855,-51.758
1687269940.877,-41.016,-35.156,-24.414,-26.855,56.152
1687269940.881,-35.156,-40.039,-19.531,-33.691,-5.371
1687269940.885,-31.738,-35.645,-22.461,-30.273,-100.098
1687269940.889,-33.203,-32.715,-26.367,-16.602,-103.516
1687269940.893,-25.391,-28.809,-22.461,-28.320,25.391
1687269940.895,-18.555,-29.785,-26.855,-36.621,96.680
1687269940.899,-24.902,-34.668,-26.367,-33.691,-68.848
1687269940.903,-25.391,-31.738,-23.926,-29.785,-171.387
1687269940.907,-28.320,-31.250,-27.344,-16.602,54.688
1687269940.911,-36.621,-39.062,-29.297,-26.367,45.898
1687269940.915,-39.551,-35.156,-27.832,-43.945,-172.363
1687269940.919,-34.668,-26.367,-29.297,-26.367,-38.086
1687269940.922,-26.855,-29.785,-24.902,-14.160,182.617
1687269940.926,-23.926,-24.902,-27.832,-18.555,8.301
1687269940.930,-43.457,-16.602,-22.949,-27.832,-190.918
1687269940.934,-39.551,-22.461,-20.996,-27.832,-23.438
1687269940.938,-24.902,-30.273,-30.762,-33.203,97.168
1687269940.956,-36.133,-31.250,-33.203,-35.156,-99.609
1687269940.960,-37.109,-23.926,-38.574,-35.645,-170.410
1687269940.964,-35.156,-29.785,-34.668,-40.039,-42.480
1687269940.968,-34.668,-31.250,-32.715,-43.457,-23.926
1687269940.972,-31.250,-22.949,-34.668,-42.480,-131.836
1687269940.976,-23.438,-19.531,-38.086,-39.551,-162.109
1687269940.980,-16.113,-18.066,-38.086,-25.879,170.898
1687269940.983,-23.926,-16.113,-31.250,-28.809,370.117
1687269940.987,-42.969,-21.484,-25.391,-51.270,-24.902
1687269940.991,-49.805,-28.320,-21.484,-44.434,-159.180
1687269940.995,-56.152,-36.621,-17.578,-35.645,-77.637
1687269940.999,-51.270,-37.598,-19.043,-26.855,-114.258
1687269940.984,-43.457,-38.086,-24.414,-38.086,-146.973
1687269940.988,-46.387,-38.086,-17.090,-53.223,-99.609
1687269940.992,-55.664,-28.320,-13.672,-40.039,-37.598
1687269940.996,-54.688,-23.438,-24.902,-40.039,-94.727
1687269941.000,-48.340,-29.297,-23.438,-36.621,-167.480
1687269941.004,-47.852,-32.227,-13.672,-24.902,24.902
1687269941.008,-44.434,-29.297,-14.648,-27.832,218.262
1687269941.011,-38.086,-29.297,-25.391,-28.320,46.387
1687269941.015,-42.969,-24.414,-24.414,-13.672,-120.117
1687269941.019,-41.504,-25.391,-20.996,-13.672,11.719
1687269941.023,-27.832,-23.926,-24.414,-19.531,379.883
1687269941.027,-41.016,-25.879,-23.438,-27.344,325.684
1687269941.044,-35.645,-29.785,-23.926,-50.293,-96.680
1687269941.048,-7.812,-25.391,-20.996,-39.551,-192.871
1687269941.052,-28.809,-26.855,-18.555,-23.438,-149.902
1687269941.056,-47.852,-26.367,-21.484,-28.320,-149.414
1687269941.060,-36.133,-28.809,-26.367,-31.738,-130.371
1687269941.064,-35.156,-31.738,-26.367,-33.203,-34.180
1687269941.068,-37.598,-29.297,-28.320,-32.715,121.094
1687269941.071,-25.879,-25.879,-31.250,-24.414,82.031
1687269941.075,-30.273,-27.832,-26.855,-43.945,-105.957
1687269941.079,-33.691,-28.320,-32.227,-41.992,149.414
1687269941.083,-30.273,-26.855,-37.598,-37.598,293.945
1687269941.087,-36.133,-31.250,-32.227,-42.480,-109.375
1687269941.089,-38.086,-38.086,-32.715,-35.645,-235.840
1687269941.093,-48.828,-34.668,-28.809,-37.109,-171.875
1687269941.097,-32.715,-36.621,-23.438,-11.719,-168.457
1687269941.101,-3.418,-37.109,-34.180,-8.301,-156.250
1687269941.105,-22.949,-25.879,-41.504,-39.062,-41.992
1687269941.109,-44.434,-14.648,-42.969,-44.922,64.453
1687269941.113,-36.621,-9.277,-45.898,-43.945,-25.391
1687269941.116,-32.715,-17.090,-47.363,-51.758,-95.703
1687269941.120,-39.551,-16.113,-49.316,-52.246,-18.066
1687269941.124,-42.969,-17.578,-39.551,-40.039,414.062
1687269941.128,-49.316,-21.973,-36.133,-41.992,377.930
1687269941.132,-41.504,-14.648,-40.527,-49.316,-85.449
1687269941.136,-26.855,-17.090,-34.668,-43.457,-83.984
1687269941.140,-26.367,-19.531,-27.832,-33.691,-36.133
1687269941.144,-36.621,-19.043,-33.203,-28.320,-123.535
1687269941.148,-41.992,-28.809,-31.250,-33.691,-171.387
1687269941.152,-39.062,-26.855,-32.715,-21.484,-18.066
1687269941.156,-39.551,-22.461,-36.621,-24.414,137.695
1687269941.160,-43.457,-25.879,-34.668,-52.734,58.105
1687269941.163,-45.898,-31.250,-35.645,-49.805,-121.094
1687269941.167,-44.434,-32.715,-34.668,-38.086,22.949
1687269941.171,-40.039,-32.227,-36.133,-29.297,158.691
1687269941.175,-42.480,-32.227,-43.945,-41.504,-176.758
1687269941.179,-53.711,-27.344,-39.551,-53.223,-253.418
1687269941.179,-41.992,-29.297,-20.508,-43.457,-146.973
1687269941.183,-39.062,-30.762,-25.391,-53.711,-79.102
1687269941.187,-53.711,-24.414,-36.621,-47.363,-149.902
1687269941.191,-44.922,-26.367,-28.809,-26.367,-156.250
1687269941.195,-32.227,-29.297,-27.344,-21.484,-27.832
1687269941.199,-33.203,-32.227,-25.879,-31.250,8.789
1687269941.203,-37.598,-28.320,-26.855,-51.270,-19.531
1687269941.206,-32.715,-20.508,-30.762,-44.434,-70.801
1687269941.210,-29.785,-24.414,-37.109,-26.855,230.957
1687269941.214,-40.039,-25.879,-37.598,-17.090,340.820
1687269941.218,-41.504,-26.855,-33.691,-20.020,-89.355
1687269941.222,-28.809,-29.297,-30.273,-35.156,-47.852
1687269941.224,-26.367,-32.227,-26.855,-16.113,81.055
1687269941.228,-31.738,-27.832,-33.203,-19.531,-195.801
1687269941.232,-38.574,-34.180,-28.809,-48.340,-271.484
1687269941.236,-26.367,-33.691,-21.484,-36.133,-24.902
1687269941.240,-22.949,-25.391,-26.855,-13.672,24.902
1687269941.244,-36.133,-31.738,-31.250,-7.812,-81.543
1687269941.248,-31.738,-29.785,-36.133,-30.762,-83.984
1687269941.251,-21.973,-25.879,-32.715,-31.250,72.266
1687269941.255,-20.996,-26.855,-28.809,-18.066,228.516
1687269941.259,-39.551,-29.785,-30.762,-24.414,-69.336
1687269941.263,-30.762,-29.297,-29.297,-20.996,-181.641
1687269941.267,-19.531,-23.926,-23.438,-39.062,-103.516
1687269941.269,-24.414,-24.414,-26.367,-39.551,-127.441
1687269941.273,-23.926,-23.438,-26.367,-15.625,-169.434
1687269941.277,-20.020,-24.902,-27.344,-19.043,-102.539
1687269941.281,-17.578,-26.855,-28.320,-23.926,-57.617
1687269941.285,-18.555,-28.809,-23.926,-26.367,-92.285
1687269941.289,-26.367,-27.344,-18.066,-21.973,-113.281
1687269941.293,-42.969,-29.297,-23.926,-10.742,8.789
1687269941.296,-33.691,-27.832,-29.785,-13.672,128.418
1687269941.300,-21.484,-23.926,-22.949,-30.273,-60.547
1687269941.304,-28.320,-24.902,-23.438,-24.414,-149.414
1687269941.308,-30.273,-29.785,-26.855,-12.695,-3.418
1687269941.312,-33.691,-40.039,-22.461,-16.602,393.066
1687269941.314,-46.387,-34.180,-20.996,-20.508,304.199
1687269941.318,-49.316,-25.391,-29.297,-24.414,-124.023
1687269941.322,-35.156,-31.250,-26.855,-20.996,-143.066
1687269941.326,-39.551,-33.691,-32.715,-20.996,-109.863
1687269941.330,-33.691,-33.691,-33.691,-25.879,-104.004
1687269941.334,-15.625,-30.762,-25.391,-32.227,-88.867
1687269941.338,-18.066,-30.762,-20.020,-7.812,197.754
1687269941.341,-25.879,-23.926,-21.484,-11.719,334.473
1687269941.345,-42.969,-21.484,-26.367,-41.992,4.883
1687269941.349,-37.109,-27.344,-27.832,-36.621,-89.844
1687269941.353,-29.785,-22.949,-25.391,-29.297,-2.930
1687269941.357,-33.691,-20.996,-24.414,-10.742,-44.434
1687269941.359,-25.391,-24.414,-27.832,-19.043,-191.895
1687269941.363,-35.645,-26.367,-28.809,-38.086,-162.598
1687269941.367,-39.551,-32.715,-30.762,-25.879,-87.402
1687269941.371,-25.879,-32.227,-25.879,-28.320,-129.883
1687269941.375,-24.902,-28.320,-20.020,-33.691,-188.965
1687269941.379,-31.738,-30.273,-26.855,-20.020,-31.738
1687269941.383,-32.227,-27.832,-36.621,-23.438,215.332
1687269941.386,-38.086,-31.738,-35.645,-38.086,30.273
1687269941.390,-39.551,-35.645,-28.809,-32.715,-214.844
1687269941.394,-34.668,-29.297,-22.949,-23.438,-11.230
1687269941.398,-24.414,-28.320,-27.832,-18.066,247.559
1687269941.402,-25.391,-22.461,-32.227,-13.672,42.480
1687269941.405,-42.480,-24.902,-28.809,-22.461,-193.848
1687269941.409,-44.922,-31.250,-24.414,-35.156,-20.996
1687269941.413,-41.016,-27.344,-24.902,-47.363,32.715
1687269941.417,-29.297,-28.809,-33.691,-44.434,-160.156
1687269941.421,-28.809,-31.250,-31.738,-46.387,-158.203
1687269941.425,-38.086,-32.227,-28.320,-40.527,-45.410
1687269941.429,-47.852,-34.180,-31.250,-42.969,59.570
1687269941.432,-39.062,-40.527,-20.996,-36.621,-37.109
1687269941.436,-7.812,-41.504,-13.184,5.371,-116.211
1687269941.440,-12.695,-22.949,-29.785,-14.160,138.184
1687269941.444,-46.387,-15.625,-35.645,-38.086,128.906
1687269941.448,-43.457,-18.066,-37.109,-34.668,-192.871
1687269941.464,-38.086,-13.184,-38.574,-69.824,-212.402
1687269941.468,-51.270,-17.578,-44.434,-92.285,-56.152
1687269941.472,-62.500,-16.602,-52.734,-84.961,-40.527
1687269941.476,-58.105,-5.859,-57.129,-87.402,-191.895
1687269941.480,-58.594,-7.324,-61.523,-77.148,-105.957
1687269941.484,-78.613,-8.789,-64.941,-81.543,250.977
1687269941.488,-80.078,2.930,-64.941,-85.938,213.867
1687269941.491,-65.918,6.836,-66.406,-89.844,-66.406
1687269941.495,-71.289,8.301,-73.242,-122.070,-48.828
1687269941.499,-84.473,5.371,-72.266,-110.840,219.238
1687269941.503,-75.195,-7.812,-68.359,-94.727,34.668
1687269941.507,-79.590,-12.695,-68.848,-86.426,-215.332
1687269941.509,-76.172,-13.672,-64.453,-79.590,-89.355
1687269941.513,-54.688,-18.555,-62.988,-83.008,-106.934
1687269941.517,-45.410,-19.043,-61.523,-75.195,-210.449
1687269941.521,-44.922,-12.207,-53.711,-68.359,-206.543
1687269941.525,-52.246,-15.625,-52.734,-79.590,29.785
1687269941.529,-52.246,-23.438,-54.688,-70.801,206.543
1687269941.533,-54.199,-23.438,-50.781,-56.152,77.637
1687269941.536,-62.012,-25.391,-43.457,-69.336,-150.879
1687269941.540,-39.062,-24.902,-42.480,-53.711,1.953
1687269941.544,-10.254,-14.648,-36.621,-39.062,185.547
1687269941.548,-15.625,-9.766,-33.691,-52.734,-151.855
1687269941.552,-31.738,-18.555,-33.203,-44.434,-180.176
1687269941.554,-30.273,-25.879,-31.250,-35.156,-46.387
1687269941.558,-19.043,-22.461,-38.086,-35.156,-54.688
1687269941.562,-18.555,-24.414,-37.598,-28.320,-128.906
1687269941.566,-22.949,-26.855,-30.273,-27.344,-161.621
1687269941.570,-19.531,-26.367,-28.809,-27.832,-90.332
1687269941.574,-22.949,-28.809,-30.762,-22.461,3.906
1687269941.578,-24.902,-30.273,-30.762,-18.555,20.996
1687269941.581,-27.344,-32.227,-33.203,-27.832,80.566
1687269941.585,-29.785,-34.668,-36.133,-30.762,366.699
1687269941.589,-33.691,-33.203,-37.598,-20.020,369.141
1687269941.593,-34.668,-29.297,-38.086,-44.922,-68.848
1687269941.597,-21.484,-25.879,-30.762,-34.180,-84.961
1687269941.599,-13.672,-26.855,-27.832,-21.973,100.586
1687269941.603,-17.578,-26.367,-27.832,-34.668,-96.680
1687269941.607,-27.832,-25.391,-23.438,-23.926,-183.105
1687269941.611,-25.391,-23.438,-23.926,-16.602,-79.102
1687269941.615,-31.250,-21.484,-25.879,-24.902,-68.848
1687269941.619,-35.645,-20.508,-27.832,-36.133,-80.566
1687269941.623,-27.832,-23.438,-28.320,-38.086,-47.852
1687269941.626,-21.973,-27.344,-27.832,-32.227,115.723
1687269941.630,-19.043,-30.273,-27.344,-27.832,187.988
1687269941.634,-27.832,-27.344,-27.344,-16.602,-60.059
1687269941.638,-20.020,-23.438,-23.438,-2.930,-151.367
1687269941.642,-13.184,-21.973,-28.320,-12.207,-27.832
1687269941.644,-24.414,-20.996,-33.691,-31.250,-41.504
1687269941.648,-29.297,-21.484,-30.762,-35.645,-213.867
1687269941.652,-31.250,-21.484,-29.297,-34.180,-171.875
1687269941.656,-33.691,-20.996,-26.855,-40.527,-70.312
1687269941.660,-42.480,-24.414,-25.879,-39.551,-79.590
1687269941.664,-38.574,-25.391,-28.809,-36.621,-65.918
1687269941.668,-33.203,-26.367,-25.879,-23.438,59.082
1687269941.671,-43.945,-27.344,-25.391,-19.531,270.508
1687269941.675,-49.316,-22.949,-27.832,-32.227,68.848
1687269941.679,-38.574,-23.926,-27.344,-30.273,-154.785
1687269941.683,-31.738,-27.832,-27.344,-10.742,-2.930
1687269941.687,-39.062,-24.414,-27.832,-3.418,67.383
1687269941.689,-32.715,-23.926,-26.855,-20.996,-166.504
1687269941.693,-23.438,-28.320,-23.438,-41.016,-289.551
1687269941.697,-30.762,-27.344,-18.555,-35.645,-37.598
1687269941.701,-31.738,-25.879,-16.113,-5.859,51.758
1687269941.705,-37.598,-24.414,-16.113,-19.043,-119.629
1687269941.709,-41.016,-19.531,-17.578,-35.156,-50.293
1687269941.713,-31.738,-21.484,-20.996,-19.043,220.703
1687269941.716,-39.062,-27.344,-23.926,-10.254,243.652
1687269941.720,-41.504,-23.926,-24.414,-24.414,-117.676
1687269941.724,-43.457,-25.879,-23.926,-37.109,-199.707
1687269941.728,-39.062,-30.762,-24.902,-20.020,-142.090
1687269941.732,-18.555,-25.391,-25.391,-32.227,-165.527
1687269941.735,-20.508,-28.320,-22.461,-34.668,-193.359
1687269941.739,-12.695,-35.645,-15.625,-18.066,-132.324
1687269941.743,-23.438,-28.320,-16.113,-10.254,-16.113
1687269941.747,-73.730,-20.996,-20.020,12.207,-30.762
1687269941.751,-68.359,-17.090,-26.855,-17.578,-111.816
1687269941.755,-65.918,-15.137,-42.480,-84.473,-54.688
1687269941.759,-82.520,-12.207,-44.434,-114.746,274.902
1687269941.762,-70.312,-10.742,-44.434,-116.211,136.719
1687269941.766,-65.918,-16.602,-45.410,-112.793,-253.906
1687269941.770,-65.430,-25.391,-38.086,-72.754,15.137
1687269941.774,-68.848,-26.855,-32.227,-55.664,266.602
1687269941.778,-48.340,-24.414,-28.320,-62.988,-41.016
1687269941.779,-20.020,-32.715,-32.715,-62.500,-235.352
1687269941.783,-4.883,-30.273,-35.156,-55.176,-131.348
1687269941.787,7.812,-21.973,-34.180,-53.711,-104.004
1687269941.791,0.488,-30.762,-37.598,-49.316,-143.555
1687269941.795,-6.348,-31.250,-33.691,-41.992,-134.277
1687269941.799,-16.602,-26.855,-25.879,-33.691,159.668
1687269941.803,-30.273,-30.273,-25.879,-24.902,308.105
1687269941.806,-38.574,-30.273,-27.832,-20.508,-68.359
1687269941.810,-39.062,-25.391,-32.227,-17.578,-242.188
1687269941.814,-39.062,-28.320,-31.738,-21.973,-46.875
1687269941.818,-39.551,-31.738,-25.879,-24.414,20.508
1687269941.822,-47.363,-28.320,-20.996,-30.762,-157.227
1687269941.839,-43.945,-29.785,-27.344,-28.320,-130.859
1687269941.843,-32.715,-31.250,-27.832,-20.996,-64.941
1687269941.847,-45.898,-25.879,-24.414,-28.809,-82.520
1687269941.851,-40.039,-20.020,-23.438,-31.738,-129.395
1687269941.855,-37.109,-21.484,-21.484,-23.438,-62.988
1687269941.859,-38.086,-25.391,-23.438,-11.230,120.605
1687269941.863,-31.250,-35.156,-25.391,-19.531,66.895
1687269941.866,-34.180,-35.645,-29.297,-29.785,-41.992
1687269941.870,-28.809,-25.391,-23.926,-31.250,-20.020
1687269941.874,-20.020,-22.949,-23.926,-29.785,391.113
1687269941.878,-17.090,-18.555,-25.391,-28.320,409.668
1687269941.882,-27.832,-18.066,-22.461,-38.086,-101.074
1687269941.899,-27.344,-15.137,-25.879,-36.133,-125.488
1687269941.903,-27.344,-23.438,-24.902,-34.668,-153.320
1687269941.907,-38.086,-34.668,-23.926,-28.320,-228.027
1687269941.911,-26.367,-27.832,-20.996,-26.367,-175.293
1687269941.915,-15.625,-21.484,-23.926,-31.250,-76.172
1687269941.919,-18.555,-20.020,-31.738,-26.855,-31.250
1687269941.923,-22.949,-22.949,-30.273,-16.602,18.066
1687269941.926,-29.297,-25.391,-31.250,-12.695,-27.832
1687269941.930,-18.555,-22.949,-33.691,-15.137,54.199
1687269941.934,-13.672,-26.855,-31.250,-8.789,168.945
1687269941.938,-23.926,-25.879,-32.715,-18.066,-89.844
1687269941.942,-24.414,-19.531,-31.250,-30.273,-199.707
1687269941.929,-22.461,-17.090,-29.297,-26.855,-31.738
1687269941.933,-18.066,-17.578,-25.879,-20.508,-9.766
1687269941.937,-18.555,-14.648,-22.949,-23.438,-186.523
1687269941.941,-25.879,-19.531,-22.461,-25.879,-162.109
1687269941.945,-24.902,-19.531,-22.949,-25.879,-110.840
1687269941.949,-20.996,-17.578,-30.273,-35.645,-119.141
1687269941.953,-27.344,-17.090,-32.227,-38.086,-35.645
1687269941.956,-41.016,-22.461,-32.227,-35.156,57.617
1687269941.960,-37.109,-23.926,-27.344,-26.855,43.945
1687269941.964,-42.480,-23.926,-27.344,-27.344,-20.996
1687269941.968,-45.410,-23.438,-26.367,-41.504,-111.816
1687269941.972,-38.086,-18.066,-25.391,-39.062,-9.277
1687269941.974,-37.598,-20.020,-28.320,-24.902,457.520
1687269941.978,-35.156,-21.484,-31.250,-30.273,380.371
1687269941.982,-33.203,-20.996,-23.926,-34.180,-120.117
1687269941.986,-26.855,-20.508,-18.555,-30.273,-191.406
1687269941.990,-37.598,-21.973,-28.320,-31.738,-101.074
1687269941.994,-41.504,-19.043,-30.273,-26.855,-124.023
1687269941.998,-39.551,-19.043,-29.297,-35.156,-85.938
1687269942.001,-45.410,-21.973,-31.250,-36.621,183.105
1687269942.005,-43.945,-16.602,-29.785,-34.180,230.469
1687269942.009,-49.316,-17.578,-26.855,-52.246,-113.281
1687269942.013,-46.875,-22.461,-31.738,-55.176,-174.805
1687269942.017,-43.457,-20.020,-33.203,-57.617,-157.227
1687269942.022,-56.152,-15.625,-34.180,-58.594,-170.898
1687269942.026,-67.871,-11.719,-34.180,-65.430,-208.496
1687269942.030,-70.801,-3.906,-32.227,-83.984,-123.047
1687269942.034,-62.500,9.766,-45.410,-69.824,7.324
1687269942.038,-68.848,6.348,-44.434,-66.895,-93.750
1687269942.042,-103.516,-3.418,-29.785,-96.680,-139.160
1687269942.046,-113.281,0.977,-27.832,-115.723,-9.277
1687269942.049,-101.562,7.324,-26.855,-110.352,228.516
1687269942.053,-112.305,16.602,-26.367,-118.652,71.777
1687269942.057,-132.812,21.973,-21.484,-143.066,-145.996
1687269942.061,-145.508,21.973,-13.672,-148.926,15.137
1687269942.065,-146.973,22.461,-11.719,-141.113,-11.230
1687269942.064,-173.828,17.090,-7.324,-157.715,-169.922
1687269942.068,-169.922,20.508,-7.324,-152.832,-175.293
1687269942.072,-153.809,26.367,-8.301,-152.344,0.977
1687269942.076,-165.039,20.508,-8.789,-169.434,38.086
1687269942.080,-152.344,20.508,-7.324,-163.574,-157.715
1687269942.084,-152.344,19.531,-6.348,-162.109,-172.852
1687269942.088,-147.949,20.508,-5.859,-138.184,106.445
1687269942.091,-142.090,17.090,0.977,-118.164,507.812
1687269942.095,-143.555,7.324,1.953,-109.375,271.484
1687269942.099,-128.906,-0.488,1.953,-97.168,-173.828
1687269942.103,-114.746,-3.906,3.906,-93.262,-167.480
1687269942.107,-116.699,-9.277,2.441,-97.168,-104.980
1687269942.109,-92.285,-20.508,3.418,-67.383,-182.129
1687269942.113,-63.965,-21.484,0.977,-46.387,-149.902
1687269942.117,-56.641,-18.555,-9.766,-38.574,-76.660
1687269942.121,-45.898,-19.531,-17.090,-19.043,-143.555
1687269942.125,-28.809,-24.902,-16.113,-20.508,-167.969
1687269942.129,-12.207,-35.645,-17.090,-18.555,26.367
1687269942.133,4.395,-39.062,-19.531,6.348,258.789
1687269942.136,13.672,-40.527,-19.043,19.043,60.059
1687269942.140,14.648,-42.480,-22.461,28.809,-182.617
1687269942.144,18.555,-45.410,-21.973,39.551,-17.578
1687269942.148,14.160,-51.270,-21.484,41.504,281.250
1687269942.152,5.859,-57.617,-26.855,52.246,76.172
1687269942.154,2.930,-62.012,-30.762,29.785,-185.547
1687269942.158,6.348,-60.547,-27.832,13.184,-126.953
1687269942.162,6.348,-53.711,-29.297,27.832,-141.602
1687269942.166,1.465,-53.223,-28.320,38.574,-183.105
1687269942.170,12.695,-55.176,-22.461,35.156,-177.734
1687269942.174,28.320,-51.758,-22.949,39.551,17.578
1687269942.178,28.809,-46.875,-22.461,55.176,62.500
1687269942.181,34.668,-46.387,-20.508,61.523,-89.355
1687269942.185,42.480,-54.199,-18.555,72.266,-213.379
1687269942.189,44.434,-51.758,-20.996,65.430,75.684
1687269942.193,40.039,-48.828,-21.973,56.641,247.070
1687269942.197,39.062,-53.223,-24.902,54.199,-138.672
1687269942.214,54.199,-50.293,-29.297,53.223,-163.086
1687269942.218,51.270,-44.922,-22.949,51.758,-77.148
1687269942.222,39.551,-43.945,-21.484,51.758,-125.977
1687269942.226,32.715,-51.270,-25.391,54.199,-173.340
1687269942.230,23.926,-54.199,-27.344,46.387,-89.844
1687269942.234,13.184,-49.316,-27.344,35.645,44.922
1687269942.238,7.812,-46.387,-23.438,42.480,1.465
1687269942.241,15.625,-45.898,-19.531,42.480,-134.277
1687269942.245,24.902,-50.781,-20.508,45.898,-123.535
1687269942.249,13.184,-52.734,-19.531,55.176,395.996
1687269942.253,5.859,-45.898,-18.066,39.062,313.965
1687269942.257,10.742,-42.969,-21.484,27.832,-177.734
1687269942.259,6.348,-41.992,-27.344,29.297,18.066
1687269942.263,6.836,-41.992,-31.250,23.926,68.359
1687269942.267,-1.465,-41.992,-30.762,10.742,-145.020
1687269942.271,2.930,-39.551,-27.832,0.000,-166.504
1687269942.275,-5.371,-39.551,-26.855,3.906,-120.605
1687269942.279,-23.438,-36.621,-30.273,6.836,-57.129
1687269942.283,-14.160,-31.250,-28.809,1.953,-15.137
1687269942.286,-6.836,-34.668,-26.855,4.883,-139.648
1687269942.290,-1.465,-37.598,-27.344,6.348,49.805
1687269942.294,-8.789,-32.715,-28.320,7.324,201.172
1687269942.298,-10.254,-32.227,-33.203,-1.953,-92.773
1687269942.302,2.441,-36.621,-32.227,1.465,-97.168
1687269942.304,-0.488,-33.203,-34.180,-12.695,-92.773
1687269942.308,-18.555,-31.738,-34.180,-27.832,-162.109
1687269942.312,-32.227,-37.109,-30.273,-10.742,-110.840
1687269942.316,-34.180,-42.969,-29.297,-26.367,-42.480
1687269942.320,-33.691,-40.039,-30.273,-36.621,38.574
1687269942.324,-24.414,-30.762,-22.949,-19.043,51.758
1687269942.328,-21.484,-33.203,-24.414,-19.531,28.320
1687269942.331,-16.113,-31.250,-29.785,-20.996,-14.648
1687269942.335,-22.949,-25.879,-27.344,-2.930,139.160
1687269942.339,-34.180,-34.180,-29.785,-8.301,187.012
1687269942.343,-27.832,-35.156,-28.809,-19.531,-79.102
1687269942.347,-31.738,-33.203,-23.438,-13.184,-66.895
1687269942.349,-33.203,-35.156,-23.438,1.953,71.777
1687269942.353,-36.621,-33.203,-26.367,-12.207,-95.703
1687269942.357,-45.898,-23.926,-24.902,-22.461,-131.836
1687269942.361,-32.227,-25.879,-20.996,-3.418,-41.016
1687269942.365,-24.902,-31.250,-22.461,-17.090,-94.238
1687269942.369,-29.785,-26.367,-25.391,-25.879,-112.793
1687269942.373,-21.484,-25.879,-24.902,-24.414,-49.316
1687269942.376,-15.625,-30.762,-20.508,-11.230,173.340
1687269942.380,-17.090,-30.273,-20.508,1.953,340.332
1687269942.384,-13.184,-24.414,-27.832,-15.137,-22.461
1687269942.388,-12.695,-24.902,-33.691,-14.648,-233.887
1687269942.392,-20.020,-23.438,-25.391,-5.371,-145.020
1687269942.409,-30.273,-24.414,-24.414,-8.789,-155.762
1687269942.413,-28.320,-30.273,-35.156,-31.250,-173.828
1687269942.417,-35.645,-34.668,-34.668,-40.039,-128.906
1687269942.421,-51.270,-41.504,-27.344,-45.410,-130.859
1687269942.425,-40.527,-37.109,-22.949,-39.062,-153.320
1687269942.429,-35.156,-31.738,-26.855,-33.203,-47.363
1687269942.433,-42.480,-32.227,-27.832,-43.945,55.176
1687269942.436,-36.621,-31.738,-26.855,-26.855,310.547
1687269942.440,-19.531,-31.738,-26.367,-10.742,196.777
1687269942.444,-23.438,-29.785,-30.762,-24.414,-114.258
1687269942.448,-29.297,-26.855,-29.785,-15.137,-33.691
1687269942.452,-27.832,-27.344,-26.367,-13.672,50.293
1687269942.439,-33.691,-30.273,-28.809,-24.902,-108.398
1687269942.443,-36.133,-29.785,-29.785,-26.855,-229.980
1687269942.447,-26.367,-26.855,-26.855,-20.508,-140.137
1687269942.451,-33.691,-21.484,-26.855,-21.973,-115.723
1687269942.455,-30.273,-16.113,-31.738,-30.273,-182.617
1687269942.459,11.230,-12.695,-38.086,0.977,-119.629
1687269942.463,-5.859,-22.461,-33.203,3.906,55.664
1687269942.466,-43.457,-34.668,-26.855,-29.297,31.738
1687269942.470,-33.691,-29.297,-27.344,-22.461,-88.867
1687269942.474,-14.648,-29.785,-26.367,0.000,-131.836
1687269942.478,-4.395,-34.668,-17.090,17.578,173.828
1687269942.482,-5.859,-39.062,-8.301,20.508,329.590
1687269942.485,-6.836,-44.922,-3.906,18.066,-111.328
1687269942.489,8.301,-49.316,-0.488,33.203,-169.922
1687269942.493,9.766,-48.828,0.977,35.645,-45.898
1687269942.497,-5.859,-50.293,-0.977,30.762,-126.953
1687269942.501,0.000,-54.199,1.465,26.855,-182.617
1687269942.505,7.812,-52.734,5.859,27.832,-56.641
1687269942.509,8.789,-54.199,16.113,42.480,216.797
1687269942.512,10.254,-58.594,17.090,45.898,101.074
1687269942.516,9.766,-55.664,10.742,47.852,-163.574
1687269942.520,8.301,-47.852,14.648,44.434,-25.391
1687269942.524,3.906,-44.434,13.672,43.457,178.711
1687269942.528,1.465,-51.270,0.977,46.875,-27.832
1687269942.530,0.000,-51.270,-6.348,36.133,-206.055
1687269942.534,9.766,-44.922,-0.977,18.555,-18.066
1687269942.538,7.324,-42.480,-1.953,5.859,-22.949
1687269942.542,-1.953,-42.480,-4.883,11.230,-183.594
1687269942.546,-3.418,-42.969,-5.371,6.836,-248.535
1687269942.550,-21.484,-41.016,-7.812,-3.418,12.695
1687269942.554,-20.996,-41.016,-13.672,-6.348,276.855
1687269942.557,-21.484,-40.527,-18.066,-13.672,-13.672
1687269942.561,-25.391,-39.551,-13.184,-4.883,-249.512
1687269942.565,-19.043,-39.551,-13.184,2.441,-31.738
1687269942.569,-22.461,-38.574,-18.555,-9.277,81.055
1687269942.573,-25.879,-39.062,-19.531,-20.996,-175.781
1687269942.589,-23.438,-35.645,-18.066,-7.324,-182.617
1687269942.593,-20.508,-36.621,-20.996,-6.836,-126.953
1687269942.597,-15.625,-32.715,-21.973,-16.113,-118.652
1687269942.601,-14.648,-27.832,-20.020,-14.648,-4.395
1687269942.605,-15.625,-29.297,-20.020,-20.020,-6.348
1687269942.609,-22.461,-33.203,-17.090,-6.836,194.824
1687269942.613,-31.250,-36.621,-25.391,-13.184,131.836
1687269942.616,-35.156,-36.621,-30.762,-18.555,-144.531
1687269942.620,-37.598,-34.180,-25.391,-14.648,-69.336
1687269942.624,-27.344,-33.203,-24.414,-13.672,246.094
1687269942.628,-14.648,-30.762,-24.414,-2.930,134.766
1687269942.632,-13.672,-26.855,-26.367,-9.277,-214.355
1687269942.634,-25.879,-32.227,-30.762,-23.438,-111.816
1687269942.638,-32.715,-32.715,-31.738,-22.949,-59.570
1687269942.642,-26.367,-30.762,-29.785,-7.812,-151.367
1687269942.646,-18.555,-32.715,-28.320,-9.277,-159.180
1687269942.650,-23.438,-30.762,-26.367,-31.738,-8.301
1687269942.654,-33.203,-32.227,-27.832,-32.227,53.223
1687269942.658,-36.621,-30.762,-29.297,-18.555,8.301
1687269942.661,-29.785,-30.273,-22.949,-17.090,90.332
1687269942.665,-36.621,-37.109,-24.902,-29.297,242.188
1687269942.669,-42.969,-42.969,-25.391,-28.320,285.156
1687269942.673,-44.922,-37.598,-22.461,-29.785,-94.727
1687269942.677,-50.293,-32.227,-25.391,-28.809,-241.699
1687269942.679,-38.574,-38.086,-23.926,-14.648,38.086
1687269942.683,-5.371,-43.945,-13.672,11.230,15.137
1687269942.687,-8.789,-35.645,-16.602,0.977,-145.508
1687269942.691,-57.129,-19.043,-34.180,-65.918,-143.555
1687269942.695,-74.219,-12.695,-39.062,-90.332,-136.719
1687269942.699,-89.355,-13.184,-44.434,-97.168,-25.879
1687269942.703,-116.211,-4.883,-56.152,-128.418,24.902
1687269942.706,-115.234,-0.488,-61.523,-142.578,-69.824
1687269942.710,-126.465,2.441,-66.895,-157.715,232.910
1687269942.714,-135.254,2.441,-71.289,-181.152,349.609
1687269942.718,-127.930,0.977,-77.637,-197.754,-161.133
1687269942.722,-125.488,8.789,-77.148,-183.105,-153.809
1687269942.724,-117.676,8.301,-72.754,-166.992,9.766
1687269942.728,-122.559,1.465,-72.754,-150.391,-235.840
1687269942.732,-124.023,-1.465,-67.871,-125.488,-303.223
1687269942.736,-112.793,-4.395,-59.570,-114.746,-128.906
1687269942.740,-106.445,-15.625,-58.105,-112.793,-104.004
1687269942.744,-95.703,-17.578,-50.781,-86.914,-127.441
1687269942.748,-84.473,-10.742,-43.457,-80.078,-83.496
1687269942.751,-83.496,-18.066,-42.480,-91.309,75.684
1687269942.755,-77.148,-25.879,-48.828,-82.031,35.645
1687269942.759,-54.688,-23.926,-50.293,-64.453,-162.598
1687269942.763,-52.246,-23.926,-50.781,-68.359,-196.289
1687269942.767,-56.152,-25.879,-54.199,-74.707,44.434
1687269942.769,-40.527,-22.949,-49.805,-62.500,162.109
1687269942.773,-34.668,-20.020,-46.387,-57.617,-114.258
1687269942.777,-38.086,-20.996,-47.363,-52.734,-103.516
1687269942.781,-37.598,-23.438,-43.945,-40.039,-31.738
1687269942.785,-30.273,-21.484,-40.527,-36.133,-66.406
1687269942.789,-28.809,-24.902,-42.969,-40.527,0.488
1687269942.793,-29.297,-29.297,-41.016,-41.016,107.422
1687269942.796,-28.809,-21.973,-37.598,-42.480,236.816
1687269942.800,-29.297,-21.973,-34.180,-40.527,86.426
1687269942.804,-32.227,-24.414,-29.785,-43.457,-143.555
1687269942.808,-32.227,-23.926,-28.809,-33.203,-3.418
1687269942.812,-34.668,-25.879,-30.762,-28.809,104.980
1687269942.815,-36.133,-26.855,-33.203,-30.762,-69.336
1687269942.819,-36.133,-24.902,-37.598,-32.227,-142.578
1687269942.823,-29.785,-24.902,-31.738,-22.949,-18.066
1687269942.827,-25.391,-31.250,-31.250,-20.508,-19.531
1687269942.831,-27.344,-30.762,-41.016,-31.250,-159.668
1687269942.835,-25.391,-30.273,-38.086,-30.762,-97.656
1687269942.839,-32.227,-29.297,-33.691,-20.996,241.699
1687269942.842,-36.133,-26.855,-31.738,-22.461,268.066
1687269942.846,-38.574,-27.832,-29.297,-31.738,-177.246
1687269942.850,-41.504,-28.320,-31.738,-39.062,-185.059
1687269942.854,-40.527,-30.762,-38.574,-53.223,-87.402
1687269942.858,-37.598,-25.879,-40.039,-44.922,-148.438
1687269942.859,-42.969,-19.531,-33.691,-30.273,-224.609
1687269942.863,-45.898,-28.809,-36.621,-35.645,-186.523
1687269942.867,-35.645,-32.715,-40.039,-35.645,-109.375
1687269942.871,-32.715,-31.738,-36.621,-29.297,-67.383
1687269942.875,-29.785,-28.809,-25.391,-23.926,-68.848
1687269942.879,-40.527,-31.738,-20.508,-16.113,-72.754
1687269942.883,-43.457,-33.203,-24.414,-22.949,331.543
1687269942.886,-43.945,-28.809,-28.809,-37.598,312.500
1687269942.890,-48.340,-21.973,-27.832,-41.992,-142.578
1687269942.894,-39.062,-20.508,-22.949,-33.691,20.020
1687269942.898,-36.621,-29.297,-21.484,-39.551,105.469
1687269942.902,-39.062,-27.832,-23.438,-49.805,-129.883
1687269942.919,-43.457,-24.902,-27.832,-55.176,-208.008
1687269942.923,-46.387,-24.414,-25.879,-52.734,12.207
1687269942.927,-47.852,-27.344,-18.066,-34.180,136.719
1687269942.931,-25.879,-37.109,-16.113,-11.719,-154.297
1687269942.935,-11.230,-26.367,-25.391,-23.926,-223.633
1687269942.939,-41.504,-10.742,-40.039,-69.824,-97.168
1687269942.943,-66.895,-12.207,-45.410,-62.500,-28.320
1687269942.946,-61.035,-13.672,-44.922,-50.293,-61.523
1687269942.950,-54.199,-14.648,-41.016,-66.895,-195.312
1687269942.954,-60.547,-16.113,-46.387,-77.637,-7.324
1687269942.958,-76.172,-13.672,-56.641,-87.891,218.262
1687269942.962,-73.242,-6.836,-55.664,-95.215,-35.156
1687269942.964,-65.430,-6.348,-56.152,-89.355,-167.969
1687269942.968,-72.754,-10.254,-58.105,-88.379,-137.207
1687269942.972,-59.570,-9.766,-56.152,-73.730,-145.508
1687269942.976,-56.641,-14.160,-58.594,-70.801,-178.711
1687269942.980,-58.594,-17.578,-56.152,-76.660,-79.102
1687269942.984,-56.152,-14.648,-47.363,-60.547,97.168
1687269942.988,-56.641,-15.625,-44.922,-60.059,17.090
1687269942.991,-45.410,-13.184,-42.480,-63.965,-145.508
1687269942.995,-51.758,-15.625,-41.504,-65.430,-97.656
1687269942.999,-58.105,-23.438,-40.527,-54.688,404.297
1687269943.003,-46.387,-22.949,-38.086,-48.828,479.980
1687269943.007,-44.922,-25.879,-39.062,-50.781,17.578
1687269943.009,-33.691,-25.879,-39.062,-44.922,-95.703
1687269943.013,-36.133,-25.879,-35.156,-47.363,-128.906
1687269943.017,-48.340,-31.250,-31.250,-45.410,-240.723
1687269943.021,-41.992,-28.320,-30.273,-36.133,-201.660
1687269943.025,-42.969,-28.809,-30.273,-34.180,-68.359
1687269943.029,-38.574,-31.250,-28.320,-41.016,-74.219
1687269943.033,-30.762,-27.832,-31.250,-39.062,-76.660
1687269943.036,-36.133,-23.926,-31.738,-27.832,-140.137
1687269943.040,-33.691,-23.926,-23.438,-16.602,30.762
1687269943.044,-26.855,-27.832,-29.297,-32.715,219.727
1687269943.048,-23.438,-24.414,-35.156,-46.875,-137.695
1687269943.052,-33.691,-31.250,-31.250,-43.945,-150.391
1687269943.054,-46.387,-32.715,-31.738,-42.969,29.785
1687269943.058,-44.922,-28.320,-30.762,-38.574,-37.598
1687269943.062,-35.645,-27.344,-27.344,-29.785,-147.949
1687269943.066,-34.180,-26.855,-28.809,-29.297,-123.047
1687269943.070,-34.668,-33.691,-26.855,-27.344,-76.172
1687269943.074,-31.738,-33.691,-28.809,-25.391,-46.387
1687269943.078,-34.180,-28.320,-28.809,-22.461,-57.617
1687269943.081,-29.785,-29.785,-25.391,-31.250,-104.980
1687269943.085,-33.691,-40.527,-25.391,-40.527,173.828
1687269943.089,-41.016,-36.133,-26.367,-31.738,175.293
1687269943.093,-28.809,-23.926,-24.902,-32.227,-142.090
1687269943.097,-31.250,-28.809,-25.391,-33.691,-19.531
1687269943.100,-35.645,-29.297,-30.273,-21.973,103.516
1687269943.104,-41.016,-24.902,-30.762,-27.832,-57.129
1687269943.108,-41.992,-24.414,-23.926,-37.598,-150.391
1687269943.112,-40.039,-20.996,-24.414,-33.203,-41.504
1687269943.116,-43.945,-29.785,-27.832,-32.227,31.250
1687269943.120,-39.062,-35.645,-28.809,-34.668,-64.941
1687269943.124,-37.109,-36.621,-32.715,-41.504,-68.359
1687269943.127,-48.340,-42.480,-31.738,-35.156,145.508
1687269943.131,-46.875,-39.062,-30.762,-24.902,218.262
1687269943.135,-34.668,-34.180,-32.715,-31.250,-143.066
1687269943.139,-41.504,-32.227,-36.133,-31.738,-195.801
1687269943.143,-46.387,-36.133,-30.273,-31.250,-113.770
1687269943.144,-35.156,-36.621,-25.879,-33.203,-130.859
1687269943.148,-20.996,-41.504,-25.879,-20.508,-168.457
1687269943.152,-14.648,-49.316,-19.531,-3.418,-123.535
1687269943.156,-32.715,-39.062,-19.531,-15.625,-42.969
1687269943.160,-56.641,-26.367,-24.414,-46.387,-52.246
1687269943.164,-57.617,-28.809,-35.156,-60.059,-40.039
1687269943.168,-44.922,-29.785,-40.527,-43.457,65.430
1687269943.171,-43.945,-24.902,-38.086,-40.039,286.133
1687269943.175,-48.828,-20.996,-43.945,-55.664,154.785
1687269943.179,-45.410,-19.043,-49.805,-58.594,-64.453
1687269943.183,-39.551,-19.531,-47.852,-51.270,20.020
1687269943.187,-29.785,-20.508,-44.434,-45.410,199.219
1687269943.189,-32.227,-19.531,-42.480,-45.410,36.621
1687269943.193,-34.180,-20.508,-41.016,-46.387,-229.004
1687269943.197,-28.320,-20.996,-42.480,-51.758,-156.738
1687269943.201,-38.086,-24.902,-41.504,-46.387,-142.090
1687269943.205,-46.387,-26.855,-40.039,-31.738,-178.223
1687269943.209,-38.574,-28.809,-38.574,-37.109,-80.078
1687269943.213,-29.297,-25.391,-38.086,-52.246,219.238
1687269943.216,-39.062,-23.438,-41.992,-54.199,336.426
1687269943.220,-45.898,-30.273,-43.945,-46.875,-58.594
1687269943.224,-36.133,-25.879,-42.969,-54.199,-288.574
1687269943.228,-31.738,-22.949,-39.062,-47.852,-97.168
1687269943.232,-35.156,-22.949,-36.133,-45.410,-75.195
1687269943.234,-28.809,-17.578,-34.668,-44.922,-233.887
1687269943.238,-26.855,-17.578,-30.762,-37.109,-187.988
1687269943.242,-29.297,-20.996,-29.297,-36.133,-115.723
1687269943.246,-29.297,-24.902,-26.855,-31.250,-119.141
1687269943.250,-30.273,-28.809,-31.250,-27.832,-122.070
1687269943.254,-21.484,-27.344,-27.832,-25.391,-8.301
1687269943.258,-23.438,-24.902,-23.926,-28.320,250.000
1687269943.261,-33.203,-24.414,-31.250,-33.691,109.375
1687269943.265,-35.156,-21.973,-35.156,-35.156,-156.250
1687269943.269,-28.809,-22.461,-31.738,-41.992,-39.551
1687269943.273,-28.809,-22.461,-24.902,-37.598,263.184
1687269943.277,-28.809,-19.531,-20.020,-30.273,70.801
1687269943.279,-26.855,-23.926,-20.996,-29.297,-236.328
1687269943.283,-27.832,-29.785,-30.273,-33.691,-102.051
1687269943.287,-26.367,-26.855,-31.250,-30.762,-50.293
1687269943.291,-36.133,-27.832,-26.855,-25.391,-155.273
1687269943.295,-43.457,-24.414,-24.414,-39.062,-135.742
1687269943.299,-34.180,-20.020,-24.414,-32.715,47.363
1687269943.303,-30.762,-24.902,-27.832,-33.203,120.117
1687269943.306,-40.527,-28.320,-26.855,-39.062,-29.785
1687269943.310,-39.551,-31.738,-26.855,-26.855,-156.250
1687269943.314,-38.574,-31.250,-33.691,-22.461,41.016
1687269943.318,-41.504,-30.762,-32.227,-20.996,135.742
1687269943.322,-43.945,-29.785,-26.855,-21.484,-82.520
1687269943.338,-42.969,-35.645,-31.738,-28.809,-82.520
1687269943.342,-45.898,-37.109,-32.715,-32.715,-6.348
1687269943.346,-48.340,-29.297,-29.297,-33.691,-54.199
1687269943.350,-41.504,-32.227,-32.227,-41.992,-188.477
1687269943.354,-31.738,-36.621,-32.715,-38.086,-131.348
1687269943.358,-37.109,-33.203,-29.785,-16.113,8.301
1687269943.362,-30.762,-30.273,-31.250,-14.648,70.801
1687269943.365,-16.602,-25.879,-36.133,-36.133,-19.043
1687269943.369,-24.414,-25.391,-26.367,-43.457,-131.836
1687269943.373,-28.320,-25.391,-20.996,-36.133,311.523
1687269943.377,-33.203,-26.367,-26.855,-41.504,339.355
1687269943.381,-48.828,-33.203,-28.320,-42.969,-96.191
1687269943.385,-47.363,-32.227,-26.367,-33.691,-77.637
1687269943.389,-39.062,-30.762,-24.414,-32.227,-42.969
1687269943.393,-41.992,-29.297,-24.414,-31.738,-62.988
1687269943.397,-32.227,-28.320,-23.438,-33.203,-126.953
1687269943.401,-28.809,-29.785,-20.996,-40.527,-0.488
1687269943.405,-40.039,-29.785,-22.461,-38.574,66.895
1687269943.409,-35.645,-30.273,-22.461,-28.809,-8.789
1687269943.412,-32.227,-29.785,-23.438,-25.391,-159.668
1687269943.416,-27.832,-31.250,-23.438,-24.414,19.043
1687269943.420,-21.973,-32.715,-24.414,-30.273,243.652
1687269943.424,-32.227,-27.832,-27.832,-42.969,-69.336
1687269943.428,-40.039,-24.902,-25.391,-44.922,-164.551
1687269943.429,-37.598,-25.391,-23.438,-43.457,-111.816
1687269943.433,-39.551,-29.297,-28.320,-38.574,-144.531
1687269943.437,-43.945,-35.645,-28.320,-33.691,-223.145
1687269943.441,-45.898,-34.180,-25.391,-33.691,-182.617
1687269943.445,-41.504,-27.832,-25.879,-32.227,-79.102
1687269943.449,-33.691,-28.320,-26.855,-35.156,-47.363
1687269943.453,-28.809,-23.438,-28.809,-35.156,-20.508
1687269943.456,-25.391,-22.949,-23.438,-10.742,25.879
1687269943.460,-22.461,-25.391,-23.438,-7.812,298.828
1687269943.464,-21.973,-23.926,-28.320,-43.457,354.492
1687269943.468,-21.973,-23.438,-21.973,-44.434,-51.270
1687269943.472,-26.367,-24.902,-22.949,-23.438,-84.473
1687269943.474,-33.691,-26.855,-23.926,-15.625,65.918
1687269943.478,-37.598,-26.855,-24.414,-17.090,-108.887
1687269943.482,-34.180,-27.344,-27.344,-28.320,-174.316
1687269943.486,-36.621,-27.832,-29.297,-32.227,-107.422
1687269943.490,-39.062,-26.855,-31.738,-35.645,-123.535
1687269943.494,-35.156,-21.973,-30.273,-36.621,-119.629
1687269943.498,-30.273,-25.391,-35.156,-32.227,-77.637
1687269943.501,-16.602,-34.180,-37.598,-23.926,116.211
1687269943.505,-20.020,-28.320,-28.320,-13.184,318.848
1687269943.509,-31.250,-21.973,-28.809,-35.156,-9.766
1687269943.513,-21.484,-25.391,-30.273,-36.133,-241.699
1687269943.517,-8.789,-22.949,-24.902,-9.766,-158.691
1687269943.519,-22.461,-24.902,-24.414,-7.324,-149.414
1687269943.523,-32.715,-27.832,-28.320,-17.090,-216.309
1687269943.527,-29.785,-25.391,-27.344,-6.836,-212.402
1687269943.531,-26.855,-23.926,-20.508,-1.953,-108.887
1687269943.535,-24.414,-27.832,-20.508,-12.695,-49.316
1687269943.539,-29.785,-32.227,-21.484,-14.648,-34.180
1687269943.543,-27.344,-28.320,-20.996,-23.926,37.598
1687269943.546,-31.250,-22.949,-24.902,-26.855,235.840
1687269943.550,-42.969,-22.461,-24.902,-21.484,95.703
1687269943.554,-29.297,-24.902,-21.973,-14.160,-155.762
1687269943.558,-20.020,-25.879,-23.438,-9.766,66.406
1687269943.562,-29.297,-25.391,-22.461,-13.184,298.828
1687269943.564,-21.484,-25.879,-23.438,-8.789,-2.441
1687269943.568,-17.090,-25.879,-27.832,-4.883,-197.266
1687269943.572,-25.391,-30.273,-31.738,-19.531,-88.867
1687269943.576,-25.391,-29.297,-27.832,-18.555,-62.012
1687269943.580,-33.203,-22.949,-20.020,-9.766,-116.699
1687269943.584,-35.156,-28.809,-31.250,-21.973,-117.188
1687269943.588,-30.762,-29.297,-34.180,-17.090,145.020
1687269943.591,-30.762,-31.250,-25.879,-16.113,297.363
1687269943.595,-34.668,-33.203,-32.715,-29.297,-19.531
1687269943.599,-35.156,-29.297,-36.621,-24.902,-179.688
1687269943.603,-33.203,-36.133,-39.062,-26.855,-153.320
1687269943.607,-30.762,-31.738,-38.086,-35.156,-110.352
1687269943.610,-32.227,-20.020,-26.367,-30.762,-86.914
1687269943.614,-32.227,-22.461,-21.484,-24.902,-114.746
1687269943.618,-20.996,-27.832,-24.414,-26.855,-58.105
1687269943.622,-18.066,-25.879,-27.344,-41.504,-72.266
1687269943.626,-8.301,-23.438,-32.227,-52.734,-188.965
1687269943.630,-1.953,-25.879,-28.809,-43.945,-56.641
1687269943.634,-2.930,-23.926,-20.996,-36.621,290.039
1687269943.637,-1.953,-20.996,-21.484,-34.668,98.145
1687269943.641,-1.953,-21.484,-20.508,-25.391,-191.895
1687269943.645,-23.926,-25.879,-20.996,-12.207,2.930
1687269943.649,-47.363,-30.273,-24.414,-9.766,158.691
1687269943.653,-52.734,-37.109,-29.297,-21.973,-18.555
1687269943.669,-41.504,-36.621,-35.156,-25.879,-166.504
1687269943.673,-35.156,-24.902,-32.227,-17.578,-134.277
1687269943.677,-39.551,-22.461,-21.973,-15.137,-66.406
1687269943.681,-38.086,-20.020,-19.043,-17.578,-107.910
1687269943.685,-36.133,-21.973,-22.461,-19.043,-187.500
1687269943.689,-41.504,-28.809,-20.508,-20.020,90.820
1687269943.693,-42.480,-28.320,-22.949,-11.719,270.020
1687269943.696,-38.086,-30.273,-29.297,-15.625,-81.055
1687269943.700,-26.367,-32.715,-30.273,-26.367,-205.566
1687269943.704,-4.395,-29.297,-26.367,-20.996,-44.922
1687269943.708,-15.137,-20.020,-25.391,-27.832,-50.293
1687269943.712,-62.500,-13.184,-30.273,-75.195,-185.059
1687269943.714,-74.707,-16.113,-32.715,-91.309,-192.383
1687269943.718,-53.223,-16.113,-32.715,-64.941,-138.184
1687269943.722,-66.895,-15.137,-36.133,-80.078,-125.000
1687269943.726,-87.891,-18.066,-46.387,-92.285,-160.645
1687269943.730,-79.590,-18.555,-43.457,-75.684,-38.086
1687269943.734,-81.055,-20.020,-39.551,-74.219,102.539
1687269943.738,-80.566,-28.320,-41.504,-79.102,2.441
1687269943.741,-74.707,-31.738,-36.133,-69.824,1.465
1687269943.745,-64.453,-27.344,-31.250,-56.641,26.855
1687269943.749,-55.664,-27.344,-29.297,-48.828,341.797
1687269943.753,-50.781,-24.414,-33.691,-53.711,302.734
1687269943.757,-45.898,-20.020,-30.762,-52.734,-182.617
1687269943.759,-48.828,-23.926,-24.902,-44.922,-112.793
1687269943.763,-46.387,-32.715,-30.762,-47.852,-56.641
1687269943.767,-54.199,-36.621,-30.762,-47.363,-175.293
1687269943.771,-60.059,-35.645,-33.691,-48.828,-167.480
1687269943.775,-44.434,-35.645,-37.109,-42.969,-103.027
1687269943.779,-37.109,-31.250,-29.785,-48.340,-26.367
1687269943.783,-35.156,-27.344,-22.461,-54.688,28.320
1687269943.786,-45.410,-29.297,-26.855,-38.574,35.156
1687269943.790,-49.316,-30.273,-24.902,-31.738,161.621
1687269943.794,-38.086,-31.738,-23.926,-37.109,230.469
1687269943.798,-36.133,-31.250,-28.320,-41.016,-64.453
1687269943.802,-37.598,-29.297,-25.879,-35.156,-142.578
1687269943.804,-34.180,-27.832,-25.391,-25.879,-81.543
1687269943.808,-27.832,-32.715,-25.879,-17.578,-113.770
1687269943.812,-25.879,-31.738,-22.949,-6.836,-130.371
1687269943.816,-33.691,-25.879,-26.367,-20.020,-102.051
1687269943.820,-35.156,-25.391,-26.367,-38.574,-70.312
1687269943.824,-28.320,-26.367,-23.438,-36.133,6.348
1687269943.828,-30.762,-27.832,-25.879,-38.086,-44.434
1687269943.831,-29.785,-31.250,-27.344,-25.391,-143.555
1687269943.835,-28.809,-35.156,-29.297,-24.414,89.844
1687269943.839,-30.273,-33.691,-31.250,-42.480,103.027
1687269943.843,-39.551,-29.785,-26.367,-35.156,-65.918
1687269943.847,-33.691,-26.855,-20.996,-26.367,0.977
1687269943.849,-21.484,-27.344,-29.297,-37.598,10.742
1687269943.853,-29.297,-29.785,-33.691,-48.828,-132.324
1687269943.857,-35.645,-31.738,-26.855,-37.109,-215.820
1687269943.861,-32.227,-34.180,-20.020,-35.156,-17.578
1687269943.865,-31.738,-34.180,-24.414,-53.711,207.031
1687269943.869,-26.855,-25.879,-28.809,-50.293,62.012
1687269943.873,-29.785,-24.902,-30.762,-43.457,-20.020
1687269943.876,-38.574,-32.715,-36.133,-47.852,96.191
1687269943.880,-43.945,-35.156,-37.109,-51.270,165.039
1687269943.884,-44.922,-33.203,-36.621,-45.898,-124.512
1687269943.888,-32.715,-30.762,-33.203,-28.809,-218.262
1687269943.892,-35.156,-27.832,-27.344,-35.156,-157.227
1687269943.894,-45.898,-36.621,-30.762,-51.270,-50.781
1687269943.898,-39.551,-34.668,-32.227,-47.363,-45.410
1687269943.902,-42.969,-26.855,-31.250,-53.223,-137.695
1687269943.906,-49.316,-28.320,-32.227,-50.781,-45.898
1687269943.910,-41.504,-31.738,-26.855,-41.016,-48.828
1687269943.914,-43.945,-27.832,-22.461,-32.227,-141.602
1687269943.918,-53.223,-25.879,-28.809,-38.574,-98.633
1687269943.921,-46.875,-32.227,-32.715,-46.875,152.344
1687269943.925,-50.781,-29.297,-35.645,-52.734,75.684
1687269943.929,-51.270,-26.367,-35.645,-41.992,-116.699
1687269943.933,-45.410,-24.414,-26.367,-22.461,-12.695
1687269943.937,-47.852,-24.414,-22.949,-29.297,63.965
1687269943.955,-42.480,-22.949,-30.273,-45.410,-72.754
1687269943.959,-43.457,-26.855,-35.645,-59.570,-203.125
1687269943.963,-35.645,-30.762,-35.156,-42.969,-55.176
1687269943.967,-48.828,-32.227,-24.414,-31.250,11.719
1687269943.971,-60.547,-35.156,-19.043,-40.527,-104.004
1687269943.975,-42.480,-20.020,-29.297,-53.223,-98.633
1687269943.979,-47.363,-16.113,-29.785,-64.453,165.527
1687269943.982,-55.176,-23.438,-24.902,-54.199,352.539
1687269943.986,-52.246,-23.438,-26.367,-54.199,-6.836
1687269943.990,-50.293,-21.484,-26.367,-53.223,-217.773
1687269943.994,-37.109,-20.020,-29.785,-56.152,-200.195
1687269943.998,-40.527,-25.391,-28.809,-55.176,-206.055
1687269943.984,-52.246,-25.879,-23.438,-40.527,-199.707
1687269943.988,-44.922,-20.508,-20.020,-32.227,-125.977
1687269943.992,-35.156,-15.137,-19.531,-32.227,-32.715
1687269943.996,-36.133,-17.578,-25.391,-28.320,-45.410
1687269944.000,-32.715,-25.879,-28.809,-18.066,-151.855
1687269944.004,-23.926,-23.926,-25.391,-20.508,18.555
1687269944.008,-22.949,-24.902,-25.391,-31.250,193.359
1687269944.011,-32.715,-26.855,-30.762,-26.855,52.246
1687269944.015,-32.227,-23.438,-27.344,-14.648,-53.711
1687269944.019,-23.926,-20.996,-21.973,-7.324,-37.109
1687269944.023,-26.367,-20.996,-20.508,-3.906,296.387
1687269944.027,-37.109,-21.973,-19.043,-13.672,361.816
1687269944.029,-32.715,-21.484,-23.438,-25.391,-39.062
1687269944.033,-20.996,-18.066,-27.344,-23.438,-155.273
1687269944.037,-26.367,-18.066,-29.785,-24.902,-128.418
1687269944.041,-31.250,-20.996,-28.320,-25.391,-182.129
1687269944.045,-29.785,-24.902,-29.297,-22.949,-229.980
1687269944.049,-28.320,-33.691,-31.738,-19.043,8.789
1687269944.053,-35.156,-34.668,-32.715,-32.227,201.172
1687269944.056,-43.457,-26.855,-33.691,-57.129,3.906
1687269944.060,-35.645,-20.996,-37.598,-62.012,-176.270
1687269944.064,-38.574,-25.879,-37.109,-41.504,39.062
1687269944.068,-43.945,-29.297,-32.715,-28.809,225.098
1687269944.072,-32.227,-28.320,-33.203,-35.156,-97.656
1687269944.089,-22.461,-27.344,-25.391,-31.738,-206.055
1687269944.093,-31.738,-29.785,-23.438,-38.574,-101.562
1687269944.097,-33.203,-27.832,-32.715,-45.410,-88.379
1687269944.101,-27.344,-27.344,-34.180,-31.250,-198.242
1687269944.105,-30.762,-32.227,-30.762,-11.230,-161.621
1687269944.109,-36.621,-25.879,-23.926,-14.648,-0.488
1687269944.113,-33.203,-19.043,-18.555,-22.461,-21.484
1687269944.116,-29.297,-26.855,-17.090,-26.855,-173.828
1687269944.120,-25.391,-33.203,-14.160,-24.414,-125.977
1687269944.124,-17.090,-31.738,-17.578,-20.996,89.844
1687269944.128,-28.809,-36.133,-23.438,-28.320,13.672
1687269944.132,-35.645,-37.598,-23.438,-35.645,-141.113
1687269944.134,-35.645,-39.551,-28.320,-41.504,-92.773
1687269944.138,-37.598,-37.598,-28.320,-22.949,272.461
1687269944.142,-35.645,-30.273,-27.344,-15.625,187.012
1687269944.146,-41.992,-33.203,-32.227,-27.832,-168.457
1687269944.150,-45.898,-34.668,-26.855,-24.414,-113.281
1687269944.154,-40.039,-26.367,-28.320,-28.320,-14.648
1687269944.158,-36.621,-27.832,-28.809,-29.297,63.965
1687269944.161,-38.574,-32.715,-27.344,-24.414,-50.293
1687269944.165,-37.109,-23.926,-28.320,-19.043,27.832
1687269944.169,-47.852,-24.902,-26.855,-28.320,223.633
1687269944.173,-47.852,-34.668,-29.785,-36.133,-70.312
1687269944.177,-30.273,-31.250,-27.832,-34.180,-193.359
1687269944.178,-37.598,-30.273,-26.367,-28.320,-61.035
1687269944.182,-47.363,-32.715,-27.344,-24.902,-37.598
1687269944.186,-48.340,-31.250,-28.320,-39.551,-132.324
1687269944.190,-49.805,-28.809,-22.461,-32.227,-127.930
1687269944.194,-44.922,-23.926,-18.555,-25.879,-1.953
1687269944.198,-43.945,-23.438,-20.020,-41.992,48.340
1687269944.202,-42.480,-23.438,-23.926,-43.945,-9.766
1687269944.205,-48.340,-27.344,-31.738,-37.598,-45.898
1687269944.209,-49.316,-34.668,-25.391,-37.598,154.785
1687269944.213,-50.781,-32.227,-26.855,-39.551,195.801
1687269944.217,-62.500,-37.109,-30.762,-42.969,-60.547
1687269944.221,-63.477,-41.992,-23.926,-23.926,-19.043
1687269944.224,-63.477,-34.180,-19.531,-9.277,89.844
1687269944.228,-53.223,-29.297,-22.949,-24.902,-127.441
1687269944.232,-37.598,-27.344,-24.414,-28.809,-234.375
1687269944.236,-52.246,-24.902,-23.926,-27.832,26.367
1687269944.240,-58.105,-29.297,-32.715,-24.902,93.750
1687269944.244,-22.949,-20.020,-45.410,-29.785,-11.230
1687269944.248,-6.348,-13.672,-40.039,-49.316,-47.852
1687269944.251,-22.461,-24.414,-15.625,-33.691,53.711
1687269944.255,-60.547,-30.762,-0.488,-34.180,209.473
1687269944.259,-67.871,-33.691,1.953,-50.781,-70.312
1687269944.263,-63.477,-29.785,10.742,-31.738,-228.516
1687269944.267,-67.383,-31.738,11.230,-47.852,-144.531
1687269944.268,-53.223,-32.227,8.301,-89.844,-126.953
1687269944.272,-47.363,-31.738,15.625,-89.844,-198.242
1687269944.276,-63.965,-39.062,15.625,-70.801,-161.133
1687269944.280,-75.195,-41.992,17.578,-60.547,-77.148
1687269944.284,-78.613,-43.945,25.879,-54.199,-83.496
1687269944.288,-85.938,-49.316,29.785,-41.016,-95.215
1687269944.292,-105.957,-53.223,32.227,-39.551,-66.406
1687269944.295,-101.562,-56.152,30.762,-26.367,376.953
1687269944.299,-83.008,-50.293,39.062,-22.461,369.629
1687269944.303,-88.379,-46.387,49.316,-11.719,-46.387
1687269944.307,-82.520,-49.805,48.340,2.930,-10.742
1687269944.311,-77.148,-51.758,43.457,-6.836,25.391
1687269944.314,-72.266,-48.828,39.551,-4.395,-152.344
1687269944.318,-74.219,-51.270,42.480,-2.930,-253.418
1687269944.322,-70.312,-53.711,45.410,-0.977,-139.160
1687269944.326,-72.754,-52.734,43.945,-5.859,-107.422
1687269944.330,-82.520,-54.199,43.457,-6.348,-168.945
1687269944.334,-75.195,-51.270,43.457,-6.348,-138.184
1687269944.338,-62.012,-53.223,39.551,-20.020,95.215
1687269944.341,-63.477,-58.105,32.227,-16.602,235.352
1687269944.345,-53.711,-54.199,23.438,-1.465,9.766
1687269944.349,-44.434,-52.734,17.090,-2.930,-146.973
1687269944.353,-59.082,-51.758,16.602,-1.465,-60.547
1687269944.357,-45.898,-43.457,10.254,-7.812,-67.383
1687269944.358,-38.574,-42.480,0.488,-14.648,-193.848
1687269944.362,-53.711,-46.387,-6.348,-14.160,-135.254
1687269944.366,-49.805,-41.016,-12.207,-8.301,-80.566
1687269944.370,-40.039,-40.527,-12.695,2.930,-117.188
1687269944.374,-33.203,-41.504,-13.672,4.395,-170.410
1687269944.378,-37.109,-42.969,-19.043,17.578,-94.727
1687269944.382,-25.879,-35.645,-20.996,7.324,205.566
1687269944.385,-25.391,-32.715,-27.832,-42.480,140.625
1687269944.389,-38.086,-36.621,-32.715,-36.621,-108.398
1687269944.393,-27.344,-32.227,-26.367,0.488,33.691
1687269944.397,-28.320,-32.227,-30.273,-21.973,237.305
1687269944.401,-23.926,-36.133,-37.109,-48.828,29.785
1687269944.404,-18.066,-31.738,-41.504,-56.152,-180.664
1687269944.408,-23.438,-25.879,-38.574,-46.387,29.297
1687269944.412,-30.762,-31.738,-33.203,-35.156,119.141
1687269944.416,-29.785,-31.250,-32.715,-30.762,-44.434
1687269944.420,-18.555,-24.902,-31.250,-40.527,-135.254
1687269944.424,-21.484,-22.949,-33.691,-53.223,77.637
1687269944.428,-25.879,-22.461,-39.062,-46.875,211.914
1687269944.431,-33.203,-24.414,-37.598,-45.898,-48.340
1687269944.435,-43.457,-24.414,-33.691,-31.250,-204.102
1687269944.439,-41.992,-23.926,-35.156,-22.461,-45.898
1687269944.443,-17.090,-21.484,-35.645,-20.508,-20.508
1687269944.447,-14.648,-18.066,-37.109,-27.832,-228.516
1687269944.478,-27.832,-19.043,-37.109,-27.344,-149.902
1687269944.482,-25.391,-18.066,-34.180,0.977,8.789
1687269944.486,-22.461,-12.207,-38.574,-10.254,-29.297
1687269944.490,-27.832,-14.160,-41.992,-45.410,-128.906
1687269944.494,-24.902,-16.602,-41.016,-40.039,-71.289
1687269944.498,-27.344,-18.066,-36.621,-20.996,104.492
1687269944.502,-37.109,-19.043,-31.738,-16.602,89.844
1687269944.505,-34.180,-18.066,-32.227,-6.348,-21.973
1687269944.509,-24.902,-18.555,-33.203,-15.625,-82.031
1687269944.513,-32.715,-22.461,-36.621,-45.410,314.453
1687269944.517,-31.250,-21.484,-37.598,-61.523,268.555
1687269944.521,-15.625,-13.184,-35.645,-63.477,-227.539
1687269944.509,-19.043,-13.672,-36.133,-54.199,-161.133
1687269944.513,-21.484,-12.695,-40.527,-58.594,-83.496
1687269944.517,-20.508,-10.742,-46.875,-47.852,-156.250
1687269944.521,-30.762,-15.625,-38.086,-28.809,-85.449
1687269944.525,-28.809,-15.137,-33.203,-40.039,70.312
1687269944.529,-29.297,-19.043,-39.062,-35.645,96.680
1687269944.533,-32.227,-23.926,-43.457,-30.762,-38.086
1687269944.536,-31.738,-19.043,-42.969,-33.691,-142.090
1687269944.540,-43.457,-20.020,-36.621,-16.602,-83.496
1687269944.544,-43.457,-17.578,-37.109,-25.391,-57.617
1687269944.548,-24.902,-13.672,-36.133,-26.855,-130.859
1687269944.552,-21.484,-13.184,-36.133,-26.855,-164.062
1687269944.554,-29.785,-16.113,-35.645,-24.414,125.977
1687269944.558,-31.250,-22.949,-31.250,-11.230,257.812
1687269944.562,-25.879,-17.578,-34.180,-15.625,-82.520
1687269944.566,-17.090,-16.113,-39.062,-45.898,-134.277
1687269944.570,-11.230,-16.602,-41.504,-58.105,-87.891
1687269944.574,-1.953,-10.254,-39.062,-31.250,-32.227
1687269944.578,-3.906,-7.324,-36.133,-60.059,-17.090
1687269944.581,2.441,-4.395,-43.945,-53.223,-35.645
1687269944.585,7.812,-6.348,-40.527,-2.441,282.715
1687269944.589,-29.297,-21.484,-24.902,-19.043,329.102
1687269944.593,-53.711,-31.738,-24.414,-54.688,-123.047
1687269944.597,-43.457,-29.785,-17.578,-19.531,-132.324
1687269944.599,-45.898,-27.344,-11.230,-5.371,29.297
1687269944.603,-57.129,-25.391,-10.254,-31.738,-128.418
1687269944.607,-70.801,-28.320,-3.418,-9.766,-212.402
1687269944.611,-80.078,-32.715,2.441,3.906,-131.348
1687269944.615,-74.219,-31.250,-3.418,-40.039,-125.488
1687269944.619,-53.711,-31.250,-8.301,-56.641,-122.559
1687269944.623,-39.062,-32.715,-10.742,-34.668,-38.086
1687269944.626,-48.340,-37.598,-17.090,-28.320,112.793
1687269944.630,-61.035,-33.203,-17.578,-46.387,213.867
1687269944.634,-46.875,-20.996,-17.090,-42.969,-49.316
1687269944.638,-33.203,-21.973,-20.020,-33.203,-166.016
1687269944.642,-36.621,-26.367,-17.090,-18.066,9.766
1687269944.644,-38.086,-23.438,-16.113,-20.508,-39.062
1687269944.648,-33.691,-21.973,-17.578,-38.574,-204.102
1687269944.652,-35.645,-27.344,-20.020,-22.949,-183.105
1687269944.656,-26.855,-23.438,-25.879,-11.230,-115.234
1687269944.660,-13.672,-20.996,-27.344,-23.438,-72.754
1687269944.664,-17.578,-24.414,-25.391,-48.828,4.395
1687269944.668,-22.461,-24.414,-30.762,-52.734,26.855
1687269944.671,-26.855,-26.367,-31.738,-46.387,120.605
1687269944.675,-40.039,-27.832,-29.297,-36.621,0.000
1687269944.679,-40.527,-30.762,-28.320,-36.621,-122.070
1687269944.683,-35.156,-28.809,-25.879,-37.598,3.906
1687269944.687,-29.297,-25.879,-26.367,-32.715,346.191
1687269944.689,-34.668,-29.297,-28.320,-42.480,241.699
1687269944.693,-27.832,-22.949,-26.367,-43.457,-151.855
1687269944.697,-17.090,-16.602,-22.949,-30.273,-115.723
1687269944.701,-31.738,-20.996,-22.461,-22.461,-133.789
1687269944.705,-45.410,-26.367,-29.785,-21.484,-203.613
1687269944.709,-37.109,-26.855,-31.250,-23.438,-183.594
1687269944.713,-24.902,-22.949,-28.320,-9.277,145.020
1687269944.716,-23.438,-16.602,-25.391,-20.020,316.406
1687269944.720,-22.461,-13.672,-27.344,-62.012,-77.637
1687269944.724,-30.762,-18.555,-29.297,-68.359,-208.984
1687269944.728,-33.203,-23.438,-26.367,-42.480,-124.023
1687269944.732,-38.574,-23.438,-25.879,-37.598,-113.281
1687269944.734,-36.133,-22.461,-24.902,-36.133,-199.219
1687269944.738,-28.809,-24.902,-25.879,-46.387,-127.930
1687269944.742,-28.320,-27.344,-25.391,-37.109,25.391
1687269944.746,-37.109,-25.879,-23.926,-25.391,-71.777
1687269944.750,-33.203,-24.902,-30.762,-38.574,-155.273
1687269944.754,-23.926,-28.320,-31.738,-46.875,20.996
1687269944.758,-34.668,-27.832,-27.832,-26.855,234.863
1687269944.761,-37.598,-22.461,-28.320,-13.672,75.684
1687269944.765,-28.809,-23.926,-33.691,-26.367,-201.172
1687269944.769,-25.391,-24.414,-26.855,3.418,5.371
1687269944.773,-31.250,-21.484,-19.531,5.859,225.586
1687269944.777,-35.645,-20.508,-25.879,-35.156,-52.246
1687269944.779,-27.832,-17.578,-25.391,-53.223,-248.535
1687269944.783,-24.902,-19.043,-25.879,-63.965,-104.004
1687269944.787,-23.438,-24.902,-28.320,-41.016,-70.801
1687269944.791,-16.602,-23.926,-25.879,-30.762,-151.367
1687269944.795,-23.438,-23.926,-24.902,-38.574,-163.574
1687269944.799,-30.762,-21.973,-25.879,-37.598,101.562
1687269944.803,-36.133,-20.020,-25.879,-32.227,369.141
1687269944.806,-42.480,-20.508,-24.902,-21.973,18.555
1687269944.810,-32.715,-17.090,-26.855,-24.414,-179.688
1687269944.814,-30.762,-17.578,-23.926,-18.066,-111.816
1687269944.818,-28.320,-18.066,-20.996,-22.461,-139.160
1687269944.822,-24.902,-16.113,-25.391,-38.086,-194.824
1687269944.839,-20.508,-15.137,-24.414,-38.086,-151.855
1687269944.843,-19.043,-18.555,-25.879,-33.203,-91.309
1687269944.847,-27.344,-22.949,-30.273,-33.203,-139.160
1687269944.851,-31.250,-21.973,-29.297,-42.969,-151.855
1687269944.855,-37.598,-24.902,-27.832,-23.926,-96.191
1687269944.859,-41.504,-28.320,-29.785,-18.066,-2.930
1687269944.863,-40.039,-27.832,-31.250,-51.270,38.086
1687269944.866,-45.410,-29.297,-36.133,-67.871,-19.531
1687269944.870,-46.875,-30.273,-42.480,-77.637,-51.270
1687269944.874,-37.109,-26.855,-39.062,-60.547,333.496
1687269944.878,-35.156,-23.926,-31.250,-32.715,392.578
1687269944.882,-43.457,-24.902,-31.738,-40.527,-101.562
1687269944.884,-36.133,-24.902,-35.645,-47.363,-156.250
1687269944.888,-23.926,-26.367,-33.691,-39.062,-129.883
1687269944.892,-33.203,-27.832,-29.785,-27.344,-205.078
1687269944.896,-45.410,-25.879,-28.320,-37.598,-169.434
1687269944.900,-42.480,-25.391,-29.785,-54.688,-95.215
1687269944.904,-39.062,-24.902,-25.391,-45.898,43.457
1687269944.908,-34.668,-26.367,-24.414,-43.945,89.355
1687269944.911,-41.992,-29.297,-28.809,-41.992,-117.676
1687269944.915,-53.223,-26.855,-22.949,-18.555,53.223
1687269944.919,-46.387,-27.344,-20.020,-13.672,359.375
1687269944.923,-40.039,-29.785,-22.461,-32.227,21.484
1687269944.927,-41.992,-29.785,-29.297,-40.039,-169.922
1687269944.929,-41.992,-24.414,-32.715,-41.016,-105.957
1687269944.933,-26.855,-20.996,-29.297,-48.340,-114.746
1687269944.937,-27.344,-22.949,-31.738,-40.039,-133.301
1687269944.941,-32.227,-20.508,-30.762,-33.203,-88.867
1687269944.945,-22.461,-18.555,-21.973,-48.340,-32.715
1687269944.949,-28.809,-24.414,-19.531,-45.410,-32.227
1687269944.953,-44.922,-29.297,-25.391,-37.598,-40.527
1687269944.956,-38.086,-23.926,-23.926,-25.879,-67.383
1687269944.960,-32.715,-25.879,-22.949,-9.277,192.383
1687269944.964,-41.992,-28.809,-29.297,-23.438,218.750
1687269944.968,-42.969,-25.391,-31.738,-27.344,-64.453
1687269944.972,-36.133,-27.344,-25.879,-10.254,34.668
1687269944.975,-37.598,-32.227,-22.949,-6.836,286.133
1687269944.979,-43.457,-30.273,-28.320,-41.992,43.945
1687269944.983,-36.133,-26.367,-27.344,-46.387,-216.309
1687269944.987,-30.273,-27.344,-26.367,-30.273,-126.465
1687269944.991,-39.551,-28.809,-29.785,-44.922,-83.496
1687269944.995,-47.363,-28.320,-28.320,-51.270,-62.988
1687269944.999,-32.715,-23.926,-27.832,-72.754,-61.035
1687269945.002,-22.949,-22.461,-25.879,-56.152,73.730
1687269945.006,-21.484,-22.461,-19.531,-32.715,130.859
1687269945.010,-27.832,-22.949,-19.043,-43.457,-172.363
1687269945.014,-38.574,-25.391,-24.902,-40.527,-260.742
1687269945.018,-45.898,-31.738,-26.367,-39.551,-176.758
1687269945.020,-46.387,-32.715,-23.438,-36.133,-179.199
1687269945.024,-36.133,-32.227,-19.531,-30.762,-146.484
1687269945.028,-12.695,-41.016,-9.766,-3.906,-68.359
1687269945.032,-4.883,-37.109,-10.742,14.160,-32.227
1687269945.036,-27.832,-18.066,-29.297,-29.785,-34.668
1687269945.040,-42.969,-9.277,-44.922,-59.570,-61.523
1687269945.044,-39.551,-13.672,-50.293,-50.781,-52.734
1687269945.047,-33.203,-14.160,-52.246,-53.223,264.160
1687269945.051,-39.062,-5.859,-61.035,-57.617,298.340
1687269945.055,-48.828,-2.930,-68.848,-61.035,-20.508
1687269945.059,-47.363,-4.395,-73.242,-75.195,25.391
1687269945.063,-49.316,-6.836,-79.102,-85.449,92.773
1687269945.064,-56.641,-6.836,-83.984,-90.820,-107.910
1687269945.068,-56.152,-7.812,-89.355,-89.355,-220.703
1687269945.072,-46.387,-1.465,-93.262,-83.008,-109.863
1687269945.076,-48.828,1.953,-98.633,-101.074,-84.473
1687269945.080,-48.340,0.488,-101.074,-108.887,-88.867
1687269945.084,-34.180,-1.953,-101.562,-93.262,-74.219
1687269945.088,-41.016,-6.836,-103.027,-91.309,130.371
1687269945.091,-43.945,-9.766,-97.168,-84.961,365.234
1687269945.095,-38.574,-8.789,-91.797,-91.797,64.453
1687269945.099,-36.133,-7.324,-78.613,-86.426,-158.203
1687269945.103,-23.438,-6.836,-66.406,-60.547,-140.137
1687269945.107,-17.090,-10.254,-62.988,-48.340,-153.320
1687269945.109,-19.043,-15.625,-56.641,-27.832,-183.105
1687269945.113,-28.320,-17.090,-58.105,-17.578,-136.230
1687269945.117,-33.203,-19.043,-60.547,-61.523,-73.242
1687269945.121,-30.762,-18.066,-52.734,-86.426,-128.418
1687269945.125,-20.996,-17.090,-47.363,-74.219,-163.574
1687269945.129,-8.301,-20.020,-42.480,-55.176,-12.207
1687269945.133,-7.812,-22.461,-37.109,-30.762,259.766
1687269945.136,-25.879,-26.855,-43.945,-39.551,188.477
1687269945.140,-27.832,-31.738,-40.527,-31.250,-95.215
1687269945.144,-14.648,-28.320,-32.227,-26.367,-69.336
1687269945.148,-10.742,-15.137,-26.367,-23.926,243.164
1687269945.152,-16.113,-10.254,-30.762,-24.902,128.906
1687269945.154,-18.555,-16.113,-38.086,-40.039,-174.316
1687269945.158,-14.160,-18.066,-38.574,-28.320,-129.883
1687269945.162,-23.438,-25.391,-32.715,-27.832,-130.371
1687269945.166,-25.879,-26.855,-26.367,-40.527,-190.430
1687269945.170,-19.043,-19.531,-24.414,-30.273,-217.773
1687269945.174,-14.648,-13.672,-25.391,-22.949,74.219
1687269945.178,-31.738,-21.973,-26.855,-26.367,161.133
1687269945.181,-37.109,-32.227,-25.879,-24.902,-115.234
1687269945.185,-27.344,-30.273,-27.344,-21.484,-212.402
1687269945.189,-37.598,-30.762,-23.926,-14.160,57.129
1687269945.193,-41.016,-28.320,-24.902,-9.277,227.539
1687269945.197,-28.320,-21.484,-29.785,-29.297,-120.117
1687269945.214,-24.902,-21.973,-27.344,-32.715,-193.848
1687269945.218,-37.598,-25.879,-24.414,-38.574,-85.938
1687269945.222,-36.621,-23.926,-21.973,-38.086,-78.613
1687269945.226,-30.762,-22.949,-21.484,-26.855,-129.395
1687269945.230,-23.926,-23.926,-27.832,-44.434,-102.539
1687269945.234,-11.230,-24.414,-26.855,-39.551,35.645
1687269945.238,-22.949,-22.461,-20.508,-50.781,9.277
1687269945.241,-39.551,-22.949,-23.926,-71.777,-128.418
1687269945.245,-28.809,-21.484,-23.438,-53.711,-136.230
1687269945.249,-28.809,-24.902,-20.996,-30.762,286.621
1687269945.253,-38.086,-26.855,-24.902,-34.180,284.180
1687269945.257,-34.180,-20.996,-25.879,-35.645,-163.574
1687269945.259,-44.434,-23.438,-20.508,-17.090,-19.043
1687269945.263,-47.852,-27.344,-19.531,-20.508,88.379
1687269945.267,-35.156,-30.273,-24.414,-31.250,-126.465
1687269945.271,-30.273,-33.691,-24.902,-25.879,-197.754
1687269945.275,-33.203,-31.250,-19.043,-19.043,-82.520
1687269945.279,-32.715,-26.855,-22.949,-26.855,54.199
1687269945.283,-24.414,-24.414,-24.902,-20.020,76.172
1687269945.286,-30.762,-24.902,-20.508,-21.484,-79.590
1687269945.290,-23.438,-22.461,-18.555,-16.113,9.766
1687269945.294,-6.348,-21.973,-14.160,0.488,176.270
1687269945.298,-18.555,-25.391,-24.414,-21.973,-91.309
1687269945.302,-26.855,-25.879,-27.832,-30.762,-173.340
1687269945.305,-31.250,-27.832,-20.020,-11.230,-138.184
1687269945.309,-19.531,-25.391,-23.438,-12.695,-164.062
1687269945.313,-19.531,-22.949,-28.320,-15.625,-87.891
1687269945.317,-35.645,-26.855,-22.461,-8.789,-63.965
1687269945.321,-19.531,-32.227,-13.672,3.906,-54.688
1687269945.325,-15.625,-27.344,-14.160,-4.883,68.359
1687269945.329,-53.223,-20.996,-21.973,-38.574,25.879
1687269945.332,-64.453,-21.484,-32.715,-47.363,-77.148
1687269945.336,-52.246,-21.484,-39.551,-44.434,162.109
1687269945.340,-43.945,-22.461,-43.945,-47.852,205.078
1687269945.344,-49.805,-20.996,-48.340,-51.270,-119.141
1687269945.348,-57.617,-23.926,-53.711,-52.734,-96.191
1687269945.349,-56.641,-23.438,-58.594,-68.848,26.367
1687269945.353,-52.734,-16.602,-60.059,-77.148,-139.648
1687269945.357,-43.945,-16.113,-48.828,-59.570,-150.391
1687269945.361,-36.621,-22.461,-40.039,-28.320,-36.621
1687269945.365,-42.969,-24.414,-40.527,-44.922,-31.738
1687269945.369,-66.895,-28.320,-43.945,-71.777,-78.125
1687269945.373,-58.594,-33.691,-39.551,-66.406,-109.375
1687269945.376,-30.273,-32.227,-23.926,-36.133,146.973
1687269945.380,-46.387,-28.809,-32.715,-34.180,354.980
1687269945.384,-54.199,-24.414,-36.621,-49.316,18.555
1687269945.388,-40.527,-29.297,-27.344,-40.039,-189.453
1687269945.392,-45.898,-32.715,-35.156,-42.969,-142.578
1687269945.394,-41.992,-29.297,-35.645,-41.992,-136.719
1687269945.398,-21.484,-23.926,-32.227,-54.199,-144.531
1687269945.402,-8.301,-18.555,-32.715,-74.707,-166.992
1687269945.406,-5.859,-17.578,-31.738,-62.012,-96.191
1687269945.410,-16.602,-22.949,-25.879,-41.992,-39.551
1687269945.414,-37.598,-30.762,-26.367,-36.133,-47.852
1687269945.418,-49.316,-31.250,-28.320,-17.578,-9.766
1687269945.421,-44.922,-31.250,-27.832,-14.648,308.594
1687269945.425,-55.664,-35.156,-32.715,-37.109,290.527
1687269945.429,-67.383,-31.738,-36.621,-57.129,-83.008
1687269945.433,-52.734,-28.320,-36.621,-71.289,-43.457
1687269945.437,-47.363,-31.738,-31.250,-45.898,32.227
1687269945.439,-52.246,-39.551,-29.297,-17.578,-112.793
1687269945.443,-48.828,-43.457,-26.367,-38.086,-234.863
1687269945.447,-48.828,-37.109,-25.879,-41.016,-164.062
1687269945.451,-52.246,-33.203,-23.926,-26.855,-138.184
1687269945.455,-54.199,-36.621,-29.785,-39.551,-198.730
1687269945.459,-52.246,-32.227,-36.133,-55.664,-177.246
1687269945.463,-55.664,-32.715,-35.645,-66.406,141.113
1687269945.466,-59.570,-33.691,-33.203,-46.875,277.344
1687269945.470,-67.871,-34.180,-29.297,-37.598,-94.727
1687269945.474,-57.129,-36.621,-25.391,-41.504,-160.645
1687269945.478,-31.250,-28.809,-32.715,-60.547,40.039
1687269945.482,-16.602,-20.996,-33.691,-54.688,-28.320
1687269945.484,-17.090,-21.484,-21.484,-26.855,-191.895
1687269945.488,-46.387,-30.762,-21.973,-25.879,-141.113
1687269945.492,-53.711,-37.109,-27.832,-27.832,-109.375
1687269945.496,-35.645,-31.250,-23.438,-11.719,-117.676
1687269945.500,-35.156,-29.297,-23.438,-22.949,-149.414
1687269945.504,-46.875,-31.250,-33.203,-42.969,-94.238
1687269945.508,-50.781,-31.738,-30.762,-46.387,248.047
1687269945.511,-47.363,-31.250,-26.367,-58.105,186.035
1687269945.515,-57.617,-32.227,-28.809,-56.641,-199.707
1687269945.519,-51.270,-29.785,-27.344,-51.758,-16.602
1687269945.523,-19.531,-17.090,-30.273,-34.180,182.617
1687269945.527,-23.926,-17.578,-34.180,-25.879,-54.688
1687269945.529,-48.340,-33.203,-29.785,-48.340,-139.160
1687269945.533,-51.758,-37.109,-21.973,-53.223,-17.578
1687269945.537,-41.504,-29.785,-24.414,-42.480,-1.953
1687269945.541,-41.016,-38.086,-22.461,-27.344,-162.598
1687269945.545,-56.641,-49.316,-17.578,-16.602,-192.871
1687269945.549,-41.992,-40.039,-22.461,-37.109,133.789
1687269945.553,-40.039,-28.809,-25.391,-60.547,223.145
1687269945.556,-42.480,-23.438,-24.902,-67.383,-101.074
1687269945.560,-44.434,-27.832,-17.090,-26.367,-233.398
1687269945.564,-52.246,-31.738,-12.695,-8.789,-22.949
1687269945.568,-54.199,-31.738,-23.438,-35.645,71.289
1687269945.572,-57.129,-31.738,-34.180,-55.664,-134.766
1687269945.589,-45.410,-33.203,-37.109,-68.359,-163.086
1687269945.593,-54.199,-40.527,-31.250,-55.176,-127.930
1687269945.597,-38.086,-26.367,-30.273,-46.387,-46.387
1687269945.601,-28.809,-21.973,-33.203,-43.457,-61.523
1687269945.605,-39.551,-30.273,-33.203,-46.387,-148.926
1687269945.609,-31.738,-29.297,-25.879,-41.504,184.082
1687269945.613,-42.480,-32.715,-23.438,-32.227,215.820
1687269945.616,-40.039,-33.691,-25.879,-40.527,-148.926
1687269945.620,-32.715,-35.645,-22.461,-38.086,-83.008
1687269945.624,-41.504,-34.668,-22.949,-31.738,206.543
1687269945.628,-39.062,-31.250,-30.762,-51.270,81.543
1687269945.632,-49.316,-35.156,-33.691,-63.965,-215.332
1687269945.634,-38.574,-30.762,-31.250,-26.855,-121.582
1687269945.638,-24.414,-26.855,-25.879,-10.254,39.551
1687269945.642,-35.156,-31.738,-26.855,-52.734,-105.469
1687269945.646,-34.668,-34.180,-30.762,-62.012,-190.430
1687269945.650,-40.527,-40.527,-26.367,-33.203,-93.750
1687269945.654,-41.016,-37.598,-21.484,-16.602,74.707
1687269945.658,-26.855,-29.297,-23.926,-32.715,43.945
1687269945.661,-22.461,-27.344,-30.762,-53.711,-105.469
1687269945.665,-28.320,-30.273,-30.762,-38.086,16.602
1687269945.669,-22.949,-25.391,-30.273,-30.762,173.828
1687269945.673,-40.039,-30.762,-29.785,-32.715,-148.926
1687269945.677,-46.387,-36.621,-26.855,-10.742,-337.402
1687269945.679,-26.855,-22.949,-23.438,-10.742,-218.262
1687269945.683,-21.973,-22.461,-24.414,-17.578,-193.848
1687269945.687,-23.926,-30.273,-23.926,3.906,-195.801
1687269945.691,-20.996,-31.250,-18.066,-11.230,-187.012
1687269945.695,-44.434,-32.715,-20.996,-49.316,-139.648
1687269945.699,-48.340,-35.645,-20.508,-44.922,-2.930
1687269945.703,-24.414,-29.297,-17.090,-23.438,57.129
1687269945.706,-17.090,-20.508,-22.949,-27.344,-30.273
1687269945.710,-21.973,-24.902,-18.555,-14.648,248.047
1687269945.714,-33.691,-28.809,-18.066,8.301,379.883
1687269945.718,-28.809,-21.973,-23.438,-1.953,-71.777
1687269945.722,-32.715,-27.344,-19.531,-12.207,-115.723
1687269945.724,-29.785,-22.949,-20.996,-13.184,42.480
1687269945.728,-21.484,-15.625,-22.949,-28.809,-151.367
1687269945.732,-32.227,-20.508,-22.461,-41.504,-282.715
1687269945.736,-34.668,-24.414,-23.926,-20.996,-138.672
1687269945.740,-38.086,-30.273,-21.484,-15.625,6.348
1687269945.744,-41.016,-31.250,-23.438,-39.062,-3.418
1687269945.748,-36.621,-30.273,-25.391,-44.922,9.277
1687269945.751,-34.668,-34.180,-22.949,-34.180,230.469
1687269945.755,-32.715,-33.203,-24.414,-29.297,287.598
1687269945.759,-28.809,-29.297,-19.043,-26.855,-62.988
1687269945.763,-33.203,-41.016,-16.113,-13.184,-135.254
1687269945.767,-46.387,-46.387,-21.973,-15.625,54.199
1687269945.769,-42.480,-39.551,-18.066,-16.602,58.594
1687269945.773,-41.504,-37.109,-16.113,-9.277,-22.949
1687269945.777,-31.738,-31.250,-20.020,-12.695,-41.504
1687269945.781,-24.902,-29.297,-21.484,-10.254,-63.965
1687269945.785,-30.762,-31.738,-25.391,-21.973,-131.836
1687269945.789,-42.969,-34.668,-21.484,-38.574,-88.379
1687269945.793,-51.270,-33.203,-16.602,-44.434,69.824
1687269945.796,-53.711,-32.227,-20.020,-34.180,238.770
1687269945.800,-40.527,-33.691,-24.902,-31.250,108.887
1687269945.804,-43.457,-32.715,-24.902,-38.574,-122.559
1687269945.808,-46.387,-32.715,-27.832,-20.508,-29.785
1687269945.812,-42.969,-33.203,-22.949,-19.043,-41.016
1687269945.815,-44.922,-32.715,-23.438,-37.109,-90.820
1687269945.819,-25.391,-29.785,-28.320,-47.363,-129.395
1687269945.823,-16.602,-27.832,-26.367,-44.434,-68.359
1687269945.827,-33.691,-27.344,-19.043,-13.672,195.312
1687269945.831,-42.969,-29.297,-14.648,-12.207,53.223
1687269945.835,-34.180,-24.414,-21.973,-37.598,-86.426
1687269945.839,-32.715,-20.020,-22.461,-39.551,148.926
1687269945.842,-29.785,-25.391,-23.926,-24.902,216.797
1687269945.846,-29.785,-23.926,-23.926,-34.668,-119.141
1687269945.850,-41.016,-24.902,-17.090,-27.832,-227.051
1687269945.854,-34.180,-25.391,-20.020,-20.996,-78.613
1687269945.858,-34.668,-28.809,-24.902,-31.250,-75.195
1687269945.859,-40.527,-27.344,-20.996,-28.320,-199.707
1687269945.863,-29.785,-21.484,-22.461,-22.949,-181.641
1687269945.867,-34.180,-23.926,-26.855,-20.996,-82.031
1687269945.871,-42.969,-23.926,-26.855,-22.461,-41.992
1687269945.875,-39.551,-26.855,-25.391,-25.879,-137.695
1687269945.879,-40.039,-29.785,-20.996,-18.555,-83.008
1687269945.883,-41.504,-31.738,-24.902,-10.742,349.609
1687269945.886,-41.016,-29.785,-30.273,-26.855,308.594
1687269945.890,-41.992,-24.902,-23.926,-20.508,-163.574
1687269945.894,-43.457,-24.414,-20.020,-17.578,-107.910
1687269945.898,-39.551,-25.391,-28.809,-41.504,102.051
1687269945.902,-30.273,-27.344,-33.691,-53.711,-44.434
1687269945.919,-31.250,-28.320,-29.297,-50.781,-229.980
1687269945.923,-36.133,-29.297,-28.809,-40.039,-108.398
1687269945.927,-35.156,-27.344,-28.320,-31.738,-40.527
1687269945.931,-57.129,-25.879,-29.785,-37.598,-117.676
1687269945.935,-58.594,-26.855,-28.809,-44.434,-157.715
1687269945.939,-38.086,-20.996,-30.273,-41.992,62.012
1687269945.943,-29.297,-11.230,-30.273,-36.133,190.918
1687269945.946,-28.320,-18.555,-21.973,-22.461,1.953
1687269945.950,-38.086,-26.367,-26.367,-28.320,-151.855
1687269945.954,-48.828,-26.855,-29.297,-40.039,17.578
1687269945.958,-49.805,-29.785,-23.438,-29.785,213.867
1687269945.962,-53.223,-31.738,-24.414,-33.203,-97.656
1687269945.964,-49.805,-29.297,-26.367,-26.855,-209.961
1687269945.968,-40.527,-23.926,-24.902,-10.742,-134.277
1687269945.972,-41.504,-22.949,-29.785,-26.855,-133.789
1687269945.976,-44.434,-27.832,-30.762,-41.992,-169.922
1687269945.980,-44.922,-27.344,-28.320,-40.039,-111.816
1687269945.984,-26.367,-24.414,-24.902,-23.438,82.520
1687269945.988,-22.949,-28.809,-25.879,-28.320,90.820
1687269945.991,-40.527,-24.902,-28.809,-41.504,-88.379
1687269945.995,-42.969,-22.949,-29.297,-41.016,-41.504
1687269945.999,-51.270,-30.762,-22.949,-23.926,335.938
1687269946.003,-58.594,-29.785,-17.090,-16.602,403.320
1687269946.007,-50.781,-28.320,-19.043,-33.691,-18.555
1687269946.009,-45.410,-30.273,-20.020,-24.414,-174.316
1687269946.013,-42.480,-31.250,-19.531,-12.695,-144.043
1687269946.017,-36.133,-24.902,-26.855,-21.973,-206.543
1687269946.021,-36.621,-24.902,-32.227,-36.621,-212.402
1687269946.025,-27.832,-29.297,-26.855,-38.086,-30.273
1687269946.029,-17.090,-27.832,-25.879,-20.508,67.383
1687269946.033,-28.320,-27.344,-30.273,-20.020,-71.289
1687269946.036,-23.926,-20.996,-28.809,-36.133,-190.918
1687269946.040,-20.996,-20.996,-24.414,-30.762,-21.484
1687269946.044,-35.645,-27.832,-25.879,-28.809,155.273
1687269946.048,-45.410,-28.809,-30.762,-46.875,-82.520
1687269946.052,-41.016,-30.762,-32.715,-39.062,-190.430
1687269946.054,-30.762,-26.855,-28.320,-15.625,-74.219
1687269946.058,-31.738,-22.461,-28.320,-34.180,-17.578
1687269946.062,-34.668,-26.367,-32.715,-52.734,-92.773
1687269946.066,-32.715,-33.691,-27.832,-45.410,-72.266
1687269946.070,-23.926,-29.785,-32.227,-47.363,-37.109
1687269946.074,-23.926,-23.438,-28.809,-34.180,10.742
1687269946.078,-22.949,-24.414,-29.785,-31.738,18.555
1687269946.081,-17.578,-20.996,-29.297,-31.738,-59.082
1687269946.085,-30.762,-28.320,-23.438,-19.531,153.809
1687269946.089,-40.527,-38.574,-25.391,-25.879,208.008
1687269946.093,-31.250,-35.645,-23.926,-35.156,-131.836
1687269946.097,-22.949,-25.879,-29.297,-32.715,-114.258
1687269946.100,-12.695,-17.090,-30.762,-21.484,113.281
1687269946.104,-23.438,-25.391,-26.855,-30.762,-25.879
1687269946.108,-41.016,-33.691,-20.020,-31.738,-194.824
1687269946.112,-39.551,-30.762,-18.555,-28.809,-42.969
1687269946.116,-40.527,-31.250,-23.926,-29.785,17.578
1687269946.120,-57.129,-37.598,-20.020,-7.324,-72.266
1687269946.124,-61.523,-39.551,-21.484,-29.785,-49.316
1687269946.127,-46.875,-31.250,-25.391,-47.852,117.188
1687269946.131,-53.223,-25.391,-25.391,-41.504,220.703
1687269946.135,-52.246,-26.367,-25.879,-37.598,-100.586
1687269946.139,-42.480,-21.484,-23.438,-27.832,-202.637
1687269946.143,-49.805,-22.461,-22.461,-40.527,-100.098
1687269946.144,-38.086,-27.344,-26.855,-34.180,-118.164
1687269946.148,-31.250,-26.855,-27.832,-24.414,-171.875
1687269946.152,-38.574,-32.715,-17.090,-21.484,-167.480
1687269946.156,-38.086,-31.738,-15.137,-25.879,-67.871
1687269946.160,-39.062,-25.391,-18.555,-29.785,-82.031
1687269946.164,-40.527,-25.391,-17.090,-23.438,-77.148
1687269946.168,-36.621,-24.414,-17.090,-45.898,-61.035
1687269946.171,-30.762,-22.461,-18.555,-41.504,216.309
1687269946.175,-33.203,-19.531,-25.879,-38.086,261.719
1687269946.179,-38.574,-21.484,-27.832,-44.434,-95.215
1687269946.183,-38.574,-28.320,-21.484,-27.344,-32.227
1687269946.187,-41.992,-28.809,-18.555,-21.973,41.016
1687269946.189,-45.898,-34.180,-17.090,-29.297,-135.742
1687269946.193,-46.387,-38.574,-23.438,-38.574,-259.766
1687269946.197,-40.039,-31.738,-25.879,-42.480,-109.375
1687269946.201,-31.738,-27.344,-29.297,-31.738,-55.176
1687269946.205,-30.762,-22.461,-34.668,-14.648,-121.582
1687269946.209,-44.922,-26.855,-28.809,-38.574,-73.730
1687269946.213,-54.688,-35.645,-21.973,-58.594,143.555
1687269946.216,-36.621,-37.109,-19.531,-38.574,381.348
1687269946.220,-33.203,-36.133,-20.508,-40.039,23.926
1687269946.224,-45.410,-33.203,-19.531,-44.922,-226.562
1687269946.228,-45.410,-35.645,-22.949,-51.758,-137.695
1687269946.232,-34.180,-34.180,-26.855,-38.574,-134.766
1687269946.234,-26.855,-25.879,-30.273,-33.691,-134.766
1687269946.238,-33.203,-29.785,-29.785,-47.363,-113.770
1687269946.242,-41.992,-32.715,-28.320,-38.574,-37.598
1687269946.246,-37.109,-27.344,-31.250,-37.598,-57.617
1687269946.250,-30.273,-24.902,-29.785,-33.691,-113.770
1687269946.254,-53.223,-27.344,-25.879,-17.578,-53.711
1687269946.258,-63.477,-27.832,-19.531,-4.395,236.328
1687269946.261,-50.781,-25.879,-20.508,-9.277,157.715
1687269946.265,-54.199,-31.250,-22.461,-11.719,-112.793
1687269946.269,-55.176,-39.062,-20.508,-16.602,68.848
1687269946.273,-48.340,-35.156,-23.926,-26.367,191.406
1687269946.277,-36.133,-24.414,-31.738,-33.691,-15.625
1687269946.279,-30.762,-20.020,-30.273,-43.457,-191.406
1687269946.283,-36.621,-23.438,-26.855,-35.156,-62.012
1687269946.287,-42.969,-31.250,-26.855,-30.273,76.172
1687269946.291,-35.645,-32.227,-22.949,-41.016,-107.422
1687269946.295,-28.320,-27.344,-20.508,-33.203,-194.336
1687269946.299,-20.508,-24.414,-22.949,-31.250,69.824
1687269946.303,-22.461,-22.461,-20.996,-48.828,104.980
1687269946.306,-31.250,-24.414,-27.344,-48.340,-100.586
1687269946.310,-34.180,-28.320,-36.133,-41.016,-157.715
1687269946.314,-40.039,-30.762,-37.109,-33.691,16.113
1687269946.318,-45.410,-30.273,-38.574,-33.691,96.191
1687269946.322,-45.898,-34.180,-29.785,-22.461,-70.312
1687269946.339,-33.691,-29.785,-19.043,-18.066,-101.074
1687269946.343,-33.691,-23.926,-30.273,-37.109,1.465
1687269946.347,-32.715,-24.902,-38.086,-38.086,-25.879
1687269946.351,-24.414,-23.438,-35.156,-43.457,-189.941
1687269946.355,-36.133,-26.855,-34.180,-56.152,-148.926
1687269946.359,-43.457,-30.762,-30.273,-38.086,-20.020
1687269946.363,-40.039,-23.926,-27.832,-22.949,-33.203
1687269946.366,-38.574,-22.949,-31.250,-29.297,-90.332
1687269946.370,-35.645,-23.926,-32.715,-38.086,-167.480
1687269946.374,-46.875,-26.367,-24.902,-35.645,252.930
1687269946.378,-47.852,-27.344,-25.879,-22.461,337.891
1687269946.382,-33.691,-23.926,-35.645,-33.691,-146.973
1687269946.384,-35.156,-28.809,-34.180,-48.340,-97.656
1687269946.388,-41.016,-25.391,-30.273,-40.039,-9.766
1687269946.392,-32.715,-17.578,-29.297,-42.480,-123.047
1687269946.396,-40.039,-18.066,-26.367,-37.109,-212.402
1687269946.400,-41.992,-18.555,-22.949,-15.137,17.090
1687269946.404,-46.875,-19.531,-23.926,-17.578,223.633
1687269946.408,-49.805,-23.438,-29.297,-32.715,104.004
1687269946.411,-32.715,-25.391,-31.738,-39.551,-84.961
1687269946.415,-25.879,-31.250,-27.344,-32.715,-1.953
1687269946.419,-37.598,-34.180,-24.902,-24.902,178.711
1687269946.423,-42.969,-27.832,-24.902,-20.020,-74.219
1687269946.427,-36.621,-20.996,-22.461,-15.625,-128.418
1687269946.429,-32.227,-16.113,-22.949,-18.555,-97.656
1687269946.433,-25.391,-14.160,-27.344,-41.504,-128.418
1687269946.437,-22.949,-13.672,-26.855,-44.922,-168.945
1687269946.441,-24.414,-21.484,-24.414,-34.668,-122.559
1687269946.445,-26.855,-22.461,-26.855,-30.273,-0.488
1687269946.449,-37.598,-19.043,-25.391,-23.438,-11.719
1687269946.453,-38.086,-22.461,-26.367,-33.203,12.207
1687269946.456,-35.156,-24.414,-26.855,-35.645,-26.855
1687269946.460,-38.574,-28.809,-28.320,-32.227,214.355
1687269946.464,-47.852,-30.762,-30.762,-32.715,311.523
1687269946.468,-52.734,-30.762,-31.250,-37.109,-139.648
1687269946.472,-54.199,-30.762,-33.203,-48.828,-181.641
1687269946.474,-49.805,-27.832,-27.832,-54.199,10.742
1687269946.478,-30.762,-26.367,-30.273,-58.594,-95.215
1687269946.482,-30.762,-23.926,-30.762,-50.781,-181.641
1687269946.486,-33.203,-24.414,-28.809,-27.832,-91.797
1687269946.490,-27.832,-26.855,-26.855,-30.762,-70.801
1687269946.494,-33.203,-25.391,-23.438,-43.945,-82.520
1687269946.498,-33.691,-22.461,-19.531,-45.410,-42.969
1687269946.501,-34.668,-28.320,-15.137,-27.832,192.871
1687269946.505,-37.598,-40.039,-15.625,-7.812,415.527
1687269946.509,-33.203,-35.645,-19.043,-5.371,40.527
1687269946.513,-39.062,-19.531,-22.949,-25.391,-213.379
1687269946.517,-48.828,-13.672,-26.855,-40.527,-137.207
1687269946.519,-41.016,-15.137,-31.250,-43.457,-91.309
1687269946.523,-28.320,-19.043,-36.133,-56.152,-135.254
1687269946.527,-19.531,-15.137,-35.156,-48.828,-191.895
1687269946.531,-15.625,-8.789,-25.879,-37.109,-116.699
1687269946.535,-18.066,-8.301,-20.020,-29.785,-89.355
1687269946.539,-22.461,-16.113,-20.020,-31.738,-83.496
1687269946.543,-35.156,-23.926,-20.996,-27.344,-19.531
1687269946.546,-41.504,-25.879,-20.020,-16.602,234.375
1687269946.550,-40.527,-26.367,-26.367,-40.527,104.492
1687269946.554,-40.527,-22.949,-31.738,-40.039,-169.922
1687269946.558,-38.086,-20.996,-28.320,-20.996,-34.180
1687269946.562,-38.086,-24.414,-28.320,-37.109,69.824
1687269946.564,-30.762,-25.391,-28.809,-44.922,-78.125
1687269946.568,-27.344,-22.949,-23.926,-25.391,-203.125
1687269946.572,-24.414,-23.438,-25.879,-18.555,-87.891
1687269946.576,-18.066,-25.879,-32.715,-25.391,-26.855
1687269946.580,-25.879,-23.926,-32.227,-26.367,-162.598
1687269946.584,-28.320,-24.414,-29.297,-35.645,-188.965
1687269946.588,-29.785,-25.879,-29.297,-45.410,93.262
1687269946.591,-30.762,-25.391,-32.715,-32.227,287.598
1687269946.595,-35.645,-30.762,-34.180,-23.926,1.953
1687269946.599,-38.086,-37.109,-33.203,-26.367,-156.250
1687269946.603,-30.762,-35.645,-31.738,-34.180,-164.062
1687269946.607,-36.133,-29.297,-32.715,-52.246,-111.816
1687269946.624,-39.551,-23.438,-29.785,-36.621,-98.633
1687269946.628,-29.297,-23.438,-23.438,-20.020,-130.859
1687269946.632,-23.438,-23.438,-23.926,-23.438,-23.438
1687269946.636,-36.133,-24.902,-27.832,-24.902,-37.109
1687269946.640,-28.809,-21.973,-28.809,-21.973,-118.652
1687269946.644,-19.531,-20.020,-29.297,-36.621,-33.691
1687269946.648,-30.762,-28.809,-27.344,-33.203,286.621
1687269946.651,-25.879,-26.367,-25.391,-20.508,263.672
1687269946.655,-20.508,-17.090,-27.344,-26.367,-130.371
1687269946.659,-27.344,-20.508,-26.855,-35.156,-47.852
1687269946.663,-37.109,-20.996,-22.949,-30.273,127.930
1687269946.667,-50.781,-21.973,-21.484,-28.320,-34.668
1687269946.655,-32.715,-28.320,-20.020,-22.461,-166.016
1687269946.659,-4.883,-25.879,-22.461,-23.438,-76.172
1687269946.663,-26.367,-24.902,-25.391,-23.438,-70.312
1687269946.667,-36.621,-25.879,-26.367,-22.949,-201.172
1687269946.671,-20.508,-22.461,-25.879,-30.273,-179.199
1687269946.675,-24.414,-24.414,-20.996,-27.832,13.672
1687269946.679,-42.480,-24.902,-22.461,-27.832,89.355
1687269946.682,-33.691,-21.484,-25.879,-31.738,-70.312
1687269946.686,-33.203,-29.785,-28.320,-41.504,-231.445
1687269946.690,-40.527,-32.715,-32.715,-35.156,-23.926
1687269946.694,-36.621,-29.785,-31.250,-16.602,199.219
1687269946.698,-41.016,-33.691,-22.949,-15.137,-135.742
1687269946.715,-35.156,-28.320,-22.949,-20.996,-286.621
1687269946.719,-43.457,-22.461,-25.391,-48.340,-183.105
1687269946.723,-45.898,-25.391,-24.902,-49.805,-171.875
1687269946.727,-34.180,-23.926,-24.414,-26.855,-231.445
1687269946.731,-31.250,-18.555,-28.320,-36.133,-185.547
1687269946.735,-34.668,-23.926,-27.832,-37.109,179.199
1687269946.739,-33.691,-26.367,-26.855,-29.785,183.594
1687269946.742,-36.621,-21.973,-29.297,-40.039,-113.770
1687269946.746,-39.062,-22.949,-25.391,-41.016,-154.297
1687269946.750,-44.434,-26.855,-21.973,-14.648,125.488
1687269946.754,-52.246,-24.414,-22.461,-14.160,93.750
1687269946.758,-44.434,-21.484,-21.973,-32.715,-174.316
1687269946.759,-31.250,-19.043,-21.484,-38.086,-111.816
1687269946.763,-32.715,-19.043,-22.461,-41.016,-73.730
1687269946.767,-38.574,-22.461,-22.949,-34.180,-125.977
1687269946.771,-35.156,-27.344,-23.926,-25.879,-185.547
1687269946.775,-26.855,-23.438,-28.320,-30.762,-119.141
1687269946.779,-19.531,-16.113,-34.668,-37.109,108.887
1687269946.783,-21.973,-19.531,-34.668,-40.039,159.668
1687269946.786,-28.320,-22.949,-30.762,-20.020,38.086
1687269946.790,-38.574,-25.879,-26.367,-8.301,117.676
1687269946.794,-47.363,-30.762,-20.996,-15.137,366.211
1687269946.798,-46.387,-25.879,-28.320,-25.879,67.871
1687269946.802,-39.551,-22.461,-30.762,-24.414,-157.227
1687269946.804,-41.016,-30.762,-25.391,-25.879,-29.297
1687269946.808,-29.297,-26.855,-28.809,-38.086,-26.367
1687269946.812,-20.996,-20.508,-27.832,-38.574,-104.004
1687269946.816,-29.785,-21.484,-19.531,-32.227,-100.586
1687269946.820,-32.227,-24.902,-20.020,-27.344,-57.617
1687269946.824,-31.738,-26.367,-25.879,-21.484,8.789
1687269946.828,-31.738,-26.367,-28.320,-18.066,-21.973
1687269946.831,-42.969,-28.809,-25.879,-16.602,-114.746
1687269946.835,-44.434,-26.367,-22.949,-20.996,205.078
1687269946.839,-23.438,-21.484,-24.414,-29.297,271.973
1687269946.843,-29.297,-20.508,-25.391,-39.062,-12.207
1687269946.847,-39.551,-20.508,-24.902,-43.945,1.465
1687269946.864,-30.762,-18.066,-26.367,-37.598,217.773
1687269946.868,-30.273,-15.625,-23.926,-39.062,58.594
1687269946.872,-33.691,-12.695,-22.949,-47.363,-197.754
1687269946.876,-37.598,-17.090,-25.391,-45.898,-52.246
1687269946.880,-41.992,-22.949,-20.020,-33.203,-43.945
1687269946.884,-36.133,-28.320,-20.020,-25.391,-93.262
1687269946.888,-28.320,-23.438,-22.949,-24.902,-67.871
1687269946.891,-43.457,-21.973,-23.438,-30.762,85.449
1687269946.895,-51.758,-19.531,-26.367,-33.203,238.770
1687269946.899,-46.387,-18.066,-26.855,-38.086,-91.797
1687269946.903,-38.086,-21.973,-23.926,-46.875,-274.414
1687269946.907,-31.738,-20.996,-29.297,-48.340,-144.531
1687269946.894,-32.715,-22.461,-30.273,-30.273,-83.984
1687269946.898,-40.527,-29.297,-31.738,-30.762,-197.266
1687269946.902,-47.852,-26.855,-32.227,-41.992,-167.969
1687269946.906,-41.992,-20.508,-28.320,-34.180,-45.898
1687269946.910,-41.504,-23.926,-28.320,-34.180,-82.031
1687269946.914,-39.062,-27.832,-21.484,-32.227,-132.812
1687269946.918,-32.227,-26.367,-20.020,-26.855,-74.219
1687269946.921,-19.531,-18.066,-29.297,-31.738,-82.520
1687269946.925,-6.348,-16.602,-33.203,-39.062,-180.176
1687269946.929,-31.738,-29.297,-31.250,-37.598,-128.418
1687269946.933,-50.293,-31.738,-30.762,-41.504,-73.242
1687269946.937,-41.016,-31.250,-28.809,-29.785,207.520
1687269946.939,-45.898,-32.227,-25.879,-12.207,236.328
1687269946.943,-42.969,-28.320,-24.414,-20.996,-237.305
1687269946.947,-25.879,-26.855,-28.320,-40.527,-130.859
1687269946.951,-12.207,-17.578,-36.133,-46.387,5.859
1687269946.955,-14.160,-16.113,-32.715,-40.039,-176.270
1687269946.959,-27.344,-24.414,-28.320,-36.621,-212.891
1687269946.963,-29.785,-24.414,-23.926,-22.949,52.734
1687269946.966,-28.809,-25.391,-21.973,-12.695,248.535
1687269946.970,-32.227,-29.297,-22.949,-16.113,-111.328
1687269946.974,-34.668,-29.297,-24.902,-29.297,-234.375
1687269946.978,-20.020,-22.949,-24.902,-40.039,-138.672
1687269946.982,-19.043,-20.996,-27.344,-36.621,-152.832
1687269946.984,-33.691,-24.902,-31.250,-30.762,-207.520
1687269946.988,-34.668,-25.391,-26.367,-33.203,-139.648
1687269946.992,-25.879,-20.996,-27.832,-38.086,-36.133
1687269946.996,-27.344,-22.949,-29.297,-33.691,-68.848
1687269947.000,-37.598,-31.738,-23.926,-26.855,-94.238
1687269947.004,-35.156,-34.668,-19.043,-14.160,-75.195
1687269947.008,-34.668,-33.691,-19.531,-13.672,379.883
1687269947.011,-29.297,-29.297,-20.996,-25.391,489.258
1687269947.015,-32.227,-27.832,-23.926,-33.203,-59.082
1687269947.019,-37.598,-32.715,-23.926,-31.250,3.418
1687269947.023,-40.527,-31.738,-20.020,-28.320,257.812
1687269947.027,-36.621,-27.344,-21.973,-28.320,52.734
1687269947.029,-19.531,-26.367,-24.902,-31.250,-155.762
1687269947.033,-23.438,-24.902,-24.902,-33.203,-92.773
1687269947.037,-44.434,-28.809,-20.020,-32.227,-91.309
1687269947.041,-35.156,-27.832,-21.973,-28.809,-133.789
1687269947.045,-28.320,-24.414,-24.902,-32.715,-183.105
1687269947.049,-42.969,-31.250,-23.438,-34.668,83.008
1687269947.053,-35.156,-27.832,-22.461,-25.879,290.039
1687269947.056,-34.180,-23.926,-21.973,-28.809,46.875
1687269947.060,-41.016,-28.809,-24.414,-27.344,-125.977
1687269947.064,-39.062,-24.902,-22.461,-20.508,26.855
1687269947.068,-41.016,-20.996,-23.926,-36.133,185.059
1687269947.072,-30.762,-20.020,-29.785,-40.039,-90.332
1687269947.089,-28.809,-21.973,-26.367,-33.203,-207.031
1687269947.093,-36.133,-23.438,-19.531,-28.320,-150.879
1687269947.097,-30.273,-24.414,-20.020,-22.949,-139.648
1687269947.101,-19.531,-24.902,-19.531,-20.020,-175.781
1687269947.105,-14.160,-20.508,-20.020,-20.020,-115.234
1687269947.109,-19.043,-22.949,-25.879,-30.762,36.133
1687269947.113,-25.391,-25.879,-29.297,-31.738,77.148
1687269947.116,-32.715,-21.973,-28.809,-27.832,-66.895
1687269947.120,-31.250,-20.020,-29.297,-28.809,-131.836
1687269947.124,-21.973,-22.461,-28.809,-21.973,312.988
1687269947.128,-30.273,-26.367,-23.926,-20.508,365.234
1687269947.132,-42.480,-30.762,-21.973,-24.414,-159.668
1687269947.134,-45.898,-35.156,-21.484,-17.090,-130.859
1687269947.138,-22.461,-38.086,-19.043,-11.230,75.684
1687269947.142,-8.301,-26.367,-19.531,-20.020,-105.957
1687269947.146,-23.926,-19.531,-26.367,-29.297,-261.719
1687269947.150,-31.250,-19.531,-33.203,-43.457,-157.715
1687269947.154,-32.715,-14.648,-40.039,-59.570,-13.184
1687269947.158,-39.062,-18.066,-41.992,-56.641,52.246
1687269947.161,-37.109,-25.879,-40.039,-44.922,-94.727
1687269947.165,-39.551,-25.391,-39.062,-35.645,33.691
1687269947.169,-40.039,-23.926,-43.945,-33.691,203.125
1687269947.173,-39.062,-22.461,-37.598,-38.086,-83.008
1687269947.177,-37.598,-20.020,-31.738,-48.340,-61.035
1687269947.179,-26.367,-26.855,-40.039,-41.992,50.293
1687269947.183,-26.367,-28.809,-39.062,-35.645,-58.105
1687269947.187,-32.715,-26.855,-36.621,-38.086,-189.941
1687269947.191,-29.297,-25.879,-39.062,-33.203,-205.566
1687269947.195,-28.809,-22.949,-35.645,-22.949,-84.473
1687269947.199,-32.227,-24.414,-33.691,-19.531,63.965
1687269947.203,-32.227,-20.508,-33.203,-32.715,93.750
1687269947.206,-23.438,-22.949,-31.250,-41.504,-58.105
1687269947.210,-16.113,-26.855,-34.668,-41.016,98.145
1687269947.214,-26.367,-23.926,-32.715,-28.809,161.133
1687269947.218,-23.438,-23.438,-26.367,-29.297,-145.996
1687269947.222,-7.812,-26.367,-25.879,-39.062,-119.141
1687269947.224,-5.371,-27.344,-23.926,-28.809,62.500
1687269947.228,-14.160,-20.508,-21.484,-19.043,-102.051
1687269947.232,-28.320,-20.020,-19.531,-13.184,-164.062
1687269947.236,-37.598,-22.461,-15.625,-6.348,57.129
1687269947.240,-40.039,-22.461,-16.113,-0.977,53.223
1687269947.244,-41.504,-28.320,-24.414,-14.648,-53.711
1687269947.248,-45.410,-31.250,-29.785,-42.480,-71.289
1687269947.251,-43.945,-31.738,-25.391,-33.691,40.039
1687269947.255,-42.480,-33.203,-24.902,-23.438,200.195
1687269947.259,-38.086,-22.949,-28.809,-37.109,-102.539
1687269947.263,-35.645,-25.391,-33.203,-49.316,-235.352
1687269947.267,-40.527,-27.344,-32.227,-45.410,-156.250
1687269947.269,-37.109,-20.508,-25.391,-33.203,-145.508
1687269947.273,-26.855,-21.973,-28.320,-33.691,-148.438
1687269947.277,-15.625,-16.602,-25.391,-25.391,-99.121
1687269947.281,-22.461,-15.625,-27.344,-19.043,-62.988
1687269947.285,-27.832,-22.949,-33.691,-28.809,-106.934
1687269947.289,-31.250,-20.508,-29.297,-39.551,-32.227
1687269947.293,-34.180,-20.508,-26.855,-31.738,-28.809
1687269947.296,-37.598,-26.855,-27.344,-22.461,266.113
1687269947.300,-45.898,-23.926,-28.320,-24.414,328.613
1687269947.304,-34.180,-20.020,-27.832,-23.926,-109.863
1687269947.308,-12.695,-20.508,-24.902,-17.578,-86.426
1687269947.312,-24.414,-18.555,-23.438,-27.832,32.715
1687269947.314,-35.156,-18.066,-21.973,-45.410,-112.793
1687269947.318,-32.227,-20.508,-22.949,-46.875,-217.773
1687269947.322,-38.574,-23.438,-24.414,-40.039,-106.934
1687269947.326,-39.062,-22.949,-25.391,-48.828,-79.590
1687269947.330,-39.062,-25.391,-24.902,-49.805,-120.605
1687269947.334,-39.062,-26.855,-21.484,-41.992,-61.523
1687269947.338,-36.133,-26.855,-22.949,-31.250,159.668
1687269947.341,-41.016,-32.227,-25.391,-26.367,301.758
1687269947.345,-42.969,-31.738,-26.367,-33.691,8.789
1687269947.349,-34.668,-40.527,-28.809,-33.691,-201.172
1687269947.353,-35.645,-46.387,-23.926,-19.043,-53.711
1687269947.357,-27.832,-36.621,-14.648,-12.695,-4.883
1687269947.374,-28.809,-32.227,-19.531,-31.250,-136.719
1687269947.378,-41.016,-28.809,-33.203,-42.969,-126.953
1687269947.382,-24.414,-22.949,-37.109,-31.738,-84.961
1687269947.386,-21.973,-26.855,-37.109,-29.785,-63.965
1687269947.390,-29.297,-24.414,-32.227,-36.621,-47.852
1687269947.394,-23.926,-17.578,-30.273,-27.344,1.953
1687269947.398,-23.438,-17.090,-32.715,-17.090,244.629
1687269947.401,-21.973,-18.555,-31.250,-21.484,139.160
1687269947.405,-31.250,-20.996,-28.809,-35.645,-213.379
1687269947.409,-34.668,-20.020,-28.320,-32.715,-101.562
1687269947.413,-26.367,-18.066,-26.855,-24.902,227.539
1687269947.417,-15.625,-13.184,-26.367,-17.578,41.992
1687269947.404,-18.555,-15.625,-26.367,-21.484,-282.715
1687269947.408,-23.438,-19.531,-24.414,-13.672,-149.902
1687269947.412,-14.160,-19.043,-27.344,-6.348,-16.602
1687269947.416,-16.602,-17.578,-33.203,-16.113,-97.168
1687269947.420,-11.230,-16.602,-34.180,-28.320,-122.070
1687269947.424,0.488,-20.508,-35.156,-34.180,38.086
1687269947.428,-20.996,-21.484,-32.715,-40.039,107.422
1687269947.431,-35.156,-21.484,-29.785,-42.969,-30.273
1687269947.435,-38.574,-18.066,-28.809,-39.551,-131.348
1687269947.439,-40.039,-21.484,-32.715,-26.855,34.180
1687269947.443,-30.762,-22.461,-35.156,-10.742,214.844
1687269947.447,-23.438,-24.414,-32.227,-8.789,-103.516
1687269947.463,-25.879,-26.855,-26.367,-1.465,-167.969
1687269947.467,-25.879,-24.902,-26.367,-15.137,30.762
1687269947.471,-29.785,-26.855,-29.785,-37.598,-87.891
1687269947.475,-36.621,-24.902,-31.250,-50.781,-232.910
1687269947.479,-32.715,-27.344,-33.203,-51.270,-144.531
1687269947.483,-29.297,-32.227,-32.715,-55.176,-37.109
1687269947.487,-33.203,-27.344,-29.297,-56.641,-41.992
1687269947.490,-41.992,-23.926,-27.832,-41.992,-99.121
1687269947.494,-42.480,-25.879,-26.367,-34.668,-133.789
1687269947.498,-43.457,-25.879,-27.832,-25.391,309.082
1687269947.502,-43.457,-27.344,-33.203,-20.996,345.703
1687269947.506,-43.457,-30.273,-33.691,-29.785,-205.566
1687269947.509,-37.598,-31.738,-30.273,-35.156,-186.523
1687269947.513,-21.484,-30.762,-27.832,-30.273,-93.750
1687269947.517,-29.785,-30.273,-23.926,-30.762,-92.773
1687269947.521,-33.203,-27.344,-19.531,-27.344,-75.684
1687269947.525,-32.227,-26.367,-20.508,-14.648,73.242
1687269947.529,-37.598,-29.785,-23.438,-23.926,234.863
1687269947.533,-33.691,-30.273,-25.391,-38.086,33.691
1687269947.536,-42.480,-26.367,-26.855,-37.109,-193.848
1687269947.540,-40.527,-26.855,-26.367,-18.555,-9.766
1687269947.544,-42.969,-27.832,-25.391,-5.859,196.289
1687269947.548,-47.363,-29.297,-25.879,-18.066,-78.125
1687269947.552,-38.086,-34.180,-26.855,-19.043,-193.848
1687269947.568,-41.992,-27.832,-23.438,-17.578,-152.832
1687269947.572,-35.156,-19.043,-25.879,-23.438,-125.000
1687269947.576,-39.062,-20.996,-33.691,-43.945,-169.434
1687269947.580,-51.758,-21.484,-33.203,-51.758,-166.992
1687269947.584,-49.805,-24.414,-32.715,-41.504,-85.449
1687269947.588,-45.898,-29.297,-32.227,-41.016,-42.969
1687269947.592,-42.969,-26.855,-33.203,-54.688,-32.227
1687269947.595,-39.062,-24.414,-28.809,-41.016,-50.293
1687269947.599,-47.363,-24.902,-23.926,-25.391,210.449
1687269947.603,-53.223,-26.367,-21.973,-36.621,396.484
1687269947.607,-45.898,-23.438,-19.043,-42.969,-31.250
1687269947.611,-36.621,-21.973,-19.531,-27.832,-108.887
1687269947.599,-31.250,-28.320,-18.066,-23.438,101.074
1687269947.603,-28.320,-27.344,-17.090,-41.504,-43.945
1687269947.607,-27.832,-20.996,-21.973,-48.340,-189.941
1687269947.611,-23.926,-24.902,-21.484,-50.293,-122.070
1687269947.615,-29.785,-28.320,-20.020,-34.180,-62.500
1687269947.619,-35.156,-26.855,-26.367,-12.207,-4.883
1687269947.623,-33.203,-27.832,-27.832,-27.344,16.113
1687269947.626,-21.484,-23.926,-24.414,-38.574,52.734
1687269947.630,-19.043,-21.484,-22.949,-26.855,58.105
1687269947.634,-33.203,-31.250,-22.949,-23.926,-107.422
1687269947.638,-40.039,-29.785,-18.555,-21.484,-207.520
1687269947.642,-35.156,-26.855,-18.555,-17.578,-13.184
1687269947.643,-38.086,-31.250,-26.855,-26.855,214.844
1687269947.647,-33.691,-23.926,-26.367,-24.414,-79.102
1687269947.651,-25.391,-22.949,-27.344,-30.273,-239.258
1687269947.655,-34.180,-28.809,-26.367,-33.203,-126.465
1687269947.659,-41.992,-30.273,-21.484,-25.879,-69.824
1687269947.663,-38.086,-24.414,-20.996,-19.531,-45.410
1687269947.667,-37.598,-21.973,-25.879,-20.996,-16.602
1687269947.670,-36.133,-25.391,-29.785,-34.668,243.164
1687269947.674,-27.344,-19.043,-24.414,-36.133,180.176
1687269947.678,-31.738,-17.090,-23.926,-22.949,-102.051
1687269947.682,-38.086,-24.414,-26.855,-12.695,14.648
1687269947.686,-38.086,-24.902,-26.367,-19.531,142.578
1687269947.689,-33.203,-23.926,-26.855,-25.391,-80.566
1687269947.693,-36.133,-22.461,-25.391,-35.156,-261.230
1687269947.697,-36.621,-21.973,-25.879,-40.039,-80.566
1687269947.701,-39.062,-25.879,-27.344,-25.879,52.734
1687269947.705,-43.945,-20.020,-24.414,-18.066,-124.023
1687269947.709,-46.875,-19.043,-18.066,-17.090,-184.570
1687269947.713,-48.340,-25.879,-23.926,-21.973,83.984
1687269947.716,-41.504,-26.855,-31.738,-43.457,227.051
1687269947.720,-38.574,-26.855,-29.297,-57.129,-80.566
1687269947.724,-34.668,-25.391,-28.320,-32.715,-214.355
1687269947.728,-37.109,-27.832,-26.855,-31.738,-115.723
1687269947.732,-42.480,-30.273,-30.762,-52.734,-97.168
1687269947.736,-36.133,-22.461,-29.785,-53.223,-142.090
1687269947.740,-29.785,-20.020,-29.297,-49.316,-122.559
1687269947.744,-33.203,-23.438,-35.156,-44.922,-66.406
1687269947.748,-32.227,-21.484,-36.133,-41.016,-106.445
1687269947.752,-23.926,-16.602,-30.762,-33.691,-182.129
1687269947.756,-22.461,-20.996,-27.832,-29.297,-76.660
1687269947.760,-28.809,-19.043,-28.320,-34.668,252.930
1687269947.763,-23.926,-17.578,-28.809,-39.062,162.109
1687269947.767,-31.250,-26.855,-31.738,-31.250,-206.543
1687269947.771,-46.387,-29.297,-31.738,-31.250,-84.961
1687269947.775,-45.410,-26.855,-29.297,-26.367,138.184
1687269947.779,-46.875,-24.902,-30.273,-25.879,-24.902
1687269947.779,-52.246,-27.344,-33.691,-27.344,-209.473
1687269947.783,-43.945,-29.785,-35.645,-20.020,-102.539
1687269947.787,-29.297,-29.785,-34.180,-41.992,-71.289
1687269947.791,-33.203,-28.320,-30.762,-51.270,-113.281
1687269947.795,-35.156,-25.879,-31.738,-33.691,-144.531
1687269947.799,-34.180,-25.391,-34.180,-39.062,18.066
1687269947.803,-40.527,-25.879,-27.832,-52.734,371.582
1687269947.806,-38.086,-25.391,-27.832,-43.945,127.441
1687269947.810,-43.457,-27.344,-35.156,-46.875,-160.645
1687269947.814,-48.828,-28.809,-35.645,-55.664,-65.918
1687269947.818,-37.598,-28.320,-32.227,-39.551,-94.727
1687269947.822,-29.785,-27.344,-32.227,-33.691,-188.477
1687269947.839,-30.762,-23.438,-32.227,-36.621,-133.789
1687269947.843,-29.297,-20.508,-29.785,-30.273,-72.266
1687269947.847,-24.902,-17.578,-26.855,-25.391,-103.516
1687269947.851,-27.344,-16.602,-20.508,-7.324,-184.082
1687269947.855,-31.738,-20.020,-18.066,-5.859,-132.324
1687269947.859,-30.762,-25.391,-22.461,-21.484,61.523
1687269947.863,-34.180,-23.926,-17.090,-24.414,59.082
1687269947.866,-41.992,-22.949,-19.531,-33.203,31.738
1687269947.870,-35.156,-25.391,-23.926,-24.902,-21.973
1687269947.874,-34.180,-23.438,-24.414,-21.484,-3.906
1687269947.878,-36.621,-20.996,-25.391,-38.574,-44.434
1687269947.882,-27.832,-20.020,-19.043,-32.227,-152.344
1687269947.884,-28.320,-23.926,-17.090,-33.691,-80.078
1687269947.888,-25.879,-26.367,-18.066,-27.344,291.992
1687269947.892,-33.691,-23.926,-20.020,-27.832,342.285
1687269947.896,-40.527,-27.344,-24.414,-37.598,-101.074
1687269947.900,-31.250,-26.367,-26.367,-33.691,-108.887
1687269947.904,-19.043,-22.461,-26.855,-37.598,61.523
1687269947.908,-26.367,-30.273,-25.391,-33.203,-2.930
1687269947.911,-45.898,-34.180,-24.414,-32.227,-182.129
1687269947.915,-40.039,-32.715,-22.461,-24.414,-3.418
1687269947.919,-35.156,-30.762,-22.461,-20.020,318.359
1687269947.923,-46.387,-30.762,-22.949,-41.992,22.461
1687269947.927,-41.016,-24.902,-20.996,-41.016,-205.078
1687269947.928,-30.762,-17.090,-20.508,-20.020,-117.676
1687269947.932,-22.461,-22.461,-20.508,-28.809,-104.980
1687269947.936,-29.297,-24.902,-26.855,-41.504,-143.066
1687269947.940,-39.062,-22.949,-28.809,-35.645,-129.883
1687269947.944,-34.180,-20.020,-23.438,-19.043,-110.840
1687269947.948,-41.504,-26.855,-26.367,-12.695,-70.801
1687269947.952,-48.340,-29.297,-29.297,-28.809,-42.969
1687269947.955,-42.969,-27.832,-29.297,-42.969,-70.312
1687269947.959,-15.625,-16.113,-36.133,-22.461,153.809
1687269947.963,-1.465,-13.184,-32.227,-1.953,255.371
1687269947.967,-21.484,-28.809,-16.602,-7.812,-39.062
1687269947.971,-36.133,-36.133,-12.207,-22.949,-55.664
1687269947.975,-37.109,-37.598,-16.602,-28.809,174.316
1687269947.979,-34.180,-35.156,-18.066,-38.086,20.996
1687269947.983,-42.480,-36.621,-7.812,-35.156,-221.680
1687269947.987,-43.945,-38.086,1.953,-15.625,-156.250
1687269947.991,-42.480,-40.039,4.395,-34.180,-83.496
1687269947.995,-54.199,-43.945,8.789,-35.645,-40.039
1687269947.999,-59.082,-46.387,6.836,-19.043,-73.730
1687269948.002,-59.570,-44.922,-1.953,-19.043,36.133
1687269948.006,-51.270,-36.621,-1.465,-21.973,200.195
1687269948.010,-43.945,-31.738,-5.371,-25.391,-83.984
1687269948.014,-41.504,-35.156,-11.230,-20.996,-179.688
1687269948.018,-37.598,-37.598,-11.719,-11.719,-41.016
1687269948.019,-41.504,-39.551,-10.742,-20.996,-80.566
1687269948.023,-40.039,-37.109,-8.301,-27.832,-112.793
1687269948.027,-39.551,-39.062,-13.672,-22.461,-104.004
1687269948.031,-41.504,-41.016,-12.207,-13.672,-18.555
1687269948.035,-44.434,-33.691,-16.113,-18.066,-29.297
1687269948.039,-46.875,-29.297,-20.020,-27.344,-125.977
1687269948.043,-47.852,-34.668,-20.020,-34.180,-35.156
1687269948.046,-50.781,-36.621,-25.391,-32.715,262.207
1687269948.050,-50.293,-32.715,-24.902,-22.949,311.035
1687269948.054,-42.480,-28.809,-23.438,-27.344,-30.273
1687269948.058,-37.598,-27.344,-26.855,-39.062,-90.332
1687269948.062,-37.598,-28.809,-26.367,-38.086,40.039
1687269948.063,-25.879,-29.297,-29.297,-36.133,-79.102
1687269948.067,-24.414,-26.855,-34.180,-36.621,-211.914
1687269948.071,-38.086,-24.902,-27.832,-30.762,-125.000
1687269948.075,-41.992,-27.832,-25.391,-29.785,-51.758
1687269948.079,-37.109,-26.367,-22.949,-19.043,-52.734
1687269948.083,-32.715,-27.344,-22.461,-17.090,-35.156
1687269948.087,-29.297,-27.344,-25.391,-28.809,161.621
1687269948.090,-36.133,-28.320,-24.414,-23.438,374.512
1687269948.094,-46.387,-32.715,-25.391,-35.156,78.125
1687269948.098,-34.180,-22.461,-26.367,-40.039,-213.379
1687269948.102,-28.809,-18.066,-23.438,-31.250,-174.805
1687269948.106,-34.668,-18.066,-23.438,-29.785,-172.852
1687269948.108,-40.527,-14.648,-27.344,-31.738,-172.852
1687269948.112,-45.410,-25.391,-23.438,-43.945,-172.852
1687269948.116,-49.316,-26.367,-20.508,-42.969,-133.789
1687269948.120,-58.105,-20.020,-25.391,-56.641,-78.125
1687269948.124,-62.500,-23.438,-29.297,-64.453,-74.707
1687269948.128,-55.664,-23.926,-21.484,-56.641,-40.039
1687269948.132,-63.965,-30.762,-7.324,-41.016,219.727
1687269948.135,-71.777,-34.180,-13.672,-46.387,241.699
1687269948.139,-62.500,-11.230,-26.367,-71.289,-184.570
1687269948.143,-83.496,4.883,-25.879,-82.520,-240.234
1687269948.147,-96.680,6.836,-28.320,-93.750,119.141
1687269948.151,-103.027,4.395,-34.668,-116.211,43.457
1687269948.155,-106.934,6.348,-34.668,-130.859,-277.344
1687269948.159,-90.820,10.742,-32.715,-126.465,-210.938
1687269948.163,-100.586,12.695,-39.551,-130.859,-134.277
1687269948.167,-104.492,18.555,-42.969,-138.672,-142.090
1687269948.171,-89.844,9.766,-39.062,-125.000,-168.945
1687269948.175,-87.891,-6.836,-38.086,-106.445,109.375
1687269948.179,-81.055,-7.812,-38.086,-86.914,313.477
1687269948.182,-72.266,-8.301,-37.109,-82.520,-36.133
1687269948.186,-55.176,-11.230,-40.527,-84.473,-202.148
1687269948.190,-46.387,-14.160,-42.969,-72.266,42.969
1687269948.194,-35.645,-13.672,-42.480,-46.875,137.695
1687269948.198,-29.297,-15.137,-40.039,-41.504,-113.281
1687269948.214,-21.484,-24.414,-33.691,-41.016,-181.152
1687269948.218,-20.996,-28.320,-37.109,-40.527,-139.160
1687269948.222,-19.531,-26.367,-40.039,-31.738,-112.793
1687269948.226,-7.324,-25.879,-34.180,-17.090,-161.621
1687269948.230,-10.742,-25.879,-31.738,-20.996,-139.648
1687269948.234,-14.160,-30.273,-32.715,-18.555,16.602
1687269948.238,-7.812,-32.715,-29.297,-9.766,35.156
1687269948.241,-15.137,-32.227,-29.297,-4.883,-21.484
1687269948.245,-15.625,-34.180,-22.949,-0.977,-133.789
1687269948.249,2.441,-33.203,-21.973,0.488,232.910
1687269948.253,-0.977,-27.832,-31.250,-5.371,329.590
1687269948.257,-3.418,-23.926,-32.715,-15.625,-43.945
1687269948.258,17.090,-30.273,-33.691,-15.625,-20.508
1687269948.262,20.020,-30.273,-36.621,-10.742,19.531
1687269948.266,12.207,-33.203,-31.250,-6.836,-108.398
1687269948.270,-2.930,-33.691,-26.367,-9.766,-187.988
1687269948.274,-18.555,-25.391,-25.879,5.859,-120.605
1687269948.278,-22.461,-23.926,-25.391,30.762,28.320
1687269948.282,-21.973,-30.273,-25.391,33.691,40.039
1687269948.285,-25.879,-32.227,-24.414,6.836,-143.066
1687269948.289,-25.391,-30.273,-27.832,0.000,15.625
1687269948.293,-26.855,-28.809,-29.785,3.418,241.699
1687269948.297,-35.156,-27.344,-34.668,-25.391,-64.453
1687269948.301,-27.832,-29.297,-29.785,-22.461,-195.312
1687269948.304,-22.949,-28.320,-21.973,-8.789,-116.211
1687269948.308,-19.531,-29.297,-25.391,-8.789,-96.191
1687269948.312,-11.719,-27.344,-29.297,3.418,-63.965
1687269948.316,-11.719,-22.949,-27.344,-4.883,-85.449
1687269948.320,-21.484,-23.438,-25.879,-16.113,-30.273
1687269948.324,-20.996,-27.344,-21.484,-0.977,42.480
1687269948.328,-5.859,-29.785,-15.137,12.207,-68.359
1687269948.331,-6.348,-26.855,-20.996,-5.371,-166.504
1687269948.335,-23.438,-20.996,-31.738,-26.855,122.070
1687269948.339,-30.762,-20.020,-37.109,-28.320,273.438
1687269948.343,-20.996,-10.742,-39.062,-34.180,-75.684
1687269948.347,-19.531,-10.742,-42.480,-37.598,-175.293
1687269948.348,-16.113,-16.602,-40.039,-32.715,33.691
1687269948.352,-15.625,-9.766,-41.504,-41.504,-73.730
1687269948.356,-18.555,-5.371,-42.480,-37.109,-196.777
1687269948.360,-20.996,-12.695,-42.969,-21.484,-112.305
1687269948.364,-28.320,-19.531,-46.387,-18.066,-36.133
1687269948.368,-27.344,-19.043,-43.457,-9.277,17.090
1687269948.372,-37.109,-20.996,-39.551,-24.902,-30.273
1687269948.375,-30.762,-23.438,-41.016,-30.762,62.012
1687269948.379,-25.879,-22.461,-42.480,-30.762,339.844
1687269948.383,-34.180,-25.879,-43.457,-46.387,104.492
1687269948.387,-29.297,-27.832,-39.062,-36.621,-170.410
1687269948.391,-19.531,-23.926,-35.645,-29.785,-69.824
1687269948.393,-21.973,-21.973,-34.180,-39.551,-103.516
1687269948.397,-30.762,-28.320,-32.715,-40.527,-176.270
1687269948.401,-33.203,-30.762,-31.250,-28.809,-159.180
1687269948.405,-26.855,-23.926,-29.297,-27.344,-112.305
1687269948.409,-25.879,-22.461,-32.227,-32.715,-77.148
1687269948.413,-20.508,-25.391,-33.203,-34.668,-29.297
1687269948.417,-27.832,-30.273,-34.180,-38.574,23.438
1687269948.420,-32.227,-31.250,-32.227,-24.414,371.094
1687269948.424,-21.973,-27.832,-28.320,-17.578,400.391
1687269948.428,-19.043,-22.949,-29.785,-34.668,-57.617
1687269948.432,-10.742,-21.973,-28.809,-29.785,-84.473
1687269948.436,-17.578,-27.344,-30.762,-26.855,38.086
1687269948.438,-32.227,-27.344,-32.715,-39.551,-127.930
1687269948.442,-28.320,-26.367,-32.715,-34.180,-283.203
1687269948.446,-24.414,-23.926,-32.227,-36.621,-185.547
1687269948.450,-23.438,-19.531,-23.926,-37.109,-105.957
1687269948.454,-29.785,-22.949,-20.996,-33.691,-136.230
1687269948.458,-30.762,-26.367,-20.020,-18.555,-89.844
1687269948.462,-10.254,-21.484,-18.066,-8.301,46.875
1687269948.465,-10.254,-13.672,-21.484,-15.137,126.953
1687269948.469,-26.855,-16.602,-20.020,-16.113,-107.422
1687269948.473,-34.668,-22.461,-19.531,-33.203,-104.492
1687269948.477,-23.438,-13.184,-24.414,-34.668,57.617
1687269948.481,4.883,2.930,-31.738,0.000,-55.664
1687269948.513,1.953,-3.906,-26.367,2.441,-199.707
1687269948.517,-32.227,-29.297,-14.160,-9.766,-151.855
1687269948.521,-40.039,-35.156,-8.789,-24.414,-37.598
1687269948.525,-41.504,-29.297,-5.859,-25.879,-69.336
1687269948.529,-48.340,-34.668,-2.930,-14.648,-141.602
1687269948.533,-33.203,-33.203,-3.418,-20.996,-116.699
1687269948.537,-30.762,-30.273,0.488,-26.367,184.570
1687269948.540,-49.805,-35.645,7.812,-21.973,198.730
1687269948.544,-54.199,-39.062,5.371,-21.973,-140.137
1687269948.548,-46.875,-39.062,3.418,-18.555,-33.203
1687269948.552,-47.363,-35.156,-4.395,-22.461,149.414
1687269948.556,-46.875,-28.320,-8.301,-20.996,42.969
1687269948.529,-45.898,-27.832,-5.859,-17.090,-62.012
1687269948.533,-44.434,-34.180,-10.254,-29.785,-62.988
1687269948.537,-47.363,-42.480,-15.137,-34.668,-8.789
1687269948.541,-43.457,-40.039,-20.508,-27.832,-128.418
1687269948.545,-30.762,-35.156,-15.625,-36.621,-211.426
1687269948.549,-28.320,-36.621,-13.672,-35.156,-12.207
1687269948.553,-31.250,-26.855,-20.996,-30.273,24.902
1687269948.556,-37.109,-23.438,-22.461,-32.227,-144.531
1687269948.560,-39.551,-31.250,-20.996,-22.461,-197.266
1687269948.564,-37.109,-31.250,-15.137,-6.836,-62.012
1687269948.568,-34.180,-29.297,-18.555,-21.484,-15.625
1687269948.572,-33.203,-30.762,-24.902,-27.832,-116.699
1687269948.589,-22.949,-24.414,-19.531,-16.113,-202.148
1687269948.593,-20.508,-19.531,-16.602,-6.348,25.879
1687269948.597,-29.785,-32.227,-19.531,-4.883,247.559
1687269948.601,-26.855,-31.250,-21.973,-13.184,-24.414
1687269948.605,-22.949,-21.484,-19.531,-5.859,-110.352
1687269948.609,-30.762,-23.926,-20.508,-8.301,261.230
1687269948.613,-29.785,-22.949,-23.926,-9.766,322.266
1687269948.616,-19.531,-20.020,-22.949,-16.113,-142.578
1687269948.620,-22.461,-22.949,-23.926,-29.785,-219.727
1687269948.624,-29.785,-21.973,-24.414,-28.809,102.539
1687269948.628,-30.762,-17.090,-20.996,-21.973,70.801
1687269948.632,-32.227,-19.043,-25.391,-28.320,-206.055
1687269948.633,-33.203,-24.902,-22.949,-31.250,-145.996
1687269948.637,-36.621,-24.902,-22.949,-15.625,-1.953
1687269948.641,-43.945,-20.508,-29.785,-17.090,-106.934
1687269948.645,-40.527,-23.926,-29.297,-30.273,-227.539
1687269948.649,-35.156,-23.438,-25.391,-27.832,-109.863
1687269948.653,-28.809,-15.137,-25.391,-23.926,19.043
1687269948.657,-31.738,-19.043,-23.438,-28.809,-37.598
1687269948.660,-38.574,-22.461,-23.926,-27.832,-88.379
